'Time and date','FP1-F7','F7-T7','T7-P7','P7-O1','FP1-F3','F3-C3','C3-P3','P3-O1','FP2-F4','F4-C4','C4-P4','P4-O2','FP2-F8','F8-T8','T8-P8','P8-O2','FZ-CZ','CZ-PZ','P7-T7','T7-FT9','FT9-FT10','FT10-T8','T8-P8'
'hh:mm:ss.mmm dd/mm/yyyy','uV','uV','uV','uV','uV','uV','uV','uV','uV','uV','uV','uV','uV','uV','uV','uV','uV','uV','uV','uV','uV','uV','uV'
'[09:31:46.000 25/07/2074]',-209.817,233.651,-66.422,584.518,-63.687,11.722,-135.971,729.866,-112.918,-41.026,26.178,-35.946,98.852,-157.851,-118.779,14.066,36.337,-56.654,67.204,-137.924,327.814,-121.123,-118.779
'[09:31:46.004 25/07/2074]',0.391,0.391,0.391,0.391,0.391,0.391,0.391,0.391,0.391,0.391,0.391,0.391,0.391,0.391,0.391,0.391,0.391,0.391,0.391,0.391,0.391,0.391,0.391
'[09:31:46.008 25/07/2074]',0.391,-1.172,2.344,0.000,0.391,0.391,0.391,0.000,0.391,0.391,0.391,0.391,0.391,1.172,0.000,0.391,0.391,0.391,-1.563,1.954,0.391,0.781,0.000
'[09:31:46.012 25/07/2074]',0.391,-1.563,2.344,-1.563,0.391,0.391,1.563,-3.126,0.391,0.391,0.391,0.000,0.391,3.516,-2.735,0.391,0.391,0.391,-1.563,2.735,0.391,3.126,-2.735
'[09:31:46.016 25/07/2074]',0.391,13.284,-13.675,3.126,0.391,-0.391,3.126,0.391,0.391,0.391,0.000,1.172,0.391,-2.735,3.126,0.781,0.391,0.391,14.457,-12.503,0.000,-1.954,3.126
'[09:31:46.020 25/07/2074]',0.000,4.298,-4.298,7.424,-0.391,-0.781,-5.861,14.847,0.000,0.391,-0.391,1.954,0.391,-14.066,14.066,0.781,-0.391,0.391,5.079,-5.470,1.563,-11.722,14.066
'[09:31:46.023 25/07/2074]',-0.781,-17.973,21.490,1.563,-0.391,1.172,-16.020,18.755,0.391,0.391,0.391,-0.391,0.000,-5.470,6.642,-0.391,0.391,0.391,-20.708,17.582,2.344,-5.079,6.642
'[09:31:46.027 25/07/2074]',0.000,-8.205,12.112,-5.861,0.391,2.735,-0.391,-4.689,0.781,0.391,1.563,-2.344,0.391,17.582,-16.020,-1.172,1.563,0.000,-11.331,10.940,0.391,14.847,-16.020
'[09:31:46.031 25/07/2074]',0.000,19.536,-19.145,0.391,0.781,0.391,23.053,-23.053,0.391,0.391,1.172,0.391,1.954,10.159,-9.768,0.000,0.781,-0.391,19.927,-14.457,-0.391,8.596,-9.768
'[09:31:46.035 25/07/2074]',-1.172,-10.940,10.549,6.642,0.391,-0.391,3.907,0.781,-0.391,0.781,-0.391,1.172,0.391,-18.364,19.145,0.391,-0.391,0.391,-9.768,10.159,3.126,-16.410,19.145
'[09:31:46.039 25/07/2074]',0.391,6.642,-10.940,18.364,-3.126,-1.563,-36.337,56.264,-1.172,1.172,-3.126,3.516,-1.563,-40.635,40.244,1.172,-1.954,1.563,11.722,-18.755,5.861,-33.211,40.244
'[09:31:46.043 25/07/2074]',-7.424,110.183,-118.388,69.158,-13.284,-12.112,-57.827,137.924,-6.252,0.391,-9.377,15.238,2.344,-104.322,96.899,4.298,-8.205,-1.563,119.170,-124.249,11.331,-83.223,96.899
'[09:31:46.047 25/07/2074]',-14.066,-74.237,87.521,62.906,-14.066,0.391,-106.667,182.857,-6.252,1.172,-4.689,2.344,4.298,-113.700,108.620,-7.424,-6.252,-5.079,-86.740,66.032,26.178,-98.852,108.620
'[09:31:46.051 25/07/2074]',-29.304,-44.542,75.409,58.608,-16.020,7.424,-113.700,182.466,-6.642,4.689,0.391,-8.205,2.735,-64.469,66.813,-14.457,-1.172,-7.814,-74.628,47.668,31.258,-58.217,66.813
'[09:31:46.055 25/07/2074]',-26.569,-91.429,120.733,52.747,-12.503,15.238,-73.455,126.203,-8.987,7.033,3.907,-16.020,11.331,-31.648,31.648,-26.178,-1.172,-8.987,-119.951,80.879,50.012,-21.490,31.648
'[09:31:46.059 25/07/2074]',-31.258,-218.022,253.578,35.165,-7.424,21.880,-50.012,74.237,-8.205,10.940,2.344,-27.741,10.159,-57.045,60.562,-35.946,1.563,-7.814,-252.796,220.366,51.575,-55.482,60.562
'[09:31:46.063 25/07/2074]',-5.079,-278.584,284.054,23.053,-8.205,25.397,-63.297,70.330,-10.159,18.755,-4.298,-34.383,2.344,-53.138,55.092,-34.383,5.470,-4.298,-283.272,243.810,52.747,-51.966,55.092
'[09:31:46.066 25/07/2074]',30.085,-142.222,94.945,27.741,-17.973,14.847,-61.343,76.190,-10.940,16.410,-19.927,-32.430,5.079,-41.026,26.178,-37.900,3.126,-7.814,-94.164,66.813,42.589,-19.927,26.178
'[09:31:46.070 25/07/2074]',-12.894,-36.337,26.960,28.523,-13.675,-4.689,-7.033,32.039,-7.814,19.536,-28.913,-32.821,0.391,-21.099,10.940,-40.635,5.079,-14.066,-26.178,28.132,12.503,0.781,10.940
'[09:31:46.074 25/07/2074]',34.383,-104.322,50.794,23.053,-21.880,6.252,-0.391,20.708,-8.987,22.662,-24.615,-38.681,-4.689,7.814,-13.284,-39.463,13.675,-22.662,-50.012,55.092,7.814,24.615,-13.284
'[09:31:46.078 25/07/2074]',-40.635,125.812,-110.574,25.006,-10.159,-6.252,7.424,8.987,-4.689,21.880,-30.476,-32.430,-10.549,23.053,-19.927,-39.463,12.503,-21.490,111.355,-126.203,21.880,45.714,-19.927
'[09:31:46.082 25/07/2074]',-46.496,-57.436,91.038,15.629,-10.549,8.205,26.569,-21.490,-4.689,24.615,-28.913,-29.304,-9.377,31.648,-19.927,-40.635,12.112,-19.145,-90.256,58.217,26.960,62.125,-19.927
'[09:31:46.086 25/07/2074]',-23.834,-113.700,133.626,14.457,-3.516,10.940,39.072,-35.946,-6.642,22.662,-23.053,-18.755,-5.470,-40.244,51.575,-32.430,13.675,-17.192,-132.845,110.574,35.556,-29.304,51.575
'[09:31:46.090 25/07/2074]',-39.463,-134.408,159.805,19.145,-8.205,8.596,29.695,-24.615,-7.033,12.112,-17.192,-15.629,-3.126,-8.205,12.894,-30.476,7.814,-10.940,-159.023,140.269,44.933,4.298,12.894
'[09:31:46.094 25/07/2074]',-26.178,-137.534,144.957,17.973,-14.066,2.735,21.880,-10.159,-5.861,3.907,-9.768,-16.801,-3.126,10.159,-2.735,-32.821,-0.781,-10.159,-144.176,126.203,32.821,40.244,-2.735
'[09:31:46.098 25/07/2074]',-5.079,-117.998,112.918,23.053,-8.987,0.391,6.642,15.629,-2.735,3.516,1.954,-12.894,3.126,-10.159,25.006,-28.132,0.391,-16.801,-112.137,102.369,23.053,19.927,25.006
'[09:31:46.102 25/07/2074]',-41.416,-93.382,126.984,21.490,-14.457,6.642,27.741,-6.642,-4.298,1.563,19.927,-21.490,-5.861,39.072,-14.847,-23.053,2.344,-13.675,-126.203,105.885,33.602,55.092,-14.847
'[09:31:46.105 25/07/2074]',-45.324,-24.615,76.972,12.503,-14.457,9.768,94.945,-71.111,-5.079,10.159,8.987,-10.940,-7.424,8.205,19.145,-16.410,1.563,-8.987,-76.190,16.410,38.681,42.979,19.145
'[09:31:46.109 25/07/2074]',-12.112,-53.529,82.051,19.145,-16.801,14.847,136.752,-100.024,-8.596,21.490,3.126,-1.172,-13.284,-40.244,79.316,-10.549,5.861,-2.735,-81.270,19.536,31.648,-8.596,79.316
'[09:31:46.113 25/07/2074]',-17.582,-61.734,95.336,16.020,-24.225,14.847,170.745,-129.719,-20.317,20.708,9.768,0.391,-15.238,0.781,41.026,-13.675,9.768,10.940,-94.554,53.138,30.476,11.722,41.026
'[09:31:46.117 25/07/2074]',-4.689,-137.143,146.520,25.397,-33.602,12.894,188.327,-136.752,-28.913,18.755,9.377,7.424,-21.490,-57.827,92.601,-5.079,9.377,18.364,-145.739,105.885,40.635,-53.919,92.601
'[09:31:46.121 25/07/2074]',49.621,-173.480,149.646,18.364,-37.118,36.337,154.335,-107.448,-27.741,26.960,10.940,0.781,-26.178,-8.205,57.436,-10.159,11.722,21.099,-148.864,95.726,31.258,0.781,57.436
'[09:31:46.125 25/07/2074]',-18.755,-57.045,100.024,16.801,-23.834,19.536,134.017,-87.912,-27.741,28.913,16.020,-1.954,-14.066,12.112,33.211,-15.629,10.940,17.192,-99.243,53.529,36.337,19.927,33.211
'[09:31:46.129 25/07/2074]',-25.788,-147.692,212.943,5.079,-24.615,42.589,100.415,-73.846,-28.913,28.913,15.629,-1.954,-24.225,-76.581,114.090,0.391,12.503,16.410,-212.161,125.421,54.310,-67.204,114.090
'[09:31:46.133 25/07/2074]',-38.291,-16.801,89.866,9.377,-27.741,35.946,117.998,-81.270,-25.788,32.821,-1.563,1.172,-25.788,-99.243,126.593,4.689,9.377,13.284,-89.084,-1.954,37.118,-62.515,126.593
'[09:31:46.137 25/07/2074]',-73.846,17.973,84.786,1.563,-23.834,24.225,117.216,-86.740,-28.913,28.913,3.516,-4.689,-19.536,-34.383,55.873,-2.344,9.768,8.596,-84.005,24.615,32.039,-18.755,55.873
'[09:31:46.141 25/07/2074]',-66.032,10.159,82.833,-3.126,-37.900,33.211,116.825,-87.912,-31.648,17.973,12.503,-5.470,-17.582,-17.582,21.099,8.596,12.894,5.861,-82.051,29.304,22.271,-1.954,21.099
'[09:31:46.145 25/07/2074]',-25.006,-51.966,99.634,-1.172,-44.151,28.523,111.355,-74.237,-33.211,18.364,12.894,-12.503,-26.960,29.304,-18.755,2.735,14.847,8.596,-98.852,51.184,19.927,33.602,-18.755
'[09:31:46.148 25/07/2074]',-8.205,-14.457,69.158,-17.582,-34.774,38.681,82.051,-57.827,-23.053,26.178,14.066,-18.755,-14.457,96.117,-67.204,-14.066,17.192,10.159,-68.376,1.954,15.629,115.653,-67.204
'[09:31:46.152 25/07/2074]',-0.391,-180.513,232.869,-22.662,-30.867,44.151,65.641,-50.403,-20.317,25.788,16.410,-11.331,-22.271,3.516,31.258,-0.781,20.317,10.549,-232.088,159.805,15.629,10.549,31.258
'[09:31:46.156 25/07/2074]',34.383,-214.505,225.055,-19.927,-33.602,41.026,79.316,-61.343,-26.178,25.397,5.079,-4.689,-31.648,-36.728,68.376,0.391,14.847,19.536,-224.274,146.911,15.629,-20.708,68.376
'[09:31:46.160 25/07/2074]',-44.151,-94.945,176.215,-23.834,-15.238,13.284,80.488,-66.813,-25.788,21.099,3.126,-9.377,-21.880,-14.457,36.337,-9.377,3.907,18.755,-175.433,96.508,20.708,12.503,36.337
'[09:31:46.164 25/07/2074]',-13.284,-103.932,152.772,-36.728,-12.112,11.331,43.370,-44.933,-32.821,10.549,16.801,-12.894,-19.145,13.284,-4.298,-6.642,0.391,16.020,-151.990,85.568,21.099,28.132,-4.298
'[09:31:46.168 25/07/2074]',-27.741,-35.946,86.349,-37.509,-21.490,4.689,26.960,-25.788,-36.337,7.814,12.503,-17.973,-24.225,0.781,1.563,-10.940,1.172,15.238,-85.568,36.337,22.271,-0.391,1.563
'[09:31:46.172 25/07/2074]',-25.788,-29.695,79.316,-43.761,-10.549,-0.781,8.596,-17.582,-32.821,7.033,13.284,-31.648,-16.020,-19.927,14.066,-21.099,-3.126,14.847,-78.535,15.238,37.118,-12.503,14.066
'[09:31:46.176 25/07/2074]',1.563,-93.773,118.779,-50.794,-11.722,7.814,-44.542,24.615,-26.178,3.907,14.457,-28.913,-21.880,-47.668,49.231,-15.238,-3.907,12.112,-117.998,48.059,28.132,-35.946,49.231
'[09:31:46.180 25/07/2074]',-37.118,-14.847,79.707,-49.621,-18.364,8.205,-60.952,49.231,-28.132,1.563,9.768,-14.066,-22.662,-70.720,60.952,1.172,-0.391,15.629,-78.926,21.099,17.973,-61.343,60.952
'[09:31:46.184 25/07/2074]',-36.728,-10.940,75.800,-51.184,-7.814,-4.298,-58.999,48.059,-24.615,0.781,6.252,-4.298,-30.085,-22.662,32.039,-0.391,-4.298,21.099,-75.018,-9.377,43.761,-20.317,32.039
'[09:31:46.188 25/07/2074]',-43.370,-8.987,85.568,-57.436,-6.252,-1.954,-40.244,23.834,-21.490,1.563,7.814,-1.954,-15.238,17.582,-14.847,-0.391,-4.689,19.927,-84.786,5.079,26.178,39.463,-14.847
'[09:31:46.191 25/07/2074]',-30.476,0.391,58.999,-58.608,-15.629,1.954,-27.741,10.549,-24.615,-2.735,7.814,0.000,-24.225,19.927,-18.755,3.516,-2.344,17.192,-58.217,-7.033,28.913,20.708,-18.755
'[09:31:46.195 25/07/2074]',-15.238,-44.933,87.912,-63.297,-18.755,3.516,-30.085,8.596,-22.271,5.861,-3.516,-5.079,-28.913,37.509,-24.225,-9.377,-1.172,21.099,-87.131,23.834,17.582,44.933,-24.225
'[09:31:46.199 25/07/2074]',-8.987,-12.503,38.681,-62.906,-19.536,3.126,-45.714,16.410,-25.788,-1.954,-5.079,-10.549,-17.582,-20.317,5.079,-11.331,-8.205,20.317,-37.900,-21.099,17.582,11.331,5.079
'[09:31:46.203 25/07/2074]',-9.377,57.045,-20.708,-76.581,-20.708,3.907,-55.092,22.271,-26.569,-5.861,-7.814,-8.987,-21.099,-34.774,18.755,-13.675,-7.033,14.457,21.490,-72.283,15.629,-15.629,18.755
'[09:31:46.207 25/07/2074]',-1.172,-0.391,30.476,-75.800,-25.006,4.689,-51.184,23.834,-23.053,1.172,-21.880,0.781,-30.476,10.549,-10.159,-12.503,-4.298,12.503,-29.695,4.298,-2.735,14.847,-10.159
'[09:31:46.211 25/07/2074]',-51.184,55.873,25.397,-90.647,-10.940,0.391,-84.005,34.383,-22.662,-3.907,-17.973,-10.549,-33.211,39.072,-41.807,-20.708,-9.768,10.549,-24.615,-38.291,33.602,37.900,-41.807
'[09:31:46.215 25/07/2074]',-42.198,30.085,28.913,-82.442,-9.377,-6.252,-91.429,42.589,-25.006,-4.689,-28.913,-8.205,-15.629,11.331,-45.714,-17.973,-15.238,-0.391,-28.132,-18.364,34.774,27.741,-45.714
'[09:31:46.219 25/07/2074]',-32.039,-54.701,109.011,-88.694,-5.861,4.689,-98.462,31.648,-18.755,-3.126,-26.960,-12.112,-17.973,40.244,-66.422,-18.364,-12.503,-4.298,-108.230,73.065,23.834,46.105,-66.422
'[09:31:46.223 25/07/2074]',-35.556,-45.714,96.117,-91.429,-5.470,7.814,-117.607,37.900,-19.927,-12.894,-22.662,-16.410,-8.987,-34.774,-15.629,-13.675,-19.145,-0.781,-95.336,50.403,38.291,-17.973,-15.629
'[09:31:46.227 25/07/2074]',-12.503,-53.919,52.747,-77.363,-7.424,-8.205,-134.017,58.217,-25.788,-19.927,-27.350,-14.457,-3.126,-116.825,32.430,-2.735,-28.913,-5.470,-51.966,29.695,19.536,-73.065,32.430
'[09:31:46.230 25/07/2074]',-26.569,-117.998,147.692,-91.819,-5.470,4.298,-148.864,59.780,-5.861,-19.927,-28.523,-22.662,-33.211,-36.337,2.735,-12.112,-27.741,-9.377,-146.911,121.905,-1.954,-24.225,2.735
'[09:31:46.234 25/07/2074]',-36.337,-37.118,66.813,-83.223,-13.675,-2.735,-130.501,56.654,-7.033,-17.973,-32.430,-10.940,-34.774,-60.562,34.774,-10.159,-25.788,-6.642,-66.032,45.714,2.735,-57.436,34.774
'[09:31:46.238 25/07/2074]',-25.788,-64.469,85.958,-77.753,-2.735,-6.642,-119.951,48.059,0.000,-16.801,-33.993,-10.940,-28.132,-58.608,34.383,-10.940,-32.430,-8.205,-85.177,54.310,3.126,-43.370,34.383
'[09:31:46.242 25/07/2074]',-12.112,-72.283,94.164,-70.720,0.000,0.000,-101.978,41.026,7.033,-3.907,-39.072,1.954,-16.410,11.331,-15.629,-12.503,-27.741,-11.722,-93.382,68.376,-10.159,32.821,-15.629
'[09:31:46.246 25/07/2074]',3.907,11.331,-2.735,-63.687,-0.391,0.000,-99.243,49.231,7.033,-3.907,-37.118,25.788,-6.642,35.165,-36.337,0.000,-23.053,-7.033,3.516,-27.741,0.391,49.231,-36.337
'[09:31:46.250 25/07/2074]',73.846,-56.654,-10.159,-53.138,-3.126,4.689,-101.197,53.138,8.596,-5.861,-45.324,30.476,-3.126,16.020,-29.695,5.470,-23.834,-3.126,10.940,-24.225,-8.596,43.370,-29.695
'[09:31:46.254 25/07/2074]',-11.722,30.476,-20.708,-48.449,4.689,-8.596,-83.223,35.946,10.940,-3.126,-44.542,31.648,-5.470,51.575,-51.966,1.954,-20.708,-7.814,21.490,-24.615,-8.596,65.641,-51.966
'[09:31:46.258 25/07/2074]',-16.410,85.958,-66.032,-56.264,5.470,-0.781,-74.237,16.410,10.549,-7.033,-40.244,24.225,-3.907,58.999,-62.906,-4.298,-17.192,-7.424,66.813,-62.515,5.470,49.621,-62.906
'[09:31:46.262 25/07/2074]',-11.722,-21.099,24.615,-42.589,8.987,-11.331,-61.734,11.722,13.675,-2.735,-53.529,24.615,0.391,-21.490,9.377,-5.861,-21.099,-6.252,-23.834,43.370,-12.112,-11.331,9.377
'[09:31:46.266 25/07/2074]',-8.596,-131.282,132.845,-44.151,12.894,-1.172,-76.190,12.503,16.020,-1.954,-50.403,15.238,-2.735,-42.979,36.728,-10.940,-24.615,-8.596,-132.063,137.143,-16.020,-19.536,36.728
'[09:31:46.270 25/07/2074]',2.735,-100.415,93.773,-40.635,7.814,3.907,-69.939,11.722,2.735,-6.642,-39.072,19.536,1.172,52.357,-69.939,-7.814,-25.788,-8.987,-92.991,110.183,-2.344,57.827,-69.939
'[09:31:46.273 25/07/2074]',22.271,-94.945,39.072,-23.834,-3.126,-10.940,-54.310,10.549,-1.172,-19.145,-46.496,30.476,-9.377,20.708,-54.310,5.470,-32.430,-9.377,-38.291,55.482,-1.563,35.946,-54.310
'[09:31:46.277 25/07/2074]',46.886,-35.556,-25.788,-48.059,-7.033,1.563,-58.608,1.172,2.735,-17.582,-32.430,9.377,-12.112,57.436,-67.985,-14.847,-31.258,-3.516,26.569,-25.788,8.987,57.436,-67.985
'[09:31:46.281 25/07/2074]',-40.244,276.239,-257.485,-42.979,5.470,-24.225,-47.277,0.781,-1.954,-19.536,-34.383,19.927,1.172,28.523,-61.343,-5.470,-35.556,-8.987,258.266,-260.611,30.867,30.867,-61.343
'[09:31:46.285 25/07/2074]',-8.987,111.746,-119.560,-51.966,4.298,-26.569,-15.629,-31.258,-0.391,-8.987,-37.900,15.238,1.563,2.344,-21.490,-13.675,-28.132,-6.252,120.342,-94.554,12.112,-11.722,-21.490
'[09:31:46.289 25/07/2074]',2.735,33.602,-41.026,-51.966,8.596,-8.596,-8.205,-48.840,13.675,0.391,-50.403,19.927,3.126,-74.628,69.158,-12.894,-23.443,-5.079,41.807,-33.602,-19.927,-46.886,69.158
'[09:31:46.293 25/07/2074]',-3.516,-108.230,111.746,-50.403,12.112,-1.954,-28.913,-33.211,1.563,0.000,-37.900,19.145,2.735,-50.012,40.244,-10.159,-23.834,-6.252,-110.965,121.123,-23.053,-19.927,40.244
'[09:31:46.297 25/07/2074]',-7.033,-197.314,176.996,-33.602,-13.675,1.563,-50.012,0.391,-10.549,-11.722,-36.728,34.383,-11.331,-38.681,16.410,8.596,-24.615,-10.940,-176.215,213.724,-35.556,-22.662,16.410
'[09:31:46.301 25/07/2074]',8.596,-141.050,117.216,-51.575,-10.159,0.781,-39.072,-18.364,-3.907,-11.331,-37.509,20.317,-16.410,-30.085,14.457,-1.563,-23.834,-9.768,-116.435,142.222,-41.807,-15.238,14.457
'[09:31:46.305 25/07/2074]',9.768,-8.596,-20.317,-55.092,-15.629,-5.470,-28.913,-24.615,-10.940,-21.490,-28.913,18.364,-7.814,-33.211,0.391,-2.344,-30.476,-12.503,21.099,-2.735,-25.006,-12.894,0.391
'[09:31:46.309 25/07/2074]',15.238,34.774,-75.409,-61.343,-10.940,-21.490,-14.847,-37.900,-9.377,-21.099,-29.304,19.536,-7.424,-68.767,35.165,0.391,-31.258,-16.020,76.190,-50.794,-15.629,-66.032,35.165
'[09:31:46.313 25/07/2074]',33.602,-82.051,26.960,-58.999,-9.377,-15.629,-14.457,-40.244,-4.298,-19.536,-31.258,22.271,-8.596,-16.410,-6.642,-0.391,-28.523,-8.987,-26.178,44.542,-17.192,-11.331,-6.642
'[09:31:46.316 25/07/2074]',67.204,-128.156,32.039,-47.277,-17.582,-9.377,-30.867,-17.192,-4.689,-26.569,-29.304,28.132,-15.238,1.172,-25.397,7.424,-33.993,-4.689,-31.258,48.840,-19.927,10.940,-25.397
'[09:31:46.320 25/07/2074]',-2.344,-78.144,50.403,-40.635,-3.126,-22.271,-26.569,-17.973,-2.735,-26.178,-26.569,32.039,-15.238,14.066,-37.118,14.457,-35.556,-4.689,-49.621,78.535,-12.112,3.907,-37.118
'[09:31:46.324 25/07/2074]',29.304,-104.713,51.184,-44.151,-18.364,-9.377,-22.662,-17.192,0.781,-33.993,-17.192,25.006,-14.457,51.184,-67.985,5.470,-33.993,-2.344,-50.403,96.899,-25.397,28.132,-67.985
'[09:31:46.328 25/07/2074]',-37.118,-6.642,-8.987,-27.350,-23.834,-28.913,-30.085,1.954,-4.298,-41.807,-31.648,29.695,-10.940,-10.159,-39.072,10.940,-47.668,-5.079,9.768,46.105,-37.118,2.344,-39.072
'[09:31:46.332 25/07/2074]',-23.443,-22.662,7.033,-42.198,-8.596,-30.085,-32.430,-9.377,9.768,-36.728,-33.602,20.708,-12.503,-74.628,44.542,3.126,-48.059,-7.033,-6.252,37.118,-35.165,-53.138,44.542
'[09:31:46.336 25/07/2074]',-16.020,-67.204,45.324,-41.416,-16.020,-26.960,-16.410,-19.536,3.516,-40.635,-28.913,24.225,-2.344,-67.204,25.397,2.344,-46.105,-5.861,-44.542,96.508,-52.357,-36.728,25.397
'[09:31:46.340 25/07/2074]',-15.238,-73.846,40.244,-28.913,-19.536,-30.085,-7.814,-19.927,6.642,-39.463,-43.370,35.556,-34.383,27.741,-47.277,12.894,-46.886,-4.298,-39.463,74.237,-41.807,38.291,-47.277
'[09:31:46.344 25/07/2074]',3.516,26.960,-57.045,-34.383,-0.391,-29.695,-0.781,-29.304,14.066,-30.867,-42.198,33.211,-22.662,48.059,-51.184,0.391,-37.509,-2.735,57.827,-28.913,-41.026,60.562,-51.184
'[09:31:46.348 25/07/2074]',5.861,69.939,-92.991,-39.853,-7.814,-28.913,5.470,-26.178,8.596,-30.085,-31.648,37.900,-10.940,124.249,-129.719,1.563,-30.867,-4.689,93.773,-64.078,-29.695,121.123,-129.719
'[09:31:46.352 25/07/2074]',3.126,64.078,-90.647,-32.430,-8.987,-33.211,20.708,-33.602,-1.954,-30.476,-30.867,51.575,-8.987,84.396,-90.256,2.735,-26.960,-6.252,91.429,-44.151,-23.053,64.860,-90.256
'[09:31:46.355 25/07/2074]',-6.252,55.873,-76.190,-31.258,-2.735,-38.681,30.476,-46.105,0.391,-26.960,-36.337,49.231,-8.596,-32.430,23.053,4.298,-30.867,-3.516,76.972,-44.933,-17.973,-34.774,23.053
'[09:31:46.359 25/07/2074]',-3.126,-5.470,-16.020,-34.383,-5.079,-40.635,38.681,-51.575,2.344,-25.788,-35.946,43.761,-1.954,-42.198,26.569,1.954,-34.383,-1.954,16.801,5.079,-22.271,-24.615,26.569
'[09:31:46.363 25/07/2074]',3.907,-109.011,85.177,-30.476,-1.954,-29.304,29.695,-47.277,3.516,-26.569,-29.304,41.416,-12.503,-47.277,42.979,5.470,-30.867,3.126,-84.396,119.170,-23.834,-57.436,42.979
'[09:31:46.367 25/07/2074]',5.470,-123.858,110.574,-35.556,8.205,-23.053,37.509,-64.860,20.317,-18.755,-31.648,28.523,-8.596,1.563,13.284,-8.596,-27.350,8.596,-109.792,129.328,-22.271,-5.079,13.284
'[09:31:46.371 25/07/2074]',32.039,-116.435,84.786,-37.509,12.112,-18.755,51.184,-81.270,21.099,-17.973,-21.490,20.317,0.391,11.722,-4.298,-5.470,-26.178,6.642,-84.005,108.620,-30.867,6.252,-4.298
'[09:31:46.375 25/07/2074]',54.701,-100.415,49.231,-41.416,11.331,-16.020,49.231,-81.270,21.880,-20.317,-14.066,18.364,4.298,14.066,-14.457,2.344,-23.053,3.907,-48.449,92.210,-39.853,-5.861,-14.457
'[09:31:46.379 25/07/2074]',2.344,-4.298,10.159,-44.542,22.271,-24.615,48.059,-82.442,25.006,-16.020,-15.629,19.536,7.424,-14.066,17.192,1.172,-19.536,8.205,-9.377,39.463,-36.728,-25.788,17.192
'[09:31:46.383 25/07/2074]',28.132,-29.304,-8.987,-21.490,8.205,-25.006,44.151,-59.780,20.317,-13.675,-28.132,28.132,-5.470,-24.615,21.099,16.020,-23.443,7.033,9.768,13.675,-41.416,-23.443,21.099
'[09:31:46.387 25/07/2074]',-10.549,-38.681,58.999,-32.039,20.317,-18.755,52.747,-76.972,30.085,-18.755,-13.675,19.536,6.252,-3.907,-4.689,18.755,-16.410,6.252,-58.217,80.488,-44.151,-5.470,-4.689
'[09:31:46.391 25/07/2074]',-11.722,-9.377,46.496,-41.416,16.801,-8.205,78.926,-103.932,30.867,-13.675,-8.596,11.722,7.814,54.310,-42.589,1.172,-7.033,9.377,-45.714,68.376,-38.681,40.244,-42.589
'[09:31:46.395 25/07/2074]',13.284,-35.165,27.350,-23.834,5.470,-10.549,71.893,-85.177,18.364,-16.410,-11.331,20.317,5.861,5.079,-15.238,14.847,-11.722,5.470,-26.569,33.602,-16.410,4.689,-15.238
'[09:31:46.398 25/07/2074]',30.085,-51.184,26.178,-41.807,6.252,-9.377,65.250,-97.680,25.788,-28.523,-8.205,1.954,13.675,-10.159,-28.523,16.020,-12.894,0.000,-25.397,49.621,-26.178,-3.516,-28.523
'[09:31:46.402 25/07/2074]',16.801,60.562,-67.204,-48.449,5.470,-9.377,82.442,-115.653,18.364,-24.225,-4.298,-8.596,10.940,3.907,-37.509,3.126,-8.205,-0.781,67.985,-52.747,-1.954,-7.814,-37.509
'[09:31:46.406 25/07/2074]',23.053,32.821,-13.675,-37.118,31.258,-1.563,95.726,-121.123,50.794,-11.722,-9.768,-2.344,26.178,-21.880,8.205,12.503,-1.954,3.907,14.457,-16.020,-12.503,-27.741,8.205
'[09:31:46.410 25/07/2074]',50.403,-18.755,30.476,-40.244,44.933,11.331,89.084,-123.858,70.720,-7.033,-5.470,-15.629,35.556,-15.238,7.814,11.722,0.391,6.252,-29.695,19.536,-26.960,-10.549,7.814
'[09:31:46.414 25/07/2074]',73.455,-7.424,57.827,-53.919,78.926,29.695,80.098,-118.779,101.587,7.814,10.940,-37.900,62.906,0.391,24.615,-5.861,12.112,9.377,-57.045,35.556,-17.582,-23.834,24.615
'[09:31:46.418 25/07/2074]',105.885,-41.807,67.595,-43.370,93.773,28.913,77.363,-112.918,108.620,10.940,11.331,-25.788,87.131,-5.470,23.053,0.391,17.973,10.940,-66.813,60.952,-18.364,-29.304,23.053
'[09:31:46.422 25/07/2074]',173.089,-59.780,17.973,-28.132,99.243,29.695,80.098,-106.667,113.309,11.722,11.722,-12.503,94.554,33.211,-26.960,23.443,13.284,9.768,-17.192,17.192,-31.258,22.662,-26.960
'[09:31:46.426 25/07/2074]',139.487,52.357,-27.741,-47.668,138.706,16.410,82.442,-122.295,131.282,12.503,29.695,-43.370,121.123,89.084,-80.879,1.563,15.629,7.814,28.523,-30.476,-28.132,69.548,-80.879
'[09:31:46.430 25/07/2074]',157.460,41.416,-41.026,-29.304,138.315,12.503,71.111,-94.945,121.514,5.470,42.198,-13.675,135.189,100.806,-104.713,23.443,19.536,12.503,41.807,-11.331,-34.774,67.204,-104.713
'[09:31:46.434 25/07/2074]',162.149,16.410,0.781,-18.755,155.507,14.457,73.846,-84.786,149.255,8.205,46.886,-7.424,116.825,117.216,-75.018,36.728,21.099,15.238,0.000,26.960,-62.906,62.515,-75.018
'[09:31:46.438 25/07/2074]',175.824,-5.470,35.946,-27.350,175.043,19.536,32.039,-50.012,169.963,19.536,49.621,-21.880,123.468,71.502,4.298,16.020,26.960,14.457,-35.165,58.608,-71.893,1.954,4.298
'[09:31:46.441 25/07/2074]',215.287,-41.807,46.496,-34.774,171.136,30.867,-9.768,-8.205,168.791,21.490,67.985,-23.443,134.408,5.079,79.316,14.847,35.556,18.364,-45.714,87.131,-71.111,-96.899,79.316
'[09:31:46.445 25/07/2074]',183.248,-14.066,51.575,-19.145,171.917,28.913,-33.602,33.211,175.433,32.039,52.747,-7.033,125.421,20.708,73.065,33.211,35.165,21.099,-50.794,67.985,-76.972,-62.125,73.065
'[09:31:46.449 25/07/2074]',194.579,94.164,-47.277,-37.900,175.433,38.681,-44.933,33.993,175.824,32.039,66.422,-27.350,134.017,92.210,0.391,19.927,36.337,29.304,48.059,-49.231,-95.336,37.900,0.391
'[09:31:46.453 25/07/2074]',190.281,57.436,-15.629,-40.635,153.553,40.244,-14.847,11.331,153.162,26.178,82.051,-32.039,140.269,123.468,-58.999,24.225,38.291,33.993,16.410,-8.205,-79.316,60.171,-58.999
'[09:31:46.457 25/07/2074]',183.639,-37.509,74.237,-33.602,139.878,49.621,-7.424,3.126,147.302,24.615,80.879,-26.569,117.998,157.070,-82.442,32.821,41.026,36.728,-73.455,88.303,-89.084,87.912,-82.442
'[09:31:46.461 25/07/2074]',157.851,-44.933,68.767,-10.940,125.421,35.556,-16.410,23.834,133.236,16.801,70.330,-16.020,94.164,138.315,-63.687,34.383,30.085,34.383,-67.985,76.581,-92.601,89.084,-63.687
'[09:31:46.465 25/07/2074]',164.103,11.331,3.126,-32.430,120.733,32.821,-29.695,22.271,127.766,27.350,70.330,-32.039,86.349,45.714,37.900,21.099,29.304,31.648,-2.344,10.549,-99.243,-4.298,37.900
'[09:31:46.469 25/07/2074]',157.460,16.410,-6.642,-32.430,103.541,30.476,-26.569,25.788,119.560,25.788,67.595,-31.648,64.860,3.907,93.773,17.192,27.741,28.913,7.424,19.145,-111.746,-65.250,93.773
'[09:31:46.473 25/07/2074]',142.222,77.363,-54.310,-42.198,98.852,27.741,-32.430,27.741,109.011,21.880,71.893,-37.509,64.078,17.973,61.343,20.708,21.880,31.258,55.092,-42.979,-117.607,-28.913,61.343
'[09:31:46.477 25/07/2074]',157.460,103.932,-94.164,-53.529,95.726,26.178,-37.509,27.350,103.932,18.364,79.707,-48.059,58.999,-3.907,77.363,21.099,18.755,31.648,94.945,-91.038,-126.203,-40.635,77.363
'[09:31:46.480 25/07/2074]',187.937,-79.707,49.621,-54.310,77.753,38.291,-46.886,32.430,96.899,15.629,82.442,-53.919,57.827,85.177,-14.847,12.112,20.317,26.569,-48.840,75.409,-117.607,24.615,-14.847
'[09:31:46.484 25/07/2074]',127.375,-41.026,54.701,-51.184,95.726,16.020,-54.310,30.476,90.647,6.642,84.396,-53.138,67.595,28.132,13.284,17.973,17.973,24.615,-53.919,69.158,-95.336,-20.708,13.284
'[09:31:46.488 25/07/2074]',124.640,-30.085,28.523,-47.668,92.210,5.079,-42.198,18.364,93.773,6.642,76.972,-52.747,58.217,19.536,25.788,19.536,10.940,20.708,-27.741,43.370,-101.587,-19.145,25.788
'[09:31:46.492 25/07/2074]',136.752,-5.470,-9.768,-54.310,85.177,10.549,-41.416,10.159,89.084,7.033,85.958,-62.515,51.184,34.383,23.834,7.814,12.894,17.582,10.549,13.284,-109.011,-11.331,23.834
'[09:31:46.496 25/07/2074]',119.951,66.813,-73.455,-55.873,78.535,3.516,-54.701,28.913,72.674,0.000,94.554,-54.310,49.231,25.788,23.443,12.894,14.847,21.099,74.237,-47.668,-99.243,-26.569,23.443
'[09:31:46.500 25/07/2074]',121.123,-16.410,-0.781,-46.105,66.813,4.298,-51.575,36.728,66.032,-3.907,94.164,-39.463,42.979,55.092,-4.689,22.271,11.722,24.615,1.563,29.304,-113.309,17.582,-4.689
'[09:31:46.504 25/07/2074]',157.460,-46.105,7.814,-57.827,58.217,24.615,-44.151,21.490,61.734,2.344,102.759,-40.635,44.151,83.223,-11.722,8.987,14.066,23.443,-7.033,30.867,-110.183,38.291,-11.722
'[09:31:46.508 25/07/2074]',82.442,-9.377,25.788,-41.026,52.747,12.503,-31.648,23.053,44.933,-0.781,92.601,-16.020,54.701,65.250,-25.006,24.615,12.503,23.834,-25.006,60.171,-79.316,10.549,-25.006
'[09:31:46.512 25/07/2074]',88.303,47.277,-28.132,-51.184,53.138,13.675,-12.503,0.391,67.595,8.205,71.893,-22.271,46.496,13.284,51.575,12.503,12.894,23.834,28.913,-12.503,-89.866,-28.132,51.575
'[09:31:46.516 25/07/2074]',90.647,58.999,-36.337,-53.529,46.496,21.880,-9.768,-0.391,67.595,14.847,68.376,-27.350,50.794,13.284,47.277,10.159,12.112,21.490,37.118,-32.039,-71.893,-32.430,47.277
'[09:31:46.520 25/07/2074]',83.614,44.151,-23.834,-44.542,42.198,18.755,-3.516,0.391,64.078,23.053,54.310,-26.178,26.960,30.085,48.840,7.033,16.410,14.847,24.615,-7.424,-89.866,-28.913,48.840
'[09:31:46.523 25/07/2074]',87.912,-37.118,52.357,-52.747,43.370,18.755,-6.252,-7.814,60.171,16.020,58.217,-35.556,30.867,34.383,28.913,2.735,18.755,12.503,-51.575,79.707,-97.289,-22.271,28.913
'[09:31:46.527 25/07/2074]',97.680,-93.773,91.038,-50.012,47.668,18.755,-27.741,4.689,48.059,15.629,55.873,-26.960,34.774,26.569,25.006,4.298,15.238,6.252,-90.256,112.527,-93.773,-12.112,25.006
'[09:31:46.531 25/07/2074]',107.839,-67.204,51.966,-62.125,51.184,15.629,-35.165,-2.735,41.807,17.582,54.310,-33.993,39.072,22.662,27.741,-10.549,13.284,-2.344,-51.184,93.382,-112.137,-12.894,27.741
'[09:31:46.535 25/07/2074]',89.084,-29.695,-0.781,-42.979,42.198,-1.954,-28.132,1.954,23.834,3.126,44.151,1.563,41.416,4.298,8.205,17.582,7.814,-10.940,1.563,67.985,-112.527,-22.662,8.205
'[09:31:46.539 25/07/2074]',100.806,17.192,-48.449,-60.952,51.575,0.391,-13.284,-32.430,31.648,13.284,37.900,-1.563,39.072,3.907,31.258,5.470,7.033,-10.940,49.231,3.126,-102.759,-26.569,31.258
'[09:31:46.543 25/07/2074]',118.388,28.132,-84.005,-59.389,47.668,-5.470,-10.549,-30.476,33.602,19.145,28.132,0.391,22.662,55.482,3.907,-0.781,2.344,-13.284,84.786,-31.648,-108.620,16.801,3.907
'[09:31:46.547 25/07/2074]',50.012,62.125,-70.330,-46.496,46.496,-23.053,-14.457,-16.020,26.960,7.814,24.615,22.662,8.987,176.606,-114.872,12.503,-0.781,-15.629,71.111,8.987,-110.965,116.435,-114.872
'[09:31:46.551 25/07/2074]',78.535,60.171,-101.587,-51.966,49.621,-23.834,-4.298,-37.118,32.430,14.066,12.894,24.225,15.238,114.090,-37.509,-7.033,-1.563,-10.159,102.369,-25.006,-100.806,60.562,-37.509
'[09:31:46.555 25/07/2074]',87.912,92.601,-143.004,-55.873,46.886,-26.178,16.801,-56.654,31.258,17.192,12.503,19.145,18.755,108.230,-29.695,-15.629,-4.298,-8.205,143.785,-60.952,-98.852,54.310,-29.695
'[09:31:46.559 25/07/2074]',85.568,-4.689,-50.403,-51.966,39.463,-21.099,17.192,-58.217,28.523,19.145,13.284,23.834,23.834,47.668,23.443,-9.768,-3.516,-8.205,51.184,42.979,-106.276,1.954,23.443
'[09:31:46.563 25/07/2074]',94.945,-110.574,35.165,-43.370,31.648,-9.768,-3.907,-42.198,21.099,21.099,16.020,28.913,24.615,-8.596,66.032,5.079,1.172,-1.954,-34.383,130.110,-103.541,-48.840,66.032
'[09:31:46.566 25/07/2074]',98.852,-67.204,-7.424,-47.668,28.913,-1.954,-18.364,-34.383,23.834,30.867,15.629,15.238,18.755,-70.330,125.031,12.112,5.079,3.126,8.205,67.595,-98.852,-109.402,125.031
'[09:31:46.570 25/07/2074]',93.382,-87.521,20.317,-51.184,30.085,3.516,-19.145,-41.026,25.006,36.728,21.099,8.205,16.801,-30.085,87.912,17.192,10.940,1.172,-19.536,99.243,-112.918,-71.111,87.912
'[09:31:46.574 25/07/2074]',82.833,-41.026,-27.741,-47.277,27.741,0.391,-21.099,-42.198,21.880,32.430,20.317,7.033,17.973,31.258,17.973,14.066,13.675,-0.781,28.523,60.562,-103.932,-16.801,17.973
'[09:31:46.578 25/07/2074]',82.442,-4.689,-82.833,-41.416,21.880,-9.377,-27.350,-32.039,15.629,29.695,11.722,7.814,7.424,52.747,-5.861,11.331,9.377,-1.172,83.614,0.391,-106.276,17.192,-5.861
'[09:31:46.582 25/07/2074]',82.833,-50.403,-39.463,-44.933,23.443,-11.331,-35.946,-30.085,15.629,28.913,15.238,-2.735,12.894,94.945,-53.529,3.126,5.861,-3.516,40.244,33.211,-102.759,72.283,-53.529
'[09:31:46.586 25/07/2074]',75.409,-44.151,-53.138,-33.993,16.020,-15.629,-28.523,-28.913,8.205,17.582,21.490,-2.344,8.205,114.090,-83.614,5.861,3.516,-6.642,53.919,37.509,-104.322,82.833,-83.614
'[09:31:46.590 25/07/2074]',60.562,-29.304,-73.065,-10.159,8.205,-21.880,-27.741,-11.331,-1.563,13.675,18.755,16.801,3.516,94.945,-79.316,28.132,2.344,-3.126,73.846,25.788,-100.415,63.297,-79.316
'[09:31:46.594 25/07/2074]',67.595,-16.020,-82.833,-16.801,13.284,-16.020,-23.834,-21.880,9.377,17.973,19.536,2.344,4.298,16.020,15.238,14.457,2.735,0.000,83.614,1.172,-94.554,-12.894,15.238
'[09:31:46.598 25/07/2074]',82.051,47.668,-159.023,-13.284,10.940,-15.238,-9.768,-29.304,15.238,21.099,10.159,4.298,11.722,-1.172,37.118,4.689,3.907,-1.954,159.805,-63.687,-96.508,-28.132,37.118
'[09:31:46.602 25/07/2074]',71.111,10.940,-120.342,-0.391,2.344,-19.927,22.271,-42.979,14.847,19.536,0.781,23.053,11.722,31.258,15.238,1.172,6.252,0.391,121.123,-1.954,-86.349,-14.847,15.238
'[09:31:46.605 25/07/2074]',57.436,-20.708,-75.018,-0.781,1.563,-19.927,38.291,-59.389,12.112,16.410,-0.391,19.536,12.112,-13.284,56.264,-6.642,0.781,4.689,75.800,19.536,-67.985,-40.244,56.264
'[09:31:46.609 25/07/2074]',76.581,34.383,-144.957,1.172,-1.172,-17.582,41.026,-53.919,9.768,14.847,0.391,18.364,22.662,1.172,32.039,-11.722,-1.563,6.252,145.739,-44.933,-61.343,-25.788,32.039
'[09:31:46.613 25/07/2074]',20.708,40.635,-104.713,15.629,-4.298,-23.443,32.821,-31.648,-3.907,7.814,1.563,33.211,17.582,42.979,-22.271,0.391,0.391,5.861,105.495,10.940,-54.701,1.563,-22.271
'[09:31:46.617 25/07/2074]',16.020,-52.357,-0.781,15.238,-7.814,-10.549,26.960,-30.085,-3.516,5.470,6.252,32.039,13.284,46.496,-16.801,-2.344,1.172,10.549,1.563,100.024,-37.900,-1.563,-16.801
'[09:31:46.621 25/07/2074]',45.324,-56.654,-26.960,18.364,-1.954,-10.549,32.430,-39.463,5.470,10.940,-7.033,26.960,23.834,12.894,2.344,-3.126,5.079,4.689,27.741,73.065,-59.780,-1.172,2.344
'[09:31:46.625 25/07/2074]',34.383,-88.303,30.867,7.814,-5.470,-1.172,53.919,-61.734,14.457,15.629,-8.987,30.476,12.894,53.138,-1.954,-11.331,11.331,0.000,-30.085,125.421,-53.138,12.894,-1.954
'[09:31:46.629 25/07/2074]',41.416,-98.462,43.761,6.642,-7.033,1.954,50.012,-51.575,19.536,16.801,-8.596,35.946,19.145,27.350,27.741,-9.768,14.457,2.344,-42.979,120.733,-42.979,-7.814,27.741
'[09:31:46.633 25/07/2074]',50.012,21.490,-75.018,-2.344,-5.079,3.126,42.589,-46.105,16.410,19.145,-7.424,31.648,19.145,-15.238,65.250,-9.377,13.284,0.781,75.800,-17.973,-45.324,-33.602,65.250
'[09:31:46.637 25/07/2074]',42.979,31.648,-62.515,-11.722,-3.516,8.596,42.589,-48.059,10.159,15.629,4.689,29.695,32.039,-4.298,45.324,-10.159,14.847,-1.954,63.297,2.344,-25.788,-49.621,45.324
'[09:31:46.641 25/07/2074]',42.589,53.529,-76.972,-10.549,-1.172,13.284,41.416,-46.105,14.066,19.536,-0.391,30.867,30.476,13.675,35.165,-15.629,16.020,-1.954,77.753,-9.377,-30.476,-32.039,35.165
'[09:31:46.645 25/07/2074]',43.370,39.072,-66.032,-11.331,4.689,12.894,16.801,-30.476,12.503,16.020,1.954,17.582,29.304,47.277,-8.205,-18.755,8.205,-1.563,66.813,-8.987,-35.556,21.099,-8.205
'[09:31:46.648 25/07/2074]',47.668,-7.814,-22.271,-5.079,11.331,11.331,-5.861,-5.470,12.894,13.675,5.861,16.801,19.145,68.767,-23.053,-13.284,3.516,-6.252,23.053,40.244,-48.840,39.072,-23.053
'[09:31:46.652 25/07/2074]',50.794,12.894,-35.556,-10.549,17.192,12.894,-3.907,-8.987,14.066,14.457,12.503,10.159,30.867,41.807,-7.814,-12.112,1.954,-7.033,36.337,27.350,-52.357,17.192,-7.814
'[09:31:46.656 25/07/2074]',40.244,-58.608,28.132,9.377,17.582,5.470,-16.801,12.894,6.252,14.066,4.298,23.834,3.126,30.085,3.907,12.503,-3.126,-8.205,-27.350,77.753,-47.668,1.172,3.907
'[09:31:46.660 25/07/2074]',50.012,-40.244,13.284,-7.424,32.430,8.987,-32.821,6.252,10.549,16.801,7.814,7.424,9.377,25.788,5.861,2.735,0.000,-10.159,-12.503,58.608,-59.780,9.768,5.861
'[09:31:46.664 25/07/2074]',50.012,-34.774,-3.516,-4.689,31.258,1.563,-38.291,11.331,13.675,11.722,1.172,10.159,25.006,-44.933,54.310,3.516,0.000,-15.238,4.298,50.403,-48.840,-55.092,54.310
'[09:31:46.668 25/07/2074]',43.370,-45.324,4.689,-5.470,33.602,-0.781,-25.788,-9.377,24.225,16.801,-16.410,6.642,-5.079,28.523,11.331,-1.172,1.172,-16.801,-3.907,54.701,-43.370,-5.470,11.331
'[09:31:46.672 25/07/2074]',39.853,-21.099,-25.788,-8.205,38.291,-8.987,-24.225,-21.880,29.695,3.126,-10.940,-0.781,0.391,24.225,5.861,-9.377,-4.298,-16.410,26.569,24.615,-51.184,11.331,5.861
'[09:31:46.676 25/07/2074]',35.556,18.364,-75.018,-3.907,32.821,-17.973,-12.112,-27.350,31.648,-1.172,-12.112,5.861,-1.954,-0.781,35.946,-7.814,-11.331,-18.364,75.800,-21.880,-50.012,-8.987,35.946
'[09:31:46.680 25/07/2074]',27.350,-23.053,-39.072,4.689,26.569,-20.708,-16.020,-19.927,31.648,-1.172,-23.834,19.145,-11.331,51.575,-8.987,-3.907,-10.159,-18.755,39.853,14.457,-46.886,40.244,-8.987
'[09:31:46.684 25/07/2074]',24.225,-29.304,-34.774,6.252,22.271,-21.099,-17.582,-17.192,27.741,-0.391,-26.960,23.053,-12.894,3.907,37.900,-4.298,-7.033,-16.801,35.556,20.708,-45.324,-7.424,37.900
'[09:31:46.688 25/07/2074]',28.913,32.430,-98.852,-2.344,17.973,-20.708,-1.563,-34.383,28.523,5.079,-30.085,12.112,-11.722,19.145,30.085,-19.927,-4.298,-20.708,99.634,-46.496,-55.092,20.317,30.085
'[09:31:46.691 25/07/2074]',22.271,8.596,-78.535,8.205,7.033,-21.099,0.391,-24.615,25.397,8.987,-42.979,28.132,-21.490,30.085,21.099,-7.814,-1.954,-24.225,79.316,-19.536,-51.966,21.099,21.099
'[09:31:46.695 25/07/2074]',17.582,-12.894,-53.529,7.033,7.033,-21.099,-8.596,-18.364,21.880,9.377,-44.933,26.569,-27.350,60.562,-9.377,-8.205,0.391,-19.536,54.310,-1.954,-41.807,46.496,-9.377
'[09:31:46.699 25/07/2074]',16.410,-26.178,-44.151,5.861,6.642,-21.880,-19.536,-12.503,21.490,2.735,-33.211,14.457,-29.695,67.985,-15.238,-14.847,-4.689,-14.847,44.933,-10.549,-25.006,55.873,-15.238
'[09:31:46.703 25/07/2074]',16.020,-103.150,27.741,12.894,3.516,-19.536,-12.894,-16.410,20.317,3.516,-31.258,24.615,-21.880,57.827,-8.987,-7.033,-2.735,-12.112,-26.960,67.985,-21.099,41.807,-8.987
'[09:31:46.707 25/07/2074]',15.629,-132.454,57.436,19.536,0.391,-15.629,0.391,-23.443,25.397,5.079,-28.913,22.271,-23.443,118.388,-65.641,-2.735,1.172,-7.424,-56.654,109.011,-29.695,91.038,-65.641
'[09:31:46.711 25/07/2074]',12.503,-66.422,6.642,8.596,-0.781,-11.331,-6.252,-17.973,24.225,5.079,-11.331,0.781,-14.066,67.595,-17.192,-15.238,1.563,-2.735,-5.861,48.840,-34.383,48.840,-17.192
'[09:31:46.715 25/07/2074]',10.159,-23.053,-33.602,14.066,-7.814,-11.331,-7.424,-3.516,29.695,6.252,-14.847,11.722,-23.443,35.556,25.006,-2.344,1.172,-5.861,34.383,13.284,-63.297,24.225,25.006
'[09:31:46.719 25/07/2074]',10.940,50.012,-99.243,10.159,-10.549,-9.768,5.079,-9.377,23.834,7.033,-10.549,14.457,-21.490,46.886,7.033,3.516,9.768,-6.642,100.024,-39.853,-64.469,19.145,7.033
'[09:31:46.723 25/07/2074]',-1.954,70.330,-109.402,6.642,-17.973,-13.675,8.596,-9.768,15.629,2.344,-9.377,14.847,-22.662,-12.112,49.231,9.768,7.814,-3.126,110.183,-69.548,-56.654,-23.834,49.231
'[09:31:46.727 25/07/2074]',12.503,-25.788,-18.755,-4.689,-13.284,-7.424,-9.768,-4.689,16.801,3.516,-2.344,6.252,-19.145,8.987,33.993,1.563,9.768,-1.172,19.536,6.642,-46.886,-7.033,33.993
'[09:31:46.730 25/07/2074]',12.503,-30.476,-7.033,-7.814,-15.238,-2.344,-3.126,-10.549,15.238,5.079,-3.126,16.020,-6.252,24.615,14.847,1.954,14.457,-3.516,7.814,19.536,-35.556,4.298,14.847
'[09:31:46.734 25/07/2074]',3.516,-100.024,74.237,-10.940,-21.490,3.126,-3.907,-10.549,16.801,5.470,-6.252,10.549,-6.252,56.654,-23.053,0.781,14.457,-2.344,-73.455,100.806,-37.509,41.026,-23.053
'[09:31:46.738 25/07/2074]',0.781,-109.792,89.084,-8.987,-19.145,4.689,2.344,-17.192,18.755,9.768,-10.940,6.642,-9.377,30.476,10.940,-5.470,10.549,-5.079,-88.303,108.230,-41.026,26.178,10.940
'[09:31:46.742 25/07/2074]',-5.470,-5.470,-5.470,-10.940,-19.927,7.814,6.252,-21.880,14.847,10.159,-14.457,10.159,-14.847,24.615,12.112,1.172,12.112,-9.768,6.252,8.987,-24.225,6.252,12.112
'[09:31:46.746 25/07/2074]',-9.768,2.344,-22.271,-2.344,-25.006,0.391,7.424,-14.457,16.801,13.284,-39.072,18.755,-31.648,37.118,-2.344,9.377,12.894,-12.894,23.053,-1.172,-41.416,32.430,-2.344
'[09:31:46.750 25/07/2074]',-6.252,53.529,-68.767,-11.331,-16.801,0.781,8.205,-25.397,18.755,14.066,-37.900,15.238,-27.741,41.026,-8.987,8.205,14.847,-12.112,69.548,-65.250,-35.946,45.324,-8.987
'[09:31:46.754 25/07/2074]',0.000,98.071,-112.918,-21.099,-14.066,0.781,24.615,-47.668,14.457,17.192,-32.430,10.159,-27.741,65.641,-24.615,0.000,18.364,-17.192,113.700,-104.322,-29.695,50.794,-24.615
'[09:31:46.758 25/07/2074]',5.861,10.940,-28.132,-21.490,-13.675,4.689,35.165,-59.780,21.099,12.112,-28.913,8.205,-18.364,32.430,3.126,-1.954,20.708,-21.099,28.913,-13.284,-27.741,17.582,3.126
'[09:31:46.762 25/07/2074]',-6.642,-93.773,80.879,-4.689,-8.987,4.689,17.973,-38.681,18.755,8.596,-33.211,23.053,-19.927,25.006,7.814,6.642,18.755,-19.536,-80.098,89.084,-28.523,28.523,7.814
'[09:31:46.766 25/07/2074]',-1.563,-105.104,102.759,-13.675,-2.735,12.503,15.238,-43.370,19.536,11.722,-24.225,12.894,-22.662,-26.569,73.065,0.391,19.927,-14.847,-101.978,97.680,-15.629,-36.728,73.065
'[09:31:46.770 25/07/2074]',0.391,-91.819,98.852,-16.801,-1.954,19.145,23.834,-50.012,24.615,6.252,-17.582,12.894,-21.099,-44.542,90.647,3.907,23.053,-11.722,-98.071,96.508,-5.470,-73.455,90.647
'[09:31:46.773 25/07/2074]',-3.516,-35.556,37.900,0.781,-5.079,13.284,32.039,-39.072,15.629,8.596,-26.960,33.602,-11.331,-44.151,66.032,23.053,28.523,-1.954,-37.118,39.463,-28.523,-34.774,66.032
'[09:31:46.777 25/07/2074]',0.391,31.258,-8.987,-10.940,-3.516,15.238,43.761,-44.151,12.503,16.801,-12.894,18.755,-3.516,-34.383,59.780,15.629,31.648,8.205,9.768,-19.145,-21.880,-30.085,59.780
'[09:31:46.781 25/07/2074]',3.126,61.343,-27.741,-16.020,-3.516,16.410,46.496,-38.681,12.112,18.755,0.391,10.940,2.344,-13.675,48.840,8.205,33.211,9.377,28.523,-43.370,-10.940,-23.443,48.840
'[09:31:46.785 25/07/2074]',-0.391,38.681,-26.960,12.112,-11.331,8.205,48.449,-22.271,0.391,23.053,-19.145,40.244,-6.252,-13.675,40.635,25.397,31.648,7.033,27.741,-30.867,-25.397,-4.689,40.635
'[09:31:46.789 25/07/2074]',-1.954,-44.933,78.144,-3.907,-4.689,12.112,70.720,-52.357,13.284,21.490,-10.940,23.053,-19.927,-0.781,56.264,12.503,27.741,11.722,-77.363,55.873,-16.801,-9.377,56.264
'[09:31:46.793 25/07/2074]',0.781,5.861,28.523,-16.410,0.000,16.020,45.324,-42.198,13.284,17.192,-0.391,10.940,-17.582,26.960,33.993,-0.391,20.317,9.768,-27.741,-14.457,3.126,14.847,33.993
'[09:31:46.797 25/07/2074]',0.391,37.900,-10.159,-15.238,-2.344,10.940,36.337,-32.430,8.987,11.331,-1.954,11.722,-23.053,83.223,-27.350,0.000,20.708,3.126,10.940,-37.118,-9.768,71.111,-27.350
'[09:31:46.801 25/07/2074]',-2.735,7.033,24.615,-16.410,-6.252,8.596,41.807,-31.648,5.470,5.079,3.907,13.284,-11.722,76.581,-37.118,3.907,20.708,5.470,-23.834,5.470,-10.940,69.548,-37.118
'[09:31:46.805 25/07/2074]',0.391,91.038,-55.092,-22.271,-4.689,6.642,51.575,-39.853,4.298,1.954,13.284,7.814,5.861,109.792,-82.833,-2.735,16.410,3.126,55.873,-80.488,1.172,109.402,-82.833
'[09:31:46.809 25/07/2074]',3.907,-7.814,38.291,-17.582,-5.079,8.205,53.529,-40.244,12.112,5.861,0.000,13.284,-1.563,32.821,3.516,0.391,16.410,-5.079,-37.509,21.490,-12.503,30.085,3.516
'[09:31:46.813 25/07/2074]',6.642,-58.217,78.144,-12.112,-4.689,8.205,35.556,-24.615,10.940,-2.735,-5.470,24.225,-3.126,-63.297,75.409,18.755,14.066,-7.424,-77.363,68.767,-1.563,-76.581,75.409
'[09:31:46.816 25/07/2074]',0.781,4.298,24.225,-19.927,0.391,5.079,29.695,-25.397,30.867,0.781,-21.490,15.238,-8.596,-21.880,53.919,3.126,8.987,-12.112,-23.443,0.391,-16.020,-15.238,53.919
'[09:31:46.820 25/07/2074]',7.033,30.867,-5.470,-27.350,1.954,5.861,28.523,-32.430,32.821,0.391,-21.099,7.033,-7.033,-7.033,37.118,-2.344,10.159,-21.099,6.252,-25.788,-14.457,-7.424,37.118
'[09:31:46.824 25/07/2074]',6.642,11.722,2.344,-17.973,-2.735,4.298,32.430,-30.085,30.085,-2.735,-25.788,17.192,-15.238,28.523,-2.344,8.987,12.503,-23.053,-1.563,7.033,-27.741,15.629,-2.344
'[09:31:46.828 25/07/2074]',8.987,26.960,0.781,-32.039,-1.563,10.159,36.337,-39.463,37.900,5.079,-17.973,8.987,0.000,91.819,-53.529,-0.781,14.847,-12.112,0.000,-17.973,-26.960,94.554,-53.529
'[09:31:46.832 25/07/2074]',14.066,-1.172,24.225,-25.788,-1.954,12.894,31.648,-31.258,26.569,6.642,-7.814,17.192,0.781,68.767,-35.946,10.940,11.722,-6.642,-23.443,-5.470,-11.331,66.422,-35.946
'[09:31:46.836 25/07/2074]',23.443,-22.271,49.231,-34.774,3.907,18.364,40.635,-47.277,26.960,7.814,-2.344,19.927,6.642,-33.211,59.389,21.490,16.410,-1.172,-48.449,28.132,-13.675,-50.794,59.389
'[09:31:46.840 25/07/2074]',23.443,4.689,27.741,-41.416,9.377,16.410,57.827,-68.767,29.695,15.238,-4.298,18.755,9.768,0.781,30.476,18.755,17.973,3.907,-26.960,0.391,-15.238,-16.410,30.476
'[09:31:46.844 25/07/2074]',14.457,49.231,-27.741,-26.960,8.205,5.470,58.608,-63.687,29.695,18.364,-23.443,32.039,-7.424,3.516,49.621,12.112,13.284,-0.391,28.523,-51.184,-39.463,5.470,49.621
'[09:31:46.848 25/07/2074]',19.145,52.357,-37.118,-30.085,10.549,0.391,60.562,-67.595,31.258,13.675,-24.225,40.244,2.344,-26.178,72.674,12.894,14.847,-7.424,37.900,-36.337,-52.747,-24.225,72.674
'[09:31:46.852 25/07/2074]',16.020,72.674,-67.204,-28.913,4.689,-6.252,76.190,-82.442,31.648,17.973,-35.165,41.026,-3.907,46.105,12.503,1.954,14.847,-9.377,67.985,-55.092,-51.184,36.728,12.503
'[09:31:46.855 25/07/2074]',8.205,-7.033,6.252,-15.629,1.954,-10.159,71.502,-71.502,26.569,10.549,-36.337,55.482,-14.457,83.223,-21.880,10.549,7.424,-7.033,-5.470,11.331,-39.463,73.846,-21.880
'[09:31:46.859 25/07/2074]',16.020,-9.377,-7.033,-18.364,1.172,-9.768,43.761,-55.092,19.927,-4.689,-30.085,54.701,3.907,18.364,-4.689,22.271,-0.391,-8.205,7.814,2.735,-26.569,24.225,-4.689
'[09:31:46.863 25/07/2074]',16.801,7.033,-21.099,-25.006,-1.172,-7.033,44.542,-57.436,32.430,-10.159,-34.383,39.072,-5.470,89.084,-62.906,6.642,-2.344,-8.596,21.880,-4.689,-26.960,77.363,-62.906
'[09:31:46.867 25/07/2074]',10.549,-39.072,13.675,-12.894,-8.987,-10.940,37.118,-44.151,26.178,-22.662,-35.556,45.324,-3.126,29.304,-26.569,15.238,-11.331,-7.814,-12.894,44.933,-35.165,31.648,-26.569
'[09:31:46.871 25/07/2074]',14.847,51.575,-88.694,-16.410,-12.112,-13.675,32.430,-43.370,25.788,-28.132,-37.118,41.416,-3.516,-22.271,17.582,12.112,-19.145,-13.284,89.475,-49.231,-51.184,-7.814,17.582
'[09:31:46.875 25/07/2074]',20.708,11.331,-57.827,-16.801,-15.629,-12.112,28.132,-41.416,26.960,-24.615,-39.853,39.463,-1.172,-28.523,30.867,1.563,-20.317,-18.364,58.608,-8.987,-56.264,-15.238,30.867
'[09:31:46.879 25/07/2074]',10.940,-41.807,-10.159,-1.954,-13.675,-21.490,12.112,-18.755,20.708,-27.350,-40.244,54.310,-8.205,-20.708,25.788,11.331,-24.615,-14.066,10.940,49.621,-56.264,-12.894,25.788
'[09:31:46.883 25/07/2074]',10.940,-46.105,-19.927,3.907,-10.549,-24.615,-2.735,-10.940,12.894,-18.755,-48.449,60.562,-13.284,-43.370,48.449,14.847,-28.913,-10.549,20.708,38.681,-53.919,-31.258,48.449
'[09:31:46.887 25/07/2074]',13.284,-66.813,5.079,1.954,-4.298,-18.755,23.834,-45.324,19.927,-14.457,-48.059,51.966,-8.205,-38.681,52.747,3.907,-27.350,-8.987,-4.298,68.376,-42.979,-40.244,52.747
'[09:31:46.891 25/07/2074]',13.675,-63.297,5.470,1.172,-1.563,-16.020,62.515,-85.568,22.662,-7.033,-47.277,41.807,-5.470,-33.993,55.482,-3.907,-25.397,-2.344,-4.689,79.707,-48.449,-42.979,55.482
'[09:31:46.895 25/07/2074]',15.238,-36.337,-28.913,2.344,-6.642,-17.973,62.906,-84.005,11.331,-10.159,-35.946,38.291,1.563,-21.880,26.960,-1.954,-27.741,5.079,29.695,48.059,-41.026,-29.304,26.960
'[09:31:46.898 25/07/2074]',14.066,58.999,-124.640,8.596,-14.457,-15.629,57.827,-67.595,8.987,-11.331,-33.211,41.807,0.781,-16.801,23.443,0.391,-32.821,8.205,125.421,-70.330,-32.430,-10.549,23.443
'[09:31:46.902 25/07/2074]',17.973,94.164,-153.944,5.470,-18.755,-12.503,74.628,-76.972,7.814,-7.814,-21.099,40.244,6.252,14.847,1.172,-1.954,-26.960,13.284,154.725,-88.694,-40.244,11.331,1.172
'[09:31:46.906 25/07/2074]',5.470,62.515,-135.971,35.946,-33.602,-22.271,80.488,-53.919,-10.549,-16.801,-20.317,73.065,0.391,-2.735,0.000,27.741,-28.523,18.755,136.752,-67.985,-17.973,-13.284,0.000
'[09:31:46.910 25/07/2074]',5.470,108.230,-160.586,21.490,-28.523,-12.894,85.568,-66.422,12.112,-6.642,-26.569,58.999,-5.861,26.178,9.768,7.424,-27.350,19.145,161.368,-127.375,-19.536,25.397,9.768
'[09:31:46.914 25/07/2074]',0.391,-106.276,55.092,25.788,-25.788,-3.126,73.455,-67.985,14.066,-3.907,-30.476,57.827,-5.079,31.648,3.126,7.814,-23.053,11.331,-54.310,99.243,-22.662,33.211,3.126
'[09:31:46.918 25/07/2074]',-3.516,-167.619,116.044,21.880,-26.569,-0.781,77.753,-81.661,16.410,-0.781,-37.509,55.092,-2.735,-9.377,42.198,3.516,-16.801,8.205,-115.263,162.540,-12.112,-16.410,42.198
'[09:31:46.922 25/07/2074]',-5.470,-145.348,95.726,19.536,-20.317,-1.563,75.018,-86.740,26.960,-1.172,-41.807,51.575,-1.172,-1.172,32.821,5.861,-17.192,6.252,-94.945,126.203,-10.940,7.424,32.821
'[09:31:46.926 25/07/2074]',-6.252,-113.700,62.515,21.099,-16.020,-5.079,63.297,-77.363,22.662,0.391,-42.589,55.873,2.344,46.886,-20.708,9.377,-14.847,1.563,-61.734,90.647,-13.675,69.548,-20.708
'[09:31:46.930 25/07/2074]',-6.642,-53.138,2.735,22.662,-17.973,-10.940,66.422,-70.330,21.880,0.391,-41.416,63.297,8.205,-21.880,43.761,13.675,-9.377,3.126,-1.954,37.118,-1.954,-15.629,43.761
'[09:31:46.934 25/07/2074]',-9.768,-2.344,-37.118,18.755,-16.801,-13.284,76.581,-76.581,28.132,3.907,-42.589,63.687,3.126,-26.569,62.906,14.066,-9.377,8.205,37.900,-20.708,4.298,-23.834,62.906
'[09:31:46.938 25/07/2074]',-10.159,3.126,-30.867,12.894,-12.503,-6.642,81.270,-86.740,31.258,2.344,-33.602,55.092,1.172,-15.238,62.515,7.814,-10.940,6.252,31.648,-23.443,0.391,-9.768,62.515
'[09:31:46.941 25/07/2074]',-8.205,-36.337,16.410,5.079,-11.331,0.000,87.131,-97.289,32.039,5.861,-26.960,50.012,7.424,-26.960,79.707,1.954,-6.252,4.689,-15.629,33.211,-3.907,-32.821,79.707
'[09:31:46.945 25/07/2074]',-10.159,-17.192,6.252,1.563,-7.814,1.172,72.674,-85.958,34.383,3.516,-21.490,44.151,4.298,6.642,44.542,5.079,-6.642,7.033,-5.470,16.801,-5.861,-2.344,44.542
'[09:31:46.949 25/07/2074]',-8.596,-21.490,14.066,-0.391,0.000,2.344,52.747,-71.502,31.258,-2.344,-7.814,30.085,11.722,97.289,-61.343,3.907,-9.768,5.470,-13.284,5.861,0.000,105.495,-61.343
'[09:31:46.953 25/07/2074]',-2.735,-21.099,13.284,2.344,8.987,0.391,48.059,-64.860,26.178,-2.344,-2.735,28.132,16.801,92.210,-62.906,3.516,-6.642,1.563,-12.503,14.066,-8.987,101.197,-62.906
'[09:31:46.957 25/07/2074]',-5.079,-31.648,39.463,-9.377,12.894,0.391,53.138,-74.237,37.900,-0.781,-6.642,6.252,2.344,9.768,33.993,-9.768,-7.033,1.954,-38.681,25.788,-3.516,5.470,33.993
'[09:31:46.961 25/07/2074]',-5.861,-12.894,19.536,-11.331,14.457,-1.563,33.993,-58.217,32.039,-8.205,4.298,-9.768,9.377,-22.271,48.059,-15.629,-10.549,3.516,-18.755,-12.112,15.629,-17.973,48.059
'[09:31:46.965 25/07/2074]',-4.689,18.364,-10.159,-7.424,16.020,-7.424,33.211,-46.496,39.853,-8.596,0.000,-1.563,5.079,-50.403,91.819,-16.801,-10.159,1.954,10.940,-31.258,-1.563,-45.324,91.819
'[09:31:46.969 25/07/2074]',-6.252,48.059,-33.602,-7.424,12.503,-9.377,50.403,-53.529,40.635,-8.205,0.781,1.172,11.722,-72.283,115.653,-19.145,-3.907,2.735,34.383,-43.761,1.954,-78.144,115.653
'[09:31:46.973 25/07/2074]',-9.768,35.165,-32.039,3.126,8.205,-11.331,52.357,-51.966,33.211,-14.457,4.298,11.331,16.020,-35.556,63.687,-7.814,-1.563,6.252,32.821,-39.463,7.814,-36.728,63.687
'[09:31:46.977 25/07/2074]',-14.457,49.231,-48.840,8.205,8.987,-14.847,48.840,-48.059,36.728,-11.331,-3.516,18.755,16.020,19.536,12.894,-7.424,-1.172,2.344,49.621,-62.515,-0.391,40.635,12.894
'[09:31:46.980 25/07/2074]',-14.457,0.391,0.781,0.391,11.722,-10.940,55.873,-69.548,39.853,-3.907,-9.377,16.410,14.066,15.238,40.244,-25.397,3.516,-1.954,0.000,-5.079,5.470,19.145,40.244
'[09:31:46.984 25/07/2074]',-20.317,-80.488,79.707,-7.424,9.377,-9.377,44.933,-75.018,39.463,-9.377,-10.549,10.159,15.629,16.020,24.225,-26.178,3.907,-3.516,-78.926,82.442,10.940,14.066,24.225
'[09:31:46.988 25/07/2074]',-20.708,-42.198,35.946,-13.675,12.112,-12.503,46.496,-87.521,39.853,-9.377,-15.629,2.344,18.755,44.933,-10.159,-35.556,-0.391,-7.033,-35.165,33.993,16.020,53.138,-10.159
'[09:31:46.992 25/07/2074]',-22.662,-55.092,53.529,-20.317,11.331,-6.642,44.542,-94.164,47.277,-7.424,-21.490,0.000,21.880,35.556,1.563,-42.198,-2.735,-11.331,-52.747,50.794,23.053,39.072,1.563
'[09:31:46.996 25/07/2074]',-24.225,-33.993,29.304,-19.927,5.470,-2.735,28.132,-80.098,42.979,-11.331,-22.662,0.000,21.099,-0.781,27.741,-39.463,-2.344,-9.768,-28.523,41.807,25.006,-9.768,27.741
'[09:31:47.000 25/07/2074]',-27.741,25.397,-35.556,-17.973,0.000,-2.344,24.615,-77.363,41.807,-7.814,-31.648,3.907,13.675,27.741,-1.563,-33.993,-3.126,-11.331,36.337,-22.662,7.424,35.556,-1.563
'[09:31:47.004 25/07/2074]',-26.960,19.536,-25.006,-28.132,-4.298,3.126,36.728,-96.899,41.416,-5.470,-22.271,-0.391,13.675,15.629,21.880,-38.291,-2.344,-14.847,25.788,-16.801,0.391,25.397,21.880
'[09:31:47.008 25/07/2074]',-26.178,-33.211,27.741,-32.039,-12.894,12.503,44.151,-108.230,30.867,-8.987,-4.689,-3.516,2.344,-29.304,73.065,-32.821,0.391,-12.894,-26.960,44.933,-3.907,-41.416,73.065
'[09:31:47.012 25/07/2074]',-31.258,-11.722,8.596,-26.960,-19.145,16.801,28.913,-87.912,25.006,-10.940,1.563,-6.252,5.861,-39.072,63.687,-20.708,-1.172,-5.079,-7.814,24.615,-15.238,-35.556,63.687
'[09:31:47.016 25/07/2074]',-25.788,22.271,-17.973,-33.211,-17.192,21.490,32.039,-91.038,26.960,-6.642,13.284,-19.536,5.861,-14.847,51.184,-26.960,-2.735,2.735,18.755,-24.615,-10.940,-9.768,51.184
'[09:31:47.020 25/07/2074]',-25.397,39.072,-30.867,-21.490,-16.410,26.569,39.463,-89.084,30.085,-8.596,21.880,-14.457,3.516,55.092,-12.503,-16.801,-1.563,6.642,31.648,-34.774,-5.079,40.244,-12.503
'[09:31:47.023 25/07/2074]',-10.940,73.065,-62.515,-19.927,-4.298,28.523,32.430,-77.753,36.728,-9.377,32.430,-18.755,12.112,58.608,-19.536,-9.768,5.470,17.973,63.297,-51.184,-15.238,32.039,-19.536
'[09:31:47.027 25/07/2074]',0.391,59.389,-52.747,-14.457,4.689,28.913,34.383,-77.363,39.853,-3.516,38.681,-21.490,10.159,143.004,-85.568,-13.675,9.768,22.271,53.529,-55.092,-35.946,142.222,-85.568
'[09:31:47.031 25/07/2074]',5.861,45.324,-50.012,-4.298,3.516,26.178,28.132,-62.515,36.728,-5.470,48.840,-16.801,8.596,6.252,47.277,0.391,10.159,22.271,50.794,-47.277,-41.026,5.470,47.277
'[09:31:47.035 25/07/2074]',10.159,-48.449,49.621,-6.252,6.642,30.867,37.118,-69.939,38.681,-1.563,49.621,-23.443,13.675,-72.283,121.905,-0.391,16.410,30.476,-48.840,61.343,-46.886,-75.409,121.905
'[09:31:47.039 25/07/2074]',8.596,-40.635,42.589,-1.563,3.516,30.476,52.357,-78.144,31.648,1.563,51.184,-25.006,11.331,-98.462,140.269,5.079,14.847,44.151,-41.807,30.085,-37.900,-85.568,140.269
'[09:31:47.043 25/07/2074]',1.954,12.503,1.954,-3.516,6.252,22.662,39.853,-56.264,34.774,5.861,48.840,-26.960,1.954,-95.726,148.864,7.814,10.549,52.747,-1.172,-32.430,-25.397,-89.475,148.864
'[09:31:47.047 25/07/2074]',5.079,-17.973,48.840,-12.894,10.940,24.615,28.523,-43.370,37.900,5.470,56.654,-31.648,13.675,-44.542,91.819,7.814,15.629,61.343,-48.059,16.801,-18.364,-52.357,91.819
'[09:31:47.051 25/07/2074]',5.861,-34.383,73.455,-12.503,14.847,26.960,39.853,-50.794,37.509,7.424,64.078,-33.993,8.596,69.158,-10.549,8.596,21.099,70.330,-72.674,32.039,-19.536,57.045,-10.549
'[09:31:47.055 25/07/2074]',5.861,-36.337,70.330,-8.596,12.894,21.880,55.873,-60.952,37.509,6.252,66.032,-33.993,8.596,4.689,51.184,11.331,17.582,70.330,-69.548,25.397,-23.443,5.079,51.184
'[09:31:47.059 25/07/2074]',7.424,-19.145,48.059,-11.331,9.768,17.582,63.687,-67.204,38.291,6.252,58.999,-29.695,17.973,14.457,32.039,9.768,18.364,64.860,-47.277,10.549,-26.178,21.880,32.039
'[09:31:47.063 25/07/2074]',7.033,-15.629,37.900,-8.987,6.642,12.112,58.217,-58.217,41.026,4.689,48.449,-22.662,18.364,5.470,42.198,5.861,19.145,62.515,-37.118,6.252,-19.145,6.252,42.198
'[09:31:47.066 25/07/2074]',6.252,42.979,-31.648,-2.735,5.470,0.000,51.575,-42.589,42.979,3.907,34.774,-11.331,21.099,-39.072,82.442,7.033,12.894,59.780,32.430,-68.376,-14.457,-25.788,82.442
'[09:31:47.070 25/07/2074]',10.549,67.204,-64.860,-0.391,5.861,-5.861,49.231,-37.509,35.946,5.470,21.880,6.642,36.728,-33.993,56.654,12.112,12.503,51.966,65.641,-84.396,-8.205,-19.145,56.654
'[09:31:47.074 25/07/2074]',10.549,-46.496,55.092,-5.470,5.470,0.000,52.747,-46.105,46.105,9.377,18.364,3.516,26.569,-28.132,81.661,-0.391,16.801,47.277,-54.310,41.026,-8.596,-39.463,81.661
'[09:31:47.078 25/07/2074]',10.159,-78.535,76.190,1.954,2.344,-0.781,53.919,-44.542,38.681,9.768,10.940,13.284,29.304,-25.006,72.674,-1.563,15.629,47.668,-75.409,60.171,-16.020,-9.768,72.674
'[09:31:47.082 25/07/2074]',4.689,-87.131,84.005,1.954,-3.126,-1.172,48.059,-39.463,37.900,7.814,1.563,16.801,17.973,58.608,-1.563,-8.205,14.066,42.589,-83.223,64.469,-8.596,71.502,-1.563
'[09:31:47.086 25/07/2074]',5.079,-69.939,68.376,-8.596,-7.033,-0.391,66.422,-63.687,38.291,0.391,7.814,10.159,18.364,84.786,-23.053,-21.490,17.973,36.337,-67.595,62.906,0.391,73.846,-23.053
'[09:31:47.090 25/07/2074]',1.172,23.053,-30.085,-5.079,-11.722,-11.722,86.349,-73.065,34.383,-3.516,1.172,18.364,16.801,111.746,-51.575,-25.397,14.457,35.946,30.867,-20.708,-4.298,99.243,-51.575
'[09:31:47.094 25/07/2074]',-2.344,80.098,-94.945,-3.126,-13.675,-17.973,77.753,-67.204,34.774,-5.079,-9.768,25.788,16.801,51.575,-4.298,-17.973,5.079,32.430,95.726,-92.991,0.391,53.919,-4.298
'[09:31:47.098 25/07/2074]',-5.079,10.940,-33.211,-3.126,-15.629,-19.145,89.084,-85.177,32.039,-2.735,-15.629,30.085,19.145,1.954,42.589,-19.145,-0.781,28.132,33.993,-7.033,-4.689,-5.861,42.589
'[09:31:47.102 25/07/2074]',0.391,-36.728,1.563,-5.861,-12.503,-21.490,83.614,-89.866,31.648,4.298,-23.443,29.304,26.178,-5.861,51.184,-29.304,-2.735,25.397,-0.781,42.198,-16.020,-8.205,51.184
'[09:31:47.105 25/07/2074]',-1.172,-87.521,33.993,-1.563,-11.331,-22.662,60.562,-82.442,24.225,8.205,-35.556,32.430,20.317,-37.118,75.018,-26.569,-8.205,23.834,-33.211,71.111,-16.020,-24.615,75.018
'[09:31:47.109 25/07/2074]',5.079,-103.932,40.244,-7.033,-4.298,-21.880,43.370,-82.442,19.927,7.814,-34.383,26.960,26.178,-49.231,81.270,-35.946,-10.549,19.927,-39.463,76.190,4.689,-43.761,81.270
'[09:31:47.113 25/07/2074]',14.457,-73.846,13.675,-18.364,7.814,-18.364,32.039,-85.177,17.192,11.331,-23.834,19.536,38.681,-53.138,84.005,-43.761,-3.126,22.662,-12.894,62.125,11.331,-65.250,84.005
'[09:31:47.117 25/07/2074]',8.987,81.270,-148.474,-7.033,7.424,-26.178,37.900,-84.005,21.880,17.192,-41.026,35.556,12.112,-57.045,111.355,-30.476,-3.516,26.960,149.255,-109.792,0.391,-67.204,111.355
'[09:31:47.121 25/07/2074]',11.722,18.364,-80.879,-12.112,16.801,-23.053,54.701,-110.965,36.728,19.927,-42.198,33.211,10.549,-18.364,89.866,-32.430,-4.689,28.913,81.661,-60.562,3.126,-21.490,89.866
'[09:31:47.125 25/07/2074]',4.689,-44.933,-6.252,-10.549,19.145,-17.192,61.734,-121.123,35.556,23.834,-37.118,34.383,0.000,21.490,66.032,-29.304,0.781,30.476,7.033,14.847,-7.033,15.629,66.032
'[09:31:47.129 25/07/2074]',-0.781,-41.416,-17.582,-4.689,9.377,-17.973,54.701,-111.746,33.993,25.006,-41.807,40.244,-17.192,120.342,-18.755,-23.834,5.079,32.821,18.364,-5.079,-28.132,132.063,-18.755
'[09:31:47.133 25/07/2074]',-12.112,-94.554,43.370,-4.689,5.079,-11.722,46.496,-107.839,26.569,21.099,-32.039,34.383,-31.258,52.357,50.012,-19.145,10.159,32.430,-42.589,25.397,-7.814,71.502,50.012
'[09:31:47.137 25/07/2074]',-16.801,-117.607,86.349,-5.861,6.252,1.954,53.138,-116.435,19.536,22.662,-17.192,23.443,-39.072,15.629,90.256,-15.629,20.708,31.258,-85.568,60.171,-7.814,30.085,90.256
'[09:31:47.141 25/07/2074]',-24.225,-54.701,30.867,-7.033,-6.642,10.940,60.952,-121.514,14.457,25.397,-12.112,17.582,-50.794,-14.847,122.295,-8.205,30.867,34.383,-30.085,4.298,-18.364,-1.954,122.295
'[09:31:47.145 25/07/2074]',-28.913,-32.430,19.927,-8.987,-10.159,19.536,48.059,-109.792,9.377,28.132,-4.689,10.159,-60.562,-46.886,154.725,-1.563,35.556,40.635,-19.145,-27.741,-20.708,-21.880,154.725
'[09:31:47.148 25/07/2074]',-26.960,-9.377,10.159,-16.410,-8.987,30.085,44.933,-109.792,9.377,39.072,-0.781,2.344,-61.343,9.377,105.885,-1.563,38.681,44.542,-9.377,-44.933,-28.913,35.165,105.885
'[09:31:47.152 25/07/2074]',-23.834,79.316,-76.972,-21.490,-16.020,31.258,61.734,-121.514,5.079,45.714,1.563,4.298,-59.389,78.926,40.244,-0.391,44.542,49.621,77.753,-121.905,-41.026,95.336,40.244
'[09:31:47.156 25/07/2074]',-26.178,40.244,-39.463,-20.708,-23.053,28.132,65.641,-117.607,-7.033,45.324,5.470,9.377,-62.906,45.714,64.078,8.205,44.542,57.436,40.244,-81.661,-37.118,53.138,64.078
'[09:31:47.160 25/07/2074]',-28.132,-71.502,83.223,-25.788,-19.145,36.337,53.138,-113.700,0.000,53.919,5.470,0.781,-67.595,17.973,109.402,1.172,43.370,62.125,-82.442,10.940,-37.509,39.463,109.402
'[09:31:47.164 25/07/2074]',-25.397,-117.998,133.626,-30.085,-20.317,37.900,41.807,-100.024,-1.563,54.310,7.424,-0.781,-59.389,3.516,114.090,1.954,47.277,60.952,-132.845,67.985,-37.900,20.708,114.090
'[09:31:47.168 25/07/2074]',-28.913,-93.773,109.792,-23.834,-26.178,35.165,45.324,-91.819,-4.689,50.794,6.642,7.814,-59.780,-10.940,115.653,17.192,49.231,62.125,-109.011,55.482,-41.416,1.563,115.653
'[09:31:47.172 25/07/2074]',-19.927,-25.788,43.370,-25.788,-16.020,32.039,56.264,-101.587,4.689,48.059,10.940,2.344,-53.529,30.476,78.926,10.549,47.277,63.687,-42.589,-23.834,-44.542,58.999,78.926
'[09:31:47.176 25/07/2074]',-11.722,130.891,-125.031,-20.317,-14.457,17.192,62.906,-93.382,3.516,46.496,6.642,6.252,-44.151,107.839,-9.377,12.112,42.979,57.827,125.812,-174.652,-41.807,128.156,-9.377
'[09:31:47.180 25/07/2074]',-11.331,173.089,-174.652,-18.364,-17.582,3.907,63.687,-82.833,7.814,37.118,6.252,9.768,-46.105,64.860,33.993,10.940,40.635,56.654,175.433,-203.956,-51.184,73.455,33.993
'[09:31:47.184 25/07/2074]',-10.159,19.145,-28.132,-19.145,-11.331,3.907,49.621,-80.879,13.675,31.648,3.907,0.000,-50.403,45.324,48.059,8.205,38.681,53.529,28.913,-66.813,-44.933,57.436,48.059
'[09:31:47.188 25/07/2074]',-6.642,-41.416,28.132,-25.397,-9.768,3.907,40.244,-81.661,15.629,26.178,3.516,-16.020,-53.919,-3.126,84.786,4.689,35.165,44.151,-27.350,-2.735,-50.403,5.079,84.786
'[09:31:47.191 25/07/2074]',-5.470,-170.354,164.493,-33.211,-7.424,11.331,28.523,-76.972,10.940,20.708,16.410,-14.457,-46.105,-15.629,84.786,12.112,39.072,37.900,-163.712,130.110,-43.370,-8.987,84.786
'[09:31:47.195 25/07/2074]',-8.596,-147.302,140.269,-32.430,-7.814,8.596,14.066,-64.078,10.940,12.503,16.020,-19.145,-56.264,-14.847,75.409,18.364,38.291,33.993,-139.487,105.104,-48.449,-5.079,75.409
'[09:31:47.199 25/07/2074]',-5.079,-82.051,69.939,-29.304,-6.252,1.563,5.079,-48.059,5.470,11.331,16.410,-21.880,-61.343,58.217,-0.391,16.801,32.821,30.476,-69.158,32.430,-49.231,72.283,-0.391
'[09:31:47.203 25/07/2074]',-7.424,-73.846,60.171,-34.383,-8.596,-4.298,20.317,-63.687,0.391,11.722,19.145,-21.880,-40.635,119.951,-76.190,7.814,32.039,27.741,-59.389,35.165,-46.496,144.957,-76.190
'[09:31:47.207 25/07/2074]',-15.238,-55.873,33.602,-21.490,-11.722,-9.768,30.867,-69.158,8.596,10.940,0.000,-16.020,-59.780,60.171,-8.987,13.284,28.913,25.788,-32.821,20.317,-51.966,75.018,-8.987
'[09:31:47.211 25/07/2074]',-16.020,-38.291,7.424,-21.099,-9.377,-12.503,17.973,-64.469,8.987,13.675,-10.159,-16.410,-55.873,67.595,-24.225,8.987,23.053,27.350,-6.642,-7.033,-44.151,91.429,-24.225
'[09:31:47.215 25/07/2074]',-20.317,6.642,-36.728,-23.834,-7.033,-13.284,1.563,-56.264,3.126,10.159,-11.331,-13.675,-46.105,9.377,16.410,8.596,14.847,23.443,37.509,-48.059,-26.569,33.211,16.410
'[09:31:47.219 25/07/2074]',-22.271,74.628,-105.885,-25.397,-5.079,-14.066,0.391,-59.780,6.642,16.410,-23.834,-10.159,-46.886,-72.283,107.448,1.563,14.847,15.629,106.667,-104.322,-25.397,-60.952,107.448
'[09:31:47.223 25/07/2074]',-26.569,100.415,-144.957,-19.927,-9.768,-20.708,-8.596,-51.966,4.298,16.020,-32.430,-6.642,-49.231,-46.105,78.926,-0.781,8.205,8.205,145.739,-135.189,-30.867,-28.913,78.926
'[09:31:47.227 25/07/2074]',-25.788,5.470,-54.701,-25.788,-10.549,-20.317,-30.867,-39.463,2.344,19.145,-34.774,-10.940,-37.118,-28.913,58.999,-15.238,3.907,-0.781,55.482,-47.668,-32.430,7.033,58.999
'[09:31:47.230 25/07/2074]',-26.960,19.536,-77.363,-21.099,-17.192,-21.880,-36.337,-30.867,8.987,23.834,-53.138,-5.861,-48.840,7.033,37.118,-19.927,4.689,-12.894,78.144,-53.919,-46.496,34.383,37.118
'[09:31:47.234 25/07/2074]',-21.880,-102.759,41.416,-27.350,-21.880,-19.145,-45.324,-24.225,12.503,14.847,-48.059,-8.987,-53.919,34.774,13.284,-21.880,5.470,-15.629,-40.635,73.065,-44.933,39.853,13.284
'[09:31:47.238 25/07/2074]',-18.364,-94.945,42.979,-35.165,-20.317,-14.847,-51.575,-18.364,11.722,9.377,-39.072,-14.066,-39.463,82.833,-50.012,-23.053,0.000,-18.755,-42.198,58.217,-45.714,109.402,-50.012
'[09:31:47.242 25/07/2074]',-14.457,-69.548,19.927,-37.900,-23.443,-15.629,-60.171,-3.516,5.470,0.781,-35.556,-10.549,-42.198,84.396,-62.125,-17.582,-3.516,-26.178,-19.145,34.774,-18.755,84.786,-62.125
'[09:31:47.246 25/07/2074]',-12.894,-100.806,53.138,-39.853,-25.006,-11.722,-79.707,16.020,5.861,-4.689,-32.821,-10.159,-35.946,1.954,10.159,-16.801,-2.735,-31.258,-52.357,71.502,-16.410,0.781,10.159
'[09:31:47.250 25/07/2074]',-17.192,-52.747,2.735,-37.118,-30.085,-15.238,-91.819,32.821,-1.563,-12.503,-33.211,-6.252,-16.801,-7.424,-17.582,-10.549,-8.987,-33.993,-1.954,15.629,-18.364,30.085,-17.582
'[09:31:47.254 25/07/2074]',-17.192,29.304,-83.223,-35.946,-34.774,-17.192,-77.753,23.053,8.205,-7.424,-56.654,-4.298,-38.291,-39.072,34.774,-17.582,-12.112,-41.026,84.005,-73.455,-15.238,-14.457,34.774
'[09:31:47.258 25/07/2074]',-13.675,71.502,-122.686,-42.589,-36.728,-15.629,-78.926,23.443,8.987,-4.298,-58.608,-8.596,-33.993,-39.463,39.463,-28.132,-6.642,-41.416,123.468,-99.634,-21.880,-23.053,39.463
'[09:31:47.262 25/07/2074]',-21.099,-14.847,-33.993,-37.509,-42.198,-16.020,-89.866,40.635,0.391,-4.689,-54.310,-7.424,-35.556,50.794,-56.264,-25.006,-10.940,-33.993,34.774,-16.020,-31.258,84.396,-56.264
'[09:31:47.266 25/07/2074]',-17.973,21.099,-71.111,-33.993,-42.198,-13.675,-102.759,56.264,-3.516,0.781,-51.966,-4.689,-41.026,85.958,-82.051,-21.880,-14.847,-30.867,71.893,-55.482,-30.867,109.792,-82.051
'[09:31:47.270 25/07/2074]',-13.284,-26.569,-26.569,-25.788,-41.416,-10.159,-96.117,54.701,-10.159,7.424,-46.105,0.000,-26.569,30.867,-29.695,-21.880,-10.549,-29.304,27.350,-1.172,-19.927,44.151,-29.695
'[09:31:47.273 25/07/2074]',-14.847,-50.794,-6.252,-18.364,-41.026,-5.861,-101.197,57.045,-13.675,8.596,-45.714,4.298,-33.602,8.596,-4.298,-15.629,-10.549,-24.615,7.033,30.476,-39.072,26.178,-4.298
'[09:31:47.277 25/07/2074]',-7.424,50.012,-115.263,-23.053,-38.681,-8.596,-114.481,64.860,-9.768,10.940,-46.886,-1.954,-35.165,-33.211,38.291,-16.801,-15.238,-24.615,116.044,-82.833,-43.370,-10.940,38.291
'[09:31:47.281 25/07/2074]',0.391,-3.516,-64.078,-28.913,-31.648,-3.907,-124.249,62.906,-3.907,10.940,-40.635,-14.457,-30.867,-37.509,45.714,-24.615,-17.582,-27.350,64.860,-33.602,-35.165,-22.271,45.714
'[09:31:47.285 25/07/2074]',0.391,-90.647,23.834,-29.304,-30.867,0.000,-127.375,61.343,-7.814,2.735,-21.880,-20.317,-27.741,-16.410,14.066,-16.801,-19.536,-24.225,-23.053,66.813,-41.416,-8.205,14.066
'[09:31:47.289 25/07/2074]',3.907,-125.812,52.747,-25.788,-31.648,-3.126,-119.170,59.389,-14.066,-3.516,-6.642,-26.178,-32.821,34.383,-48.059,-5.079,-28.523,-15.629,-51.966,93.382,-61.343,57.827,-48.059
'[09:31:47.293 25/07/2074]',4.689,-121.905,53.138,-19.927,-28.523,-0.391,-127.375,71.893,-12.503,-5.079,0.391,-25.006,-32.821,62.515,-74.628,3.126,-32.430,-14.066,-52.357,73.065,-51.966,89.475,-74.628
'[09:31:47.297 25/07/2074]',3.126,-87.912,28.132,-16.410,-29.304,3.516,-137.143,89.084,-13.675,-6.642,6.252,-25.397,-28.523,-28.523,5.861,11.722,-28.132,-11.722,-27.350,48.840,-41.026,-14.847,5.861
'[09:31:47.301 25/07/2074]',4.298,-52.357,0.781,-24.225,-26.960,10.159,-142.222,87.521,-11.722,-5.470,12.112,-35.946,-37.900,-30.476,13.284,13.284,-21.099,-10.549,0.000,16.020,-51.184,-19.536,13.284
'[09:31:47.305 25/07/2074]',10.159,-13.284,-28.523,-29.695,-19.536,18.364,-139.096,77.753,-4.689,-0.391,16.410,-48.059,-33.993,-8.596,-0.781,7.424,-18.755,-14.847,29.304,-30.867,-46.105,3.907,-0.781
'[09:31:47.309 25/07/2074]',9.377,10.940,-46.105,-36.337,-19.145,20.708,-129.719,65.641,-1.172,-0.391,23.443,-58.217,-21.099,-18.364,9.377,-5.079,-15.629,-19.145,46.886,-47.668,-36.728,-10.159,9.377
'[09:31:47.313 25/07/2074]',5.470,4.689,-33.602,-34.774,-23.443,18.755,-130.891,77.363,-5.079,-7.814,38.291,-61.734,-12.112,3.516,-25.397,-2.344,-17.582,-14.066,34.383,-24.615,-58.999,25.788,-25.397
'[09:31:47.316 25/07/2074]',-1.954,21.880,-47.277,-23.053,-28.132,15.238,-124.640,85.177,-1.172,-1.954,23.053,-53.529,-23.053,10.940,-27.741,6.252,-25.397,-8.596,48.059,-50.403,-61.343,41.026,-27.741
'[09:31:47.320 25/07/2074]',-0.781,80.098,-94.164,-35.556,-26.569,14.847,-110.965,70.720,1.172,-5.861,30.867,-64.860,-7.424,-26.178,0.391,-3.907,-27.350,-4.689,94.945,-96.508,-35.556,-14.847,0.391
'[09:31:47.324 25/07/2074]',-6.642,14.847,-25.788,-25.788,-28.132,9.377,-97.680,70.720,-0.391,-8.596,27.741,-57.045,-17.192,-27.350,-0.391,7.033,-28.523,-2.735,26.569,-10.549,-43.761,-29.304,-0.391
'[09:31:47.328 25/07/2074]',-3.907,17.973,-26.178,-32.039,-17.582,8.987,-102.759,64.469,2.735,-8.987,25.006,-53.138,-14.066,13.675,-40.244,6.642,-32.821,0.391,26.960,-30.867,-29.304,19.927,-40.244
'[09:31:47.332 25/07/2074]',-0.781,-8.205,-9.377,-33.993,-9.768,1.563,-110.574,65.250,4.298,-15.238,24.225,-51.184,-17.582,22.662,-45.714,3.516,-39.072,-4.298,10.159,-14.066,-31.648,33.993,-45.714
'[09:31:47.336 25/07/2074]',-4.298,-65.250,42.198,-31.258,-8.596,-7.814,-94.164,51.575,6.252,-21.880,21.490,-44.151,-7.814,45.714,-80.879,4.689,-40.635,-13.675,-41.416,46.886,-32.821,65.641,-80.879
'[09:31:47.340 25/07/2074]',-1.563,-41.026,10.549,-30.476,-5.861,-15.629,-77.753,37.118,5.861,-23.834,15.629,-39.072,-12.112,15.238,-50.403,6.252,-41.807,-15.238,-9.768,18.755,-38.291,36.728,-50.403
'[09:31:47.344 25/07/2074]',1.563,-4.298,-34.774,-30.867,-5.079,-23.834,-75.800,36.728,8.987,-25.397,7.424,-41.416,-7.033,-24.225,-23.443,5.079,-43.761,-17.973,35.556,-30.867,-32.821,5.861,-23.443
'[09:31:47.348 25/07/2074]',4.298,13.284,-60.562,-27.741,-8.987,-29.304,-64.860,33.211,8.205,-25.397,5.470,-39.853,-7.033,-3.126,-45.324,4.689,-41.807,-22.271,61.343,-40.244,-34.774,14.847,-45.324
'[09:31:47.352 25/07/2074]',5.861,69.548,-114.090,-26.960,-11.331,-29.695,-24.615,0.391,9.768,-25.006,5.079,-34.774,-5.861,18.755,-59.780,3.126,-40.244,-20.317,114.872,-83.223,-41.026,26.960,-59.780
'[09:31:47.355 25/07/2074]',6.642,25.006,-73.846,-23.834,-10.940,-26.178,-35.165,7.033,5.861,-29.695,7.033,-26.569,-5.470,44.933,-88.694,6.252,-43.761,-13.675,74.628,-56.264,-31.258,62.906,-88.694
'[09:31:47.359 25/07/2074]',3.126,-82.442,42.979,-25.788,-11.722,-11.722,-47.668,10.159,5.470,-25.006,13.284,-29.695,-12.112,50.403,-76.190,2.344,-44.151,-16.410,-42.198,52.357,-26.960,60.171,-76.190
'[09:31:47.363 25/07/2074]',0.781,-36.728,10.159,-26.960,-13.675,-2.735,-53.529,17.582,-1.172,-24.225,17.973,-21.099,-7.814,43.370,-61.343,-2.344,-37.900,-14.457,-9.377,28.132,-29.695,47.277,-61.343
'[09:31:47.367 25/07/2074]',3.907,-5.861,-14.847,-28.523,-12.112,2.344,-56.654,20.317,-4.298,-16.020,16.801,-16.410,-11.331,14.847,-19.145,-4.689,-33.602,-10.940,15.629,-4.689,-35.165,21.099,-19.145
'[09:31:47.371 25/07/2074]',3.516,-1.563,-18.364,-32.039,-14.457,7.424,-51.966,10.159,-10.159,-14.457,24.615,-16.801,-12.112,-44.933,39.072,1.563,-30.476,-14.066,19.145,-7.424,-41.807,-38.681,39.072
'[09:31:47.375 25/07/2074]',5.861,73.455,-96.508,-24.225,-16.410,9.768,-34.383,-1.172,-1.172,-10.159,13.284,-7.424,-23.443,10.549,3.126,4.298,-26.569,-18.364,97.289,-84.786,-60.171,21.880,3.126
'[09:31:47.379 25/07/2074]',7.033,29.695,-49.231,-33.993,-14.066,11.331,-38.681,-4.689,0.000,-11.722,16.801,-16.801,-17.582,-15.629,21.880,-0.391,-25.006,-13.284,50.012,-51.184,-44.542,-3.907,21.880
'[09:31:47.383 25/07/2074]',8.987,-60.171,34.774,-34.774,-12.894,16.020,-56.654,2.735,-2.344,-15.238,21.099,-19.927,-22.662,-16.020,22.662,0.000,-30.476,-10.940,-33.993,19.145,-29.695,-5.470,22.662
'[09:31:47.387 25/07/2074]',17.582,-31.648,7.033,-40.244,-9.768,19.145,-49.231,-7.033,2.344,-16.020,21.099,-25.788,-13.284,-1.954,2.344,-5.079,-32.430,-13.675,-6.252,1.954,-38.291,9.377,2.344
'[09:31:47.391 25/07/2074]',25.788,26.569,-51.184,-48.059,-9.377,16.801,-43.761,-9.768,-2.344,-21.490,24.615,-21.490,-2.735,-13.675,4.689,-8.205,-32.039,-14.847,51.966,-44.151,-34.383,-10.159,4.689
'[09:31:47.395 25/07/2074]',24.615,29.695,-55.873,-50.012,-12.112,10.549,-53.138,3.126,-3.907,-23.834,25.397,-22.662,-1.172,19.145,-33.602,-10.549,-36.337,-15.238,56.654,-52.747,-37.509,32.821,-33.602
'[09:31:47.398 25/07/2074]',26.960,44.151,-79.707,-45.714,-11.722,8.205,-63.297,12.112,0.391,-27.350,21.099,-17.973,-9.377,22.271,-28.132,-7.033,-37.509,-24.225,80.488,-75.800,-45.714,37.900,-28.132
'[09:31:47.402 25/07/2074]',25.397,7.033,-45.714,-49.231,-14.847,5.079,-44.542,-7.033,0.391,-29.304,21.880,-17.582,-6.252,49.231,-52.357,-15.238,-34.774,-26.960,46.496,-26.569,-41.807,50.403,-52.357
'[09:31:47.406 25/07/2074]',16.020,-58.217,19.145,-43.370,-18.364,-0.391,-39.463,-8.205,-3.516,-30.867,22.271,-17.973,-14.066,51.575,-53.529,-13.284,-37.509,-23.053,-18.364,31.258,-30.867,46.886,-53.529
'[09:31:47.410 25/07/2074]',14.457,-116.825,74.237,-41.416,-14.847,-0.781,-53.138,0.000,-4.298,-32.039,24.225,-16.801,-19.927,-8.987,8.987,-8.596,-41.807,-22.271,-73.455,78.535,-29.304,-8.987,8.987
'[09:31:47.414 25/07/2074]',8.596,-112.137,79.707,-45.714,-17.582,-3.516,-51.184,3.516,-5.861,-28.523,22.662,-20.317,-18.755,-23.053,19.536,-10.549,-43.761,-22.662,-78.926,84.786,-32.430,-23.053,19.536
'[09:31:47.418 25/07/2074]',0.391,-44.933,24.225,-41.026,-23.053,-10.159,-44.542,16.020,-14.066,-29.304,24.615,-12.894,-20.708,-35.165,28.913,-3.907,-39.853,-19.536,-23.443,30.476,-27.741,-44.933,28.913
'[09:31:47.422 25/07/2074]',-2.735,12.894,-29.304,-37.509,-23.443,-16.410,-33.602,16.410,-16.801,-27.350,23.053,-7.424,-29.695,-19.145,23.053,-2.735,-39.853,-19.927,30.085,-33.993,-38.291,-15.238,23.053
'[09:31:47.426 25/07/2074]',-2.344,105.495,-116.435,-31.648,-23.443,-22.662,-17.582,18.755,-12.894,-21.880,14.847,2.344,-28.913,56.654,-39.072,-5.470,-35.165,-22.662,117.216,-123.468,-43.370,61.343,-39.072
'[09:31:47.430 25/07/2074]',-1.563,56.654,-69.939,-28.132,-28.913,-30.867,-5.079,21.490,-17.582,-23.053,12.112,15.629,-23.053,50.403,-33.993,-5.079,-26.960,-19.927,70.720,-55.092,-35.556,32.821,-33.993
'[09:31:47.434 25/07/2074]',0.391,-59.389,52.747,-32.039,-21.099,-25.397,-5.470,13.675,-11.331,-16.801,9.377,11.331,-25.788,12.112,12.112,-4.689,-21.099,-13.284,-51.966,50.794,-28.913,-6.252,12.112
'[09:31:47.438 25/07/2074]',1.172,-76.190,64.469,-26.960,-19.145,-26.569,2.735,5.470,-9.377,-17.582,7.424,14.847,-17.973,27.741,-15.629,0.391,-19.145,-13.284,-63.687,61.343,-14.457,7.814,-15.629
'[09:31:47.441 25/07/2074]',-1.954,-69.548,64.469,-28.132,-20.317,-26.569,18.364,-5.470,-7.033,-11.331,1.563,12.894,-16.801,-8.596,22.271,0.391,-12.894,-14.457,-63.687,73.846,-21.880,-33.211,22.271
'[09:31:47.445 25/07/2074]',-4.689,-2.344,4.689,-31.648,-17.192,-26.569,11.722,-1.172,-5.470,-3.516,-0.391,8.205,-16.801,13.675,3.907,-1.954,-9.768,-8.596,-3.907,1.563,-32.039,10.159,3.907
'[09:31:47.449 25/07/2074]',-16.410,71.893,-75.018,-10.159,-21.880,-33.211,9.768,16.020,-5.861,-8.596,-8.205,21.099,-23.053,95.336,-85.568,11.331,-12.894,-9.768,75.800,-84.396,-37.509,113.700,-85.568
'[09:31:47.453 25/07/2074]',-15.238,53.919,-48.840,-20.708,-18.755,-28.132,31.648,-14.457,-3.516,1.172,-10.549,10.549,-22.662,36.337,-12.503,-3.126,-5.470,-11.722,49.621,-50.012,-45.324,49.621,-12.503
'[09:31:47.457 25/07/2074]',-13.675,38.291,-29.304,-25.006,-15.238,-21.099,38.291,-32.039,-3.516,4.298,-8.205,5.861,-20.708,7.814,13.284,-1.954,0.781,-9.377,30.085,-32.821,-36.337,12.112,13.284
'[09:31:47.461 25/07/2074]',-17.192,-76.581,76.972,-15.629,-10.940,-17.192,19.145,-22.662,-3.516,0.391,-13.675,4.298,-31.648,17.973,-2.344,1.954,-1.172,-9.768,-76.190,62.125,-19.927,24.615,-2.344
'[09:31:47.465 25/07/2074]',-14.847,-73.455,67.204,-11.722,-5.861,-10.940,9.768,-25.397,-3.126,2.344,-17.192,4.298,-27.741,-10.549,25.788,-1.563,-1.172,-14.457,-66.422,55.482,-14.066,0.781,25.788
'[09:31:47.469 25/07/2074]',-9.768,-43.761,40.244,-16.410,-1.172,-5.861,20.708,-43.761,3.907,7.814,-23.834,3.516,-27.350,-3.516,27.741,-4.689,1.563,-15.629,-39.463,33.211,-8.987,-5.861,27.741
'[09:31:47.473 25/07/2074]',-8.987,-26.569,17.192,-8.205,2.735,-3.516,19.927,-46.105,8.205,6.642,-27.350,5.861,-26.569,-20.317,43.370,-1.954,-1.172,-11.722,-16.410,9.768,-19.145,-5.079,43.370
'[09:31:47.477 25/07/2074]',-7.424,28.132,-39.463,-7.424,5.079,-2.344,8.205,-37.509,14.847,10.940,-31.258,5.079,-25.397,-5.470,33.602,-1.563,-1.172,-11.722,40.244,-63.297,-20.317,22.662,33.602
'[09:31:47.480 25/07/2074]',-3.516,34.774,-42.589,-15.629,6.252,1.172,10.549,-46.496,18.755,19.145,-32.039,-0.391,-26.960,12.112,27.741,-7.424,3.907,-14.457,43.370,-53.919,-26.178,22.662,27.741
'[09:31:47.484 25/07/2074]',0.781,-42.589,31.648,-11.331,12.503,4.689,9.768,-48.449,17.192,21.490,-26.960,0.391,-28.913,22.662,23.053,-3.907,8.596,-7.814,-30.867,26.569,-19.145,16.020,23.053
'[09:31:47.488 25/07/2074]',3.126,-42.198,19.145,-1.172,12.894,1.172,16.020,-51.966,14.457,24.225,-29.695,6.252,-19.145,60.562,-17.973,-6.642,6.252,-5.861,-18.364,17.582,-14.457,64.860,-17.973
'[09:31:47.492 25/07/2074]',10.159,-14.457,-7.814,-2.735,13.675,0.781,29.695,-61.734,16.801,28.913,-29.304,13.675,-4.689,62.125,-11.722,-13.284,8.596,-3.126,8.596,-5.861,-5.861,63.297,-11.722
'[09:31:47.496 25/07/2074]',15.629,-2.344,-19.927,0.391,12.503,0.781,37.509,-57.827,14.066,35.946,-31.258,28.132,2.735,-4.298,67.985,-16.801,16.020,5.470,20.708,-9.768,-4.689,-8.205,67.985
'[09:31:47.500 25/07/2074]',12.503,71.502,-89.084,5.861,8.987,-1.563,42.979,-48.840,16.410,33.602,-29.695,39.072,8.596,-36.337,101.587,-12.503,18.755,11.331,89.866,-92.210,0.391,-29.304,101.587
'[09:31:47.504 25/07/2074]',10.549,49.231,-55.482,3.516,5.861,3.907,55.873,-57.436,17.973,37.118,-26.178,38.681,0.000,-8.596,97.289,-19.145,26.569,10.159,56.264,-68.767,1.172,-7.424,97.289
'[09:31:47.508 25/07/2074]',11.722,-13.284,10.940,9.768,5.861,13.675,51.966,-51.966,12.894,34.774,-14.066,40.244,-5.470,31.648,59.389,-10.549,36.728,10.549,-10.159,8.987,-3.126,16.410,59.389
'[09:31:47.512 25/07/2074]',6.642,-10.549,13.675,13.675,5.861,16.801,34.383,-33.993,10.159,29.695,-3.907,35.165,-14.847,60.952,30.085,-2.735,39.463,13.675,-12.894,0.781,1.172,42.198,30.085
'[09:31:47.516 25/07/2074]',14.066,35.946,-37.900,16.410,10.159,15.629,25.397,-22.662,9.377,28.913,-0.781,30.085,0.391,84.396,-11.722,-3.516,38.291,12.112,38.681,-53.138,-4.689,90.256,-11.722
'[09:31:47.520 25/07/2074]',16.410,24.615,-28.132,11.722,5.470,13.284,34.774,-28.523,0.391,31.258,2.344,26.960,0.781,64.469,0.391,-1.954,41.026,10.159,28.913,-26.960,-3.126,51.184,0.391
'[09:31:47.523 25/07/2074]',12.112,66.422,-75.409,11.331,-5.861,8.987,43.370,-30.867,-7.814,31.648,2.344,23.443,-2.344,25.788,26.569,0.391,40.635,11.722,76.190,-67.204,-17.192,21.099,26.569
'[09:31:47.527 25/07/2074]',11.722,49.621,-58.999,10.549,-7.033,3.907,37.118,-21.099,-10.159,32.821,3.907,16.410,-7.814,46.105,8.205,-1.563,34.774,14.066,59.780,-65.250,-22.271,54.310,8.205
'[09:31:47.531 25/07/2074]',11.331,10.940,-17.192,4.689,-9.377,3.516,31.258,-14.847,-8.987,27.741,9.768,5.861,-16.410,112.137,-51.575,-7.033,30.476,12.112,17.973,-20.317,-20.317,105.885,-51.575
'[09:31:47.535 25/07/2074]',3.516,-1.954,-7.814,5.470,-17.192,4.689,25.788,-13.284,-17.192,13.675,18.755,3.126,-28.132,119.951,-79.316,8.596,25.788,12.503,8.596,-9.377,-9.768,98.852,-79.316
'[09:31:47.539 25/07/2074]',1.563,-18.755,15.238,7.424,-8.205,2.344,47.668,-34.383,-3.907,12.112,17.582,-6.642,-28.523,82.442,-38.681,4.298,21.880,14.847,-14.457,-8.987,-6.252,76.972,-38.681
'[09:31:47.543 25/07/2074]',-6.252,-28.913,21.099,5.079,-10.159,-1.954,26.960,-23.053,-5.861,-1.172,16.801,-16.020,-30.867,-35.946,48.449,11.722,11.722,7.814,-20.317,-17.192,17.582,-34.383,48.449
'[09:31:47.547 25/07/2074]',-23.053,-64.078,51.575,0.391,-25.397,-6.642,17.973,-19.927,-15.629,0.000,1.563,-21.099,-44.933,-66.422,66.813,8.596,7.814,1.563,-50.794,23.834,12.894,-63.687,66.813
'[09:31:47.551 25/07/2074]',-42.198,-44.542,36.728,-4.689,-38.681,-9.377,21.490,-27.350,-23.053,-5.861,-0.391,-34.774,-54.701,-94.554,80.879,2.735,3.516,0.000,-35.946,2.344,10.549,-73.065,80.879
'[09:31:47.555 25/07/2074]',-54.310,-62.125,65.250,-10.940,-41.416,-11.331,19.927,-28.132,-28.132,-11.722,3.907,-43.370,-58.608,-58.608,33.602,4.298,-3.516,0.391,-64.469,21.490,11.331,-26.178,33.602
'[09:31:47.559 25/07/2074]',-66.032,-30.867,42.979,-15.238,-54.701,-10.549,14.066,-18.364,-39.853,-15.238,6.252,-46.496,-71.111,23.443,-55.092,6.642,-7.814,-0.781,-42.198,-5.861,17.973,51.966,-55.092
'[09:31:47.563 25/07/2074]',-71.893,23.443,-6.642,-14.066,-62.906,-10.940,30.085,-24.615,-48.840,-19.927,16.410,-46.886,-70.330,21.490,-63.687,12.503,-5.861,7.814,7.424,-57.827,10.549,60.171,-63.687
'[09:31:47.566 25/07/2074]',-69.939,-1.172,31.258,-7.424,-52.747,-9.377,40.635,-26.178,-41.807,-15.238,21.099,-44.542,-56.654,13.675,-58.999,21.490,-3.907,16.410,-30.476,-40.635,38.681,43.761,-58.999
'[09:31:47.570 25/07/2074]',-69.548,-46.886,85.568,-5.861,-48.059,-3.907,55.092,-39.463,-42.589,-9.377,20.708,-42.589,-66.032,33.993,-65.641,23.834,0.000,17.192,-84.786,13.284,26.960,62.125,-65.641
'[09:31:47.574 25/07/2074]',-71.893,-26.178,67.595,-9.377,-52.747,-5.079,76.581,-58.217,-47.277,-8.205,25.397,-39.072,-63.687,-5.470,-23.834,24.225,5.861,18.364,-66.813,7.033,22.662,12.112,-23.834
'[09:31:47.578 25/07/2074]',-70.330,19.536,20.708,-1.954,-46.105,-16.020,84.005,-52.357,-43.370,1.172,17.973,-31.258,-68.767,2.735,-15.629,26.569,6.642,21.880,-19.927,-40.244,1.954,31.648,-15.629
'[09:31:47.582 25/07/2074]',-65.250,19.145,26.960,-5.861,-39.463,-20.317,80.879,-44.933,-41.416,5.861,22.662,-27.741,-64.078,30.476,-31.258,24.615,6.252,25.788,-26.178,-45.324,-4.298,69.548,-31.258
'[09:31:47.586 25/07/2074]',-59.389,139.487,-99.243,-7.814,-42.979,-27.350,93.773,-50.012,-45.324,7.814,27.741,-20.317,-66.813,-2.735,11.722,27.741,9.377,27.350,100.024,-170.745,-9.377,25.397,11.722
'[09:31:47.590 25/07/2074]',-49.231,145.739,-102.369,-4.298,-37.118,-38.291,125.421,-59.389,-46.105,15.629,28.132,-14.847,-65.250,45.324,-20.708,24.225,10.159,41.807,103.150,-173.871,-18.364,71.111,-20.708
'[09:31:47.594 25/07/2074]',-44.933,20.317,41.026,-7.424,-26.569,-21.099,110.965,-53.919,-48.449,18.755,41.807,-16.801,-60.952,-21.490,48.840,28.913,11.331,54.701,-40.244,-63.687,8.205,1.954,48.840
'[09:31:47.598 25/07/2074]',-42.589,-59.389,125.421,-0.391,-26.960,-10.549,110.183,-49.231,-48.059,22.271,43.761,-10.159,-73.455,-42.198,96.508,27.350,12.894,60.171,-124.640,21.880,3.126,-29.695,96.508
'[09:31:47.602 25/07/2074]',-39.853,-99.243,172.698,0.391,-30.085,-3.907,147.692,-78.926,-50.403,22.271,49.621,-2.735,-70.330,-27.350,88.694,27.741,12.503,71.893,-171.917,80.879,-3.516,-23.443,88.694
'[09:31:47.605 25/07/2074]',-38.291,-109.792,186.764,1.954,-32.039,0.000,150.427,-78.144,-49.621,14.457,57.827,1.954,-66.032,-22.271,77.753,35.946,7.033,82.833,-185.983,81.661,6.252,-12.503,77.753
'[09:31:47.609 25/07/2074]',-37.900,-65.641,140.269,5.079,-34.774,3.907,140.659,-67.595,-44.542,9.377,61.734,5.079,-67.595,-34.383,100.024,34.774,1.563,85.177,-139.487,30.085,-8.596,-8.987,100.024
'[09:31:47.613 25/07/2074]',-35.556,-12.112,96.117,-7.033,-41.026,3.126,138.315,-60.171,-43.370,4.689,67.204,3.907,-67.204,-13.675,75.800,38.291,0.391,87.521,-95.336,-1.954,-26.569,2.344,75.800
'[09:31:47.617 25/07/2074]',-33.602,-33.993,125.421,-11.331,-39.463,4.689,126.203,-46.496,-41.416,-0.781,71.502,3.516,-56.264,16.020,28.132,45.714,-1.563,92.601,-124.640,19.145,-19.536,37.118,28.132
'[09:31:47.621 25/07/2074]',-28.523,-55.092,155.116,-13.284,-33.602,11.331,125.812,-46.496,-36.728,1.172,78.926,0.391,-56.264,-25.788,81.270,44.933,-1.954,92.601,-154.335,36.337,-21.880,-3.126,81.270
'[09:31:47.625 25/07/2074]',-24.225,-19.145,124.640,-15.238,-35.165,12.894,134.799,-48.059,-37.509,4.689,84.005,3.907,-50.794,-44.542,97.289,54.701,0.391,92.601,-123.858,14.066,-28.132,-32.039,97.289
'[09:31:47.629 25/07/2074]',-23.834,37.118,69.548,-16.020,-37.118,10.159,137.924,-44.933,-35.946,5.470,84.786,4.298,-46.496,-16.410,66.813,56.264,3.907,95.336,-68.767,-43.370,-26.569,-3.126,66.813
'[09:31:47.633 25/07/2074]',-23.834,72.283,31.258,-11.722,-38.681,7.814,129.719,-30.476,-37.509,9.377,81.661,15.238,-53.138,-0.391,60.562,62.515,5.079,97.680,-30.476,-91.038,-28.132,17.192,60.562
'[09:31:47.637 25/07/2074]',-20.317,149.646,-39.853,-23.443,-38.291,11.331,131.282,-39.853,-38.681,15.629,86.349,9.377,-46.496,5.861,48.449,64.860,13.284,91.038,40.635,-164.884,-21.490,13.284,48.449
'[09:31:47.641 25/07/2074]',-25.397,116.825,-6.252,-26.960,-42.589,9.768,123.858,-33.993,-39.463,19.536,77.363,3.516,-54.701,8.596,48.449,59.389,21.490,82.051,7.033,-123.468,-30.085,12.503,48.449
'[09:31:47.645 25/07/2074]',-23.834,15.238,85.958,-28.523,-37.900,13.675,90.256,-17.582,-41.416,23.834,70.330,-6.642,-55.873,29.695,15.629,56.264,26.178,75.409,-85.177,-45.714,-19.145,45.714,15.629
'[09:31:47.648 25/07/2074]',-21.880,-25.788,130.501,-39.853,-29.695,16.801,58.217,-4.298,-39.463,23.834,75.409,-27.741,-46.105,-26.960,55.482,50.012,28.913,62.125,-129.719,-5.079,-14.457,-5.861,55.482
'[09:31:47.652 25/07/2074]',-24.225,-37.900,136.752,-43.761,-29.695,16.801,52.357,-9.377,-32.430,22.271,63.297,-35.946,-50.403,-14.457,44.151,39.072,30.476,48.059,-135.971,21.490,-25.397,-3.126,44.151
'[09:31:47.656 25/07/2074]',-27.350,-82.051,171.526,-47.668,-29.695,14.066,42.589,-14.457,-31.648,13.675,57.045,-43.370,-45.324,22.271,-19.145,38.291,28.132,40.244,-170.745,57.436,-12.894,39.463,-19.145
'[09:31:47.660 25/07/2074]',-31.258,-38.291,121.905,-51.966,-29.304,9.377,23.834,-5.079,-27.741,3.907,54.310,-48.449,-44.933,9.377,-18.755,36.728,19.927,31.648,-121.123,7.814,-4.689,27.741,-18.755
'[09:31:47.664 25/07/2074]',-36.728,-23.834,102.369,-55.873,-34.774,7.033,8.205,3.126,-23.053,-0.391,47.277,-53.919,-52.747,-0.781,-9.768,33.993,15.629,21.490,-101.587,0.391,-18.364,19.927,-9.768
'[09:31:47.668 25/07/2074]',-41.026,-39.853,111.746,-51.184,-38.291,6.642,10.940,-1.954,-23.443,-4.689,42.979,-54.310,-43.761,0.000,-32.430,37.118,15.629,21.880,-110.965,18.364,-15.629,32.039,-32.430
'[09:31:47.672 25/07/2074]',-40.244,-38.681,98.462,-43.370,-35.165,4.298,11.722,-5.470,-28.523,-10.159,46.105,-52.357,-53.919,-29.304,-2.735,41.026,7.814,26.569,-97.680,0.781,-7.033,3.907,-2.735
'[09:31:47.676 25/07/2074]',-30.085,7.814,48.840,-44.151,-29.304,7.033,7.814,-5.079,-20.317,-6.642,50.794,-57.045,-50.794,-35.946,13.675,38.291,5.079,30.867,-48.059,-41.026,-16.801,-6.642,13.675
'[09:31:47.680 25/07/2074]',-26.569,43.761,10.549,-37.900,-26.569,7.033,13.675,-5.079,-15.238,-4.298,51.966,-51.966,-32.821,3.126,-26.178,35.946,8.596,40.635,-9.768,-62.125,-8.987,17.192,-26.178
'[09:31:47.684 25/07/2074]',-17.973,65.641,-19.927,-34.774,-22.662,4.298,18.364,-9.377,-19.145,-3.907,53.529,-49.231,-39.853,35.165,-53.529,39.853,11.331,49.231,20.708,-86.349,-0.391,29.304,-53.529
'[09:31:47.688 25/07/2074]',-12.503,84.786,-42.979,-39.463,-20.317,5.079,30.476,-27.350,-12.894,5.079,50.794,-53.529,-27.350,42.198,-55.482,30.867,12.503,49.231,43.761,-110.574,-6.642,47.668,-55.482
'[09:31:47.691 25/07/2074]',-14.457,6.252,33.211,-38.291,-20.317,5.470,41.026,-40.635,-6.252,16.020,41.026,-48.840,-15.629,80.098,-86.349,25.006,20.317,46.886,-32.430,-18.755,-14.066,84.786,-86.349
'[09:31:47.695 25/07/2074]',-11.331,-56.264,82.833,-35.556,-16.020,4.298,32.430,-42.198,-26.178,20.708,29.304,-38.291,-25.397,73.455,-82.442,21.099,22.271,46.886,-82.051,28.523,2.344,82.833,-82.442
'[09:31:47.699 25/07/2074]',-10.940,-90.647,114.090,-35.556,-11.331,-1.172,36.728,-48.059,-27.350,29.695,14.457,-28.523,-27.350,45.324,-44.542,15.238,18.364,46.105,-113.309,51.184,17.582,55.482,-44.542
'[09:31:47.703 25/07/2074]',-9.377,-107.057,134.799,-36.337,-7.424,0.000,53.919,-64.860,-16.801,42.979,-2.344,-21.099,-14.847,17.192,-7.424,6.642,20.708,42.198,-134.017,82.051,21.099,19.536,-7.424
'[09:31:47.707 25/07/2074]',-9.768,-63.687,93.382,-36.337,-8.596,-3.516,72.283,-78.144,-23.443,43.370,-13.284,-13.675,-15.629,16.020,-15.238,7.033,19.536,42.198,-92.601,53.919,30.476,4.689,-15.238
'[09:31:47.711 25/07/2074]',-14.847,22.662,12.112,-38.291,-10.549,-8.596,75.409,-74.237,-17.192,46.496,-28.132,-15.238,-23.834,16.801,-8.205,1.172,12.503,42.979,-11.331,-41.026,28.523,16.410,-8.205
'[09:31:47.715 25/07/2074]',-16.020,61.734,-25.788,-39.853,-13.284,-8.596,63.687,-62.906,-10.549,46.496,-33.993,-20.708,-19.145,15.629,-14.066,-0.391,8.205,36.728,26.569,-78.144,23.053,23.443,-14.066
'[09:31:47.719 25/07/2074]',-20.317,82.442,-46.886,-42.979,-17.973,-10.159,67.985,-67.985,-12.112,40.244,-36.728,-23.834,-17.192,16.410,-24.615,-6.252,6.252,32.430,47.668,-78.144,19.536,17.192,-24.615
'[09:31:47.723 25/07/2074]',-19.927,101.587,-74.237,-41.416,-18.364,-12.894,68.767,-71.893,-12.503,35.946,-39.072,-23.053,-19.145,28.132,-33.211,-14.457,1.563,32.821,75.018,-106.667,28.132,28.913,-33.211
'[09:31:47.727 25/07/2074]',-20.708,22.271,8.987,-47.668,-16.410,-8.205,45.714,-57.827,-6.252,34.774,-33.993,-28.132,-3.126,-1.563,-9.377,-19.536,-2.735,32.821,-8.205,-28.132,35.946,4.689,-9.377
'[09:31:47.730 25/07/2074]',-16.801,-37.900,72.674,-50.403,-14.457,-0.781,36.728,-55.092,-9.377,32.430,-19.145,-32.430,0.781,20.708,-25.788,-24.615,-1.954,32.039,-71.893,52.747,20.708,19.927,-25.788
'[09:31:47.734 25/07/2074]',-14.847,8.205,21.490,-46.105,-16.801,2.344,33.602,-50.794,-31.258,25.006,0.000,-28.523,-17.973,54.701,-51.966,-19.145,-3.516,36.337,-20.708,2.735,23.053,38.681,-51.966
'[09:31:47.738 25/07/2074]',-13.284,-33.602,67.204,-44.933,-13.284,4.689,31.648,-48.449,-40.244,17.973,17.973,-29.304,-22.271,41.807,-38.681,-12.894,-9.377,39.463,-66.422,34.383,18.755,39.072,-38.681
'[09:31:47.742 25/07/2074]',-5.470,-41.026,70.720,-44.542,-10.159,10.159,22.271,-44.933,-41.416,9.768,41.416,-31.648,-21.880,62.125,-53.138,-7.424,-9.768,39.463,-69.939,38.291,22.662,46.105,-53.138
'[09:31:47.746 25/07/2074]',-6.642,-44.151,71.111,-35.946,-10.549,14.847,7.424,-28.913,-46.105,1.563,58.217,-22.662,-19.145,40.244,-31.258,0.781,-7.814,41.416,-70.330,41.807,22.662,21.099,-31.258
'[09:31:47.750 25/07/2074]',-3.516,-37.118,64.469,-38.681,-5.079,18.755,-1.563,-28.523,-37.509,-1.954,64.469,-20.708,-12.503,-4.689,22.662,-0.781,-6.642,45.714,-63.687,25.006,22.662,-14.066,22.662
'[09:31:47.754 25/07/2074]',0.391,7.424,21.880,-45.324,-1.172,23.834,-5.079,-34.383,-30.085,-3.126,74.237,-25.788,-4.298,-38.681,57.827,-0.391,-4.689,43.761,-21.099,-26.569,23.053,-41.416,57.827
'[09:31:47.758 25/07/2074]',-0.391,21.099,0.000,-38.681,-2.735,22.271,-2.344,-34.774,-27.741,-7.424,79.707,-23.443,-8.205,-21.880,47.277,3.126,-1.954,40.244,0.781,-18.364,-2.735,-30.867,47.277
'[09:31:47.762 25/07/2074]',0.000,58.608,-32.821,-44.151,3.516,23.053,-6.642,-39.853,-12.112,-8.596,84.005,-33.602,-5.861,2.344,33.211,-0.781,-1.563,43.370,33.602,-64.469,-2.344,-3.516,33.211
'[09:31:47.766 25/07/2074]',4.689,48.840,-28.913,-43.370,13.284,19.927,-17.973,-35.946,0.391,-10.940,88.694,-42.589,4.298,42.979,-16.801,3.907,-3.126,41.026,29.695,-72.674,-1.172,50.794,-16.801
'[09:31:47.770 25/07/2074]',5.470,16.020,5.079,-41.026,19.536,18.364,-1.563,-52.357,9.377,-11.331,96.117,-50.012,11.331,119.951,-92.601,3.907,0.781,35.946,-4.298,-27.350,-1.563,112.527,-92.601
'[09:31:47.773 25/07/2074]',0.000,-3.907,34.383,-42.979,25.397,19.927,2.735,-63.297,11.722,-11.722,98.071,-55.482,12.503,81.661,-58.217,5.470,8.205,32.039,-33.602,-12.503,7.033,77.363,-58.217
'[09:31:47.777 25/07/2074]',-3.126,67.204,-43.761,-44.151,24.615,8.987,-3.907,-55.092,-3.907,-14.066,87.912,-55.482,-9.768,24.615,-14.457,12.112,4.298,28.132,44.542,-108.230,2.344,45.714,-14.457
'[09:31:47.781 25/07/2074]',-3.126,16.801,12.894,-52.357,28.523,4.298,-0.781,-58.999,-3.126,-10.159,77.753,-61.343,-21.099,-21.099,36.728,7.424,5.079,19.927,-12.112,-51.184,-1.954,-2.344,36.728
'[09:31:47.785 25/07/2074]',-1.563,-57.827,83.223,-55.482,29.695,2.735,5.470,-70.720,0.391,-10.549,71.111,-64.469,-25.397,-71.111,83.223,7.814,4.689,14.847,-82.442,40.635,-14.847,-61.343,83.223
'[09:31:47.789 25/07/2074]',0.781,-52.747,68.767,-59.389,30.085,-0.781,13.284,-86.349,8.987,-11.331,59.780,-68.376,-26.960,-67.985,72.283,10.940,-0.391,15.238,-67.985,23.443,-18.364,-51.575,72.283
'[09:31:47.793 25/07/2074]',5.079,-32.430,42.979,-64.860,32.039,0.391,0.000,-82.051,17.973,-9.377,51.184,-77.753,-18.755,-53.919,53.138,1.954,-4.298,12.894,-42.198,-3.907,-17.192,-27.741,53.138
'[09:31:47.797 25/07/2074]',4.298,-35.165,40.244,-66.813,24.615,0.391,-5.470,-78.535,15.629,-8.596,46.886,-82.051,-14.066,-5.079,-1.563,-5.861,-3.516,9.768,-39.463,13.284,-7.424,0.781,-1.563
'[09:31:47.801 25/07/2074]',-0.391,23.834,-22.271,-67.204,16.020,0.781,-1.172,-82.442,16.020,-10.940,33.993,-80.488,-15.629,37.900,-53.919,-8.987,-3.516,10.940,23.053,-55.092,5.470,46.886,-53.919
'[09:31:47.805 25/07/2074]',-0.391,44.151,-45.324,-68.376,14.066,-1.172,8.596,-92.210,11.331,-10.940,27.350,-80.098,-10.549,43.370,-67.595,-16.410,-9.377,12.894,46.105,-89.866,21.490,64.469,-67.595
'[09:31:47.809 25/07/2074]',2.344,8.205,-6.642,-67.985,14.847,-1.563,19.927,-98.071,14.847,-7.814,19.927,-74.628,-1.954,81.661,-104.713,-23.443,-11.331,8.205,7.424,-41.026,30.085,92.601,-104.713
'[09:31:47.813 25/07/2074]',5.079,-47.668,46.496,-67.204,16.410,0.000,15.629,-94.945,16.801,-8.205,10.940,-64.078,2.735,86.349,-107.057,-26.178,-12.503,8.987,-45.714,21.099,23.053,99.634,-107.057
'[09:31:47.816 25/07/2074]',14.847,3.516,-13.675,-73.455,21.099,-2.735,7.814,-94.554,12.503,-8.987,4.298,-58.217,3.516,19.927,-47.277,-26.960,-18.755,10.940,14.457,-42.979,22.271,44.933,-47.277
'[09:31:47.820 25/07/2074]',19.536,-39.853,28.523,-76.581,23.053,-1.172,15.238,-105.495,5.861,-4.689,-6.642,-55.482,0.391,14.847,-39.853,-36.728,-22.271,3.126,-27.741,16.410,9.768,42.589,-39.853
'[09:31:47.824 25/07/2074]',14.457,-41.416,25.006,-79.707,14.066,2.735,16.801,-116.044,4.298,-2.344,-15.629,-51.575,7.033,23.443,-54.310,-42.979,-19.927,0.000,-24.225,23.834,26.569,36.728,-54.310
'[09:31:47.828 25/07/2074]',8.596,1.954,-18.364,-74.628,14.066,-1.172,14.847,-110.574,-5.861,-4.298,-26.569,-42.198,1.172,-9.377,-26.960,-45.714,-23.443,1.954,19.145,-32.039,49.621,11.722,-26.960
'[09:31:47.832 25/07/2074]',-5.470,43.370,-61.734,-62.906,6.252,-6.252,12.894,-101.197,-14.457,-3.516,-40.635,-30.867,-5.861,30.476,-67.985,-48.059,-26.178,-2.735,62.515,-75.409,55.092,63.687,-67.985
'[09:31:47.836 25/07/2074]',-5.861,20.317,-35.556,-60.952,12.112,-6.642,25.788,-114.481,9.768,-1.172,-45.714,-26.569,17.582,-10.940,-24.615,-47.277,-18.755,-7.033,36.337,-34.383,64.469,1.954,-24.615
'[09:31:47.840 25/07/2074]',0.391,36.337,-60.952,-60.562,21.099,-13.284,35.165,-128.547,9.768,-5.861,-48.449,-24.615,20.317,-20.708,-25.788,-44.151,-19.145,-7.033,61.734,-47.277,60.952,-8.987,-25.788
'[09:31:47.844 25/07/2074]',4.298,19.145,-68.376,-55.092,23.053,-19.536,14.847,-119.170,-3.516,-10.549,-53.529,-26.569,9.377,-47.668,-19.145,-38.681,-28.132,-14.066,69.158,-27.741,33.993,-20.708,-19.145
'[09:31:47.848 25/07/2074]',3.907,-27.741,-36.337,-58.999,16.410,-21.490,10.549,-125.812,6.642,-10.159,-54.701,-34.383,24.225,-49.621,-26.178,-41.807,-30.476,-23.834,37.118,28.913,26.569,-33.602,-26.178
'[09:31:47.852 25/07/2074]',19.536,-10.159,-62.125,-60.171,27.350,-15.629,14.847,-140.659,-19.145,-9.768,-51.575,-36.337,7.033,8.205,-91.429,-42.589,-28.523,-28.913,62.906,21.099,21.099,14.457,-91.429
'[09:31:47.855 25/07/2074]',14.066,-32.821,-41.416,-48.840,24.615,-16.801,1.954,-120.342,-34.774,-10.940,-53.919,-26.960,-19.536,62.906,-138.315,-32.821,-29.695,-32.039,42.198,42.589,0.391,77.753,-138.315
'[09:31:47.859 25/07/2074]',23.053,-65.250,9.377,-58.608,41.807,-3.516,-17.582,-112.527,-14.847,-3.516,-47.277,-33.211,-16.410,102.759,-153.162,-33.211,-22.662,-36.337,-8.596,57.045,6.642,115.263,-153.162
'[09:31:47.863 25/07/2074]',35.165,-110.574,68.767,-61.734,62.125,5.470,-36.337,-100.806,5.079,0.000,-44.542,-30.867,-4.298,105.885,-142.222,-30.867,-13.675,-39.853,-67.985,115.653,3.516,101.197,-142.222
'[09:31:47.867 25/07/2074]',36.728,-52.747,-0.391,-61.734,59.389,0.000,-50.794,-86.740,31.648,-1.172,-51.575,-20.317,18.364,-22.662,-18.755,-19.145,-17.582,-43.370,1.172,64.469,-10.940,-34.774,-18.755
'[09:31:47.871 25/07/2074]',49.231,3.516,-68.376,-69.548,62.906,-8.987,-45.714,-94.164,34.774,-2.735,-60.171,-17.582,22.662,-64.860,16.410,-21.099,-25.006,-52.357,69.158,0.391,-11.331,-74.628,16.410
'[09:31:47.875 25/07/2074]',67.595,69.939,-145.739,-76.972,65.641,-11.331,-47.277,-91.819,52.357,-3.907,-57.436,-17.973,38.291,-71.893,27.350,-21.880,-26.569,-58.999,146.520,-48.059,-34.383,-97.289,27.350
'[09:31:47.879 25/07/2074]',96.117,239.121,-317.656,-75.800,82.442,-17.192,-58.608,-64.078,78.144,-7.033,-58.217,-6.252,69.548,-96.117,41.026,-9.377,-27.350,-57.436,318.437,-207.473,-41.807,-127.766,41.026
'[09:31:47.883 25/07/2074]',106.667,89.866,-171.136,-80.488,84.786,-18.755,-75.409,-45.324,68.376,-11.722,-53.138,-5.861,58.608,-27.350,-27.350,-6.642,-30.085,-55.092,171.917,-64.469,-55.482,-50.794,-27.350
'[09:31:47.887 25/07/2074]',134.408,-10.159,-53.919,-88.694,114.872,3.907,-93.773,-43.370,91.038,-8.987,-35.165,-12.894,76.581,92.601,-127.766,-8.205,-21.880,-55.092,54.701,38.681,-58.217,57.827,-127.766
'[09:31:47.891 25/07/2074]',144.567,-80.488,17.973,-84.005,124.640,9.377,-93.773,-42.589,104.322,-8.205,-34.774,-2.735,93.773,47.277,-86.349,1.563,-14.847,-55.092,-17.192,120.733,-57.827,0.781,-86.349
'[09:31:47.895 25/07/2074]',140.269,-141.832,81.661,-84.396,123.077,9.768,-101.587,-35.946,130.891,-3.126,-34.383,0.781,109.792,109.011,-126.203,-0.781,-11.331,-55.482,-80.879,175.433,-66.032,62.125,-126.203
'[09:31:47.898 25/07/2074]',154.725,-90.647,34.383,-84.396,140.659,13.675,-110.574,-31.648,173.089,0.000,-30.867,6.252,146.129,119.951,-118.779,-0.391,-5.470,-62.125,-33.602,112.527,-61.734,72.283,-118.779
'[09:31:47.902 25/07/2074]',167.619,-19.927,-45.714,-80.098,145.739,9.377,-91.819,-42.979,201.612,3.126,-34.774,11.722,169.573,9.768,-6.642,7.424,0.391,-67.985,46.496,56.654,-71.502,-57.436,-6.642
'[09:31:47.906 25/07/2074]',203.956,33.211,-92.991,-80.879,179.341,10.940,-78.535,-50.403,253.578,11.722,-39.072,13.675,207.082,-14.457,38.681,8.596,9.768,-67.204,93.773,16.020,-96.117,-89.084,38.681
'[09:31:47.910 25/07/2074]',239.902,89.084,-151.209,-83.614,206.691,14.457,-86.740,-41.026,284.835,17.192,-37.900,14.847,229.744,1.563,34.774,11.722,16.410,-68.376,151.990,-43.761,-117.607,-64.469,34.774
'[09:31:47.914 25/07/2074]',286.007,99.243,-157.460,-80.488,241.074,23.834,-79.707,-39.072,307.106,29.695,-41.026,14.457,245.372,-30.867,79.316,15.629,28.132,-69.939,158.242,-36.337,-137.534,-111.746,79.316
'[09:31:47.918 25/07/2074]',313.358,79.316,-128.547,-86.349,258.657,31.648,-62.515,-50.403,332.112,42.198,-43.761,16.801,269.597,25.397,39.853,10.940,41.416,-63.687,129.328,12.894,-161.758,-71.502,39.853
'[09:31:47.922 25/07/2074]',339.536,65.641,-123.077,-81.661,276.239,33.602,-54.701,-55.482,359.072,51.184,-47.277,25.397,299.292,61.343,16.020,9.377,44.933,-56.264,123.858,12.112,-158.632,-35.556,16.020
'[09:31:47.926 25/07/2074]',368.449,48.449,-98.462,-84.396,301.636,41.416,-44.933,-66.032,390.330,63.687,-46.496,28.913,330.549,78.535,23.053,2.735,49.231,-51.184,99.243,27.350,-145.739,-35.556,23.053
'[09:31:47.930 25/07/2074]',386.032,65.250,-114.090,-85.958,312.967,44.542,-47.277,-60.562,418.071,69.939,-47.668,41.026,369.231,154.725,-44.151,0.781,53.919,-43.761,114.872,31.258,-141.441,12.112,-44.151
'[09:31:47.934 25/07/2074]',407.521,64.860,-123.468,-83.614,327.424,46.105,-51.966,-57.436,452.845,70.720,-50.794,53.138,396.190,143.785,-19.145,3.907,54.310,-36.728,124.249,35.165,-154.725,-5.079,-19.145
'[09:31:47.938 25/07/2074]',422.369,97.680,-146.911,-92.601,336.410,49.231,-41.416,-65.250,463.004,72.674,-46.496,55.482,404.396,181.294,-47.277,5.861,53.138,-35.946,147.692,3.516,-159.414,29.695,-47.277
'[09:31:47.941 25/07/2074]',420.024,67.595,-120.733,-89.475,325.470,52.357,-40.635,-61.343,439.170,68.767,-44.151,65.250,390.720,210.208,-80.488,8.205,50.794,-31.258,121.514,53.919,-165.275,45.714,-80.488
'[09:31:47.945 25/07/2074]',403.614,44.542,-104.713,-75.409,306.325,46.886,-35.556,-50.403,410.256,62.515,-49.231,82.442,369.231,186.374,-67.595,17.192,45.714,-21.099,105.495,84.786,-168.010,30.867,-67.595
'[09:31:47.949 25/07/2074]',402.051,42.198,-87.521,-71.502,309.060,47.668,-26.960,-46.105,404.005,62.125,-42.979,92.601,363.761,167.228,-36.337,20.317,42.979,-9.377,88.303,78.535,-160.586,19.927,-36.337
'[09:31:47.953 25/07/2074]',404.786,100.415,-141.832,-57.827,305.543,49.231,-3.907,-46.496,408.303,64.860,-40.635,108.620,384.078,109.402,20.317,25.397,43.761,-0.781,142.613,36.337,-148.864,-52.357,20.317
'[09:31:47.957 25/07/2074]',403.614,130.891,-168.400,-46.496,298.901,47.277,10.549,-39.463,420.024,67.595,-40.635,120.342,406.349,89.475,39.853,29.304,45.714,5.470,169.182,32.821,-152.772,-87.912,39.853
'[09:31:47.961 25/07/2074]',402.051,80.488,-117.998,-46.105,294.603,50.794,-10.940,-17.192,429.011,67.595,-35.165,116.435,419.243,96.508,33.211,28.132,41.416,7.814,118.779,65.641,-150.818,-69.158,33.211
'[09:31:47.965 25/07/2074]',393.065,58.217,-81.661,-44.933,289.915,57.827,-41.416,16.410,405.177,66.813,-26.569,107.057,403.614,84.005,38.291,24.615,37.118,5.861,82.442,84.005,-138.315,-78.926,38.291
'[09:31:47.969 25/07/2074]',349.695,57.045,-78.535,-34.774,249.670,55.873,-47.277,32.821,343.443,56.264,-22.662,107.448,353.993,144.176,-35.946,22.662,30.476,4.689,79.316,101.197,-132.454,-23.443,-35.946
'[09:31:47.973 25/07/2074]',324.689,33.602,-41.026,-37.509,235.214,56.654,-51.966,37.118,299.683,43.761,-14.066,97.289,315.311,169.963,-80.879,21.880,21.099,9.377,41.807,114.481,-124.640,21.880,-80.879
'[09:31:47.977 25/07/2074]',303.980,57.045,-60.562,-34.774,221.148,56.264,-73.065,59.780,296.557,35.946,-7.033,91.038,319.219,99.634,-25.006,21.490,14.066,11.722,61.343,75.409,-112.918,-32.821,-25.006
'[09:31:47.980 25/07/2074]',279.365,66.813,-73.065,-31.648,201.612,51.575,-72.283,58.608,291.087,33.993,-10.549,85.958,317.656,76.972,-12.112,16.801,12.503,5.470,73.846,75.800,-114.872,-55.873,-12.112
'[09:31:47.984 25/07/2074]',266.471,56.264,-68.767,-34.383,191.062,44.933,-71.502,54.310,302.418,30.867,-10.549,73.455,334.847,27.741,18.364,13.284,12.503,0.391,69.548,88.303,-115.263,-103.932,18.364
'[09:31:47.988 25/07/2074]',257.875,28.913,-58.217,-26.960,183.248,33.602,-69.158,51.575,305.934,29.695,-15.238,66.422,341.490,16.801,17.582,9.377,8.205,-7.424,58.999,95.336,-113.700,-92.601,17.582
'[09:31:47.992 25/07/2074]',241.465,34.383,-65.641,-22.662,172.698,25.397,-56.654,44.151,254.359,26.569,-20.708,61.343,293.431,17.582,6.252,3.516,5.079,-18.364,66.422,85.568,-105.885,-80.098,6.252
'[09:31:47.996 25/07/2074]',228.962,82.833,-121.123,-19.927,158.242,16.410,-57.045,51.575,224.274,21.880,-25.006,62.906,265.690,55.482,-39.853,2.735,4.689,-21.880,121.905,33.211,-103.932,-37.118,-39.853
'[09:31:48.000 25/07/2074]',231.697,74.237,-117.607,-14.066,157.851,10.940,-51.575,55.482,219.976,21.490,-31.258,75.018,265.299,73.846,-66.032,11.331,5.470,-20.317,118.388,17.973,-89.084,-5.470,-66.032
'[09:31:48.004 25/07/2074]',202.002,42.979,-76.972,-17.192,132.845,9.377,-33.211,39.463,223.492,23.053,-32.821,74.237,269.988,-14.457,19.927,12.503,5.079,-24.225,77.753,41.807,-80.879,-86.349,19.927
'[09:31:48.008 25/07/2074]',170.745,16.410,-48.059,-19.145,101.197,10.159,-31.648,39.072,242.247,25.397,-34.383,76.190,284.054,-60.952,67.595,17.582,10.159,-26.569,48.840,75.409,-92.210,-134.799,67.595
'[09:31:48.012 25/07/2074]',154.725,3.907,-34.383,-20.317,86.349,5.470,-33.993,43.370,246.154,23.834,-35.165,77.753,285.226,-55.482,59.780,22.662,10.159,-24.225,35.165,83.614,-95.336,-123.077,59.780
'[09:31:48.016 25/07/2074]',147.692,31.258,-57.045,-18.755,84.786,1.954,-27.741,41.807,243.419,22.271,-31.258,76.190,277.411,-40.244,51.575,20.708,7.814,-22.271,57.827,41.807,-98.071,-89.475,51.575
'[09:31:48.020 25/07/2074]',151.990,84.396,-110.574,-23.443,85.958,-3.516,-12.894,30.867,205.128,19.927,-27.741,71.502,227.790,8.987,16.020,15.238,6.642,-23.443,111.355,-8.596,-115.653,-40.244,16.020
'[09:31:48.023 25/07/2074]',157.851,89.084,-118.388,-19.145,91.819,-13.284,-0.391,29.304,185.983,11.331,-23.443,71.502,207.473,91.038,-70.720,16.801,5.470,-18.755,119.170,-21.099,-103.932,36.728,-70.720
'[09:31:48.027 25/07/2074]',147.302,62.515,-90.256,-14.457,87.912,-20.317,-7.424,43.370,175.433,6.642,-19.145,65.250,192.625,-7.033,26.178,16.020,0.391,-15.238,91.038,-21.490,-90.647,-48.449,26.178
'[09:31:48.031 25/07/2074]',124.249,11.722,-35.946,-16.801,69.548,-25.788,-21.099,58.217,178.168,6.642,-13.284,58.608,190.281,-7.424,24.225,23.053,-3.126,-17.973,36.728,20.708,-95.336,-43.370,24.225
'[09:31:48.035 25/07/2074]',91.819,-33.993,10.159,-15.629,42.589,-28.913,-18.755,55.092,186.374,1.954,-4.298,54.701,198.095,-10.940,19.145,30.867,-5.861,-16.020,-9.377,66.813,-88.694,-58.999,19.145
'[09:31:48.039 25/07/2074]',75.409,-49.621,26.960,-12.894,32.039,-30.085,-9.768,46.886,191.453,0.391,3.907,54.310,202.002,5.861,0.391,43.370,-10.940,-11.722,-26.178,69.939,-89.084,-37.118,0.391
'[09:31:48.043 25/07/2074]',84.396,-53.138,33.993,-13.284,42.198,-31.648,-24.225,64.860,199.267,1.172,13.284,50.012,199.267,64.469,-48.059,48.059,-16.020,-8.987,-33.211,64.860,-119.560,43.370,-48.059
'[09:31:48.047 25/07/2074]',81.270,-2.735,-14.066,-12.503,36.728,-35.946,-32.039,81.270,185.201,-5.079,17.192,49.621,184.029,43.370,-31.258,50.012,-20.708,-11.722,14.847,22.271,-117.607,8.596,-31.258
'[09:31:48.051 25/07/2074]',85.568,55.482,-73.455,-10.549,34.383,-42.589,-24.225,88.694,189.890,-10.549,14.457,51.184,187.155,4.689,4.689,48.059,-23.834,-13.675,74.237,-30.476,-120.733,-32.430,4.689
'[09:31:48.055 25/07/2074]',88.303,42.198,-55.482,-13.284,35.556,-43.761,-27.741,95.336,205.519,-12.503,9.768,53.138,202.393,0.391,5.861,46.105,-30.867,-19.536,56.264,-29.695,-115.263,-21.490,5.861
'[09:31:48.059 25/07/2074]',62.515,44.151,-60.171,-11.331,7.424,-43.370,-33.211,102.369,205.519,-17.582,4.298,57.827,206.300,-12.894,16.410,39.463,-37.118,-25.788,60.952,-32.821,-91.038,-44.151,16.410
'[09:31:48.063 25/07/2074]',46.886,14.457,-33.602,-7.033,-9.768,-42.979,-42.979,115.263,200.830,-26.569,-1.954,63.297,209.817,-51.575,36.337,39.853,-39.853,-27.741,34.383,1.954,-73.065,-86.740,36.337
'[09:31:48.066 25/07/2074]',32.430,-47.277,26.960,-2.735,-21.490,-32.430,-58.999,121.905,176.215,-36.728,0.391,60.952,191.453,-39.072,11.722,35.946,-43.761,-25.006,-26.178,54.310,-57.045,-60.171,11.722
'[09:31:48.070 25/07/2074]',28.913,-62.125,39.463,1.172,-29.695,-27.741,-50.012,116.435,140.659,-45.714,3.516,57.436,156.679,2.735,-33.211,28.913,-43.370,-32.039,-38.681,80.879,-56.264,-18.755,-33.211
'[09:31:48.074 25/07/2074]',30.085,26.960,-49.231,-0.391,-35.556,-25.006,-41.807,110.574,119.170,-53.138,5.861,55.873,139.096,25.006,-64.078,27.350,-36.728,-40.244,50.012,10.159,-56.654,-5.861,-64.078
'[09:31:48.078 25/07/2074]',23.834,62.906,-90.256,2.344,-46.105,-25.788,-46.496,118.779,107.839,-59.780,4.689,55.092,125.812,36.337,-82.051,27.741,-36.728,-44.542,91.038,-33.211,-66.813,26.178,-82.051
'[09:31:48.082 25/07/2074]',17.582,82.442,-114.872,2.735,-53.529,-30.476,-52.357,125.421,121.514,-59.389,0.781,53.138,135.971,89.084,-130.501,20.708,-36.728,-50.794,115.653,-48.449,-79.707,84.786,-130.501
'[09:31:48.086 25/07/2074]',15.629,125.421,-169.182,3.907,-60.562,-23.834,-60.171,121.514,123.077,-62.515,2.735,51.966,135.189,-14.066,-30.085,23.834,-36.337,-51.575,169.963,-82.051,-94.554,-22.662,-30.085
'[09:31:48.090 25/07/2074]',18.364,27.350,-78.144,13.675,-52.747,-22.662,-58.608,116.435,132.845,-60.562,0.000,52.357,151.990,-105.104,53.919,23.053,-35.556,-42.979,78.926,7.033,-74.237,-117.998,53.919
'[09:31:48.094 25/07/2074]',20.708,-103.932,45.324,21.099,-44.542,-17.192,-71.111,117.216,136.361,-57.827,3.126,48.059,156.679,-105.104,61.343,16.410,-37.509,-36.337,-44.542,127.375,-66.813,-111.355,61.343
'[09:31:48.098 25/07/2074]',32.039,-152.381,92.210,28.132,-24.615,-10.159,-78.535,115.263,120.733,-53.529,6.642,43.761,143.394,-76.972,44.542,6.252,-33.993,-35.556,-91.429,167.619,-50.012,-84.005,44.542
'[09:31:48.102 25/07/2074]',13.284,-95.726,31.258,36.728,-40.244,-15.629,-52.357,96.117,116.435,-46.496,7.814,47.277,148.474,-64.078,35.556,4.298,-30.476,-30.476,-30.476,112.527,-35.556,-80.098,35.556
'[09:31:48.105 25/07/2074]',-12.503,-60.952,-9.377,44.933,-64.860,-22.662,-41.026,90.256,104.322,-41.807,9.377,42.979,136.361,20.317,-46.886,4.298,-30.476,-23.053,10.159,74.237,-50.403,20.708,-46.886
'[09:31:48.109 25/07/2074]',-14.066,-4.689,-72.674,53.919,-66.422,-23.053,-41.807,94.164,97.680,-37.509,14.066,35.165,129.328,7.424,-31.648,3.907,-31.648,-16.410,73.455,16.410,-60.171,14.066,-31.648
'[09:31:48.113 25/07/2074]',-16.020,78.144,-168.010,65.641,-77.363,-26.178,-43.761,106.667,98.852,-35.165,13.675,33.211,130.501,-37.900,5.079,12.894,-27.350,-7.424,168.791,-52.747,-67.204,-45.324,5.079
'[09:31:48.117 25/07/2074]',-12.894,57.827,-154.335,77.363,-75.409,-26.569,-34.383,105.104,93.382,-34.774,10.549,28.913,125.031,-48.840,8.596,12.894,-23.443,0.781,155.116,-35.556,-58.608,-54.310,8.596
'[09:31:48.121 25/07/2074]',-2.344,-36.337,-67.985,86.349,-61.343,-21.490,-30.867,92.601,87.912,-33.993,9.768,22.271,113.700,-87.131,48.449,9.377,-21.099,1.954,68.767,50.012,-60.562,-82.051,48.449
'[09:31:48.125 25/07/2074]',-4.298,27.741,-139.096,91.819,-58.608,-16.410,-21.490,73.455,98.852,-28.132,3.516,21.490,122.686,-81.270,49.231,3.907,-15.238,-1.954,139.878,-25.397,-38.681,-79.707,49.231
'[09:31:48.129 25/07/2074]',-12.112,23.053,-139.487,92.210,-59.780,-17.973,-23.834,66.422,115.263,-22.271,-5.470,20.317,132.063,-19.927,-5.861,0.000,-9.768,-2.735,140.269,-23.053,-34.774,-20.708,-5.861
'[09:31:48.133 25/07/2074]',-14.066,-107.448,-14.066,92.210,-48.840,-12.503,-37.509,55.482,125.421,-20.317,-7.814,17.192,134.799,12.112,-32.039,-0.391,-10.940,-3.126,14.847,89.866,-26.960,19.145,-32.039
'[09:31:48.137 25/07/2074]',-16.801,-92.601,-40.244,91.819,-49.621,-16.020,-26.960,35.165,123.468,-18.364,-10.940,16.020,131.673,27.741,-48.840,-1.172,-10.159,-7.814,41.026,69.548,-19.145,31.648,-48.840
'[09:31:48.141 25/07/2074]',-19.536,-98.462,-33.602,86.740,-50.403,-20.317,-17.192,23.443,118.388,-17.192,-12.894,14.066,121.514,-23.053,5.861,-1.172,-7.424,-8.205,34.383,92.210,-28.523,-30.476,5.861
'[09:31:48.145 25/07/2074]',-17.973,-123.858,-18.755,87.131,-51.966,-26.960,-22.662,28.132,86.349,-21.880,-10.940,14.847,82.051,-58.217,41.807,1.172,-10.549,-4.689,19.536,98.462,-41.807,-44.151,41.807
'[09:31:48.148 25/07/2074]',-28.132,-35.946,-101.978,89.866,-58.217,-35.165,-14.066,30.867,71.111,-21.880,-13.284,20.317,67.985,-79.707,63.687,2.735,-13.284,-6.252,102.759,2.735,-35.946,-53.529,63.687
'[09:31:48.152 25/07/2074]',-21.099,-25.788,-100.024,82.051,-49.231,-30.476,-6.252,20.708,81.661,-21.490,-8.596,17.582,77.363,-52.357,44.933,-1.954,-7.814,-8.205,100.806,-3.907,-18.755,-43.761,44.933
'[09:31:48.156 25/07/2074]',-28.523,-62.906,-51.966,78.535,-48.840,-30.476,-12.503,26.960,87.131,-26.178,0.000,13.284,80.488,-53.919,44.933,2.344,-7.033,-4.298,52.747,19.536,-1.954,-49.231,44.933
'[09:31:48.160 25/07/2074]',-37.118,-72.674,-33.211,73.846,-48.449,-28.913,-32.821,40.635,81.270,-33.211,4.689,7.033,75.800,-58.608,38.681,3.126,-13.675,-4.689,33.993,12.894,10.940,-38.681,38.681
'[09:31:48.164 25/07/2074]',-37.118,-79.316,-18.755,64.469,-46.105,-29.695,-46.496,51.575,86.740,-34.383,9.768,-2.344,79.707,-66.422,46.496,-0.781,-14.457,-10.940,19.536,39.853,-4.298,-51.966,46.496
'[09:31:48.168 25/07/2074]',-47.668,-18.755,-73.455,56.654,-57.436,-34.383,-48.059,57.045,78.535,-36.728,15.629,-3.516,67.985,-68.767,51.184,1.954,-14.847,-9.768,74.237,-11.331,-18.364,-58.999,51.184
'[09:31:48.172 25/07/2074]',-50.794,-16.410,-70.330,59.780,-58.608,-38.681,-39.463,58.999,81.270,-38.291,17.192,0.391,67.595,-20.317,6.642,5.470,-17.973,-7.814,71.111,-13.675,-32.430,4.298,6.642
'[09:31:48.176 25/07/2074]',-42.589,17.582,-98.071,58.999,-49.231,-35.556,-31.648,53.138,84.396,-34.774,22.271,5.079,67.985,33.602,-30.085,4.689,-13.675,-8.987,98.852,-47.668,-28.913,54.310,-30.085
'[09:31:48.180 25/07/2074]',-45.324,-9.768,-58.608,55.482,-46.886,-28.913,-33.211,51.966,84.786,-33.602,26.569,11.722,68.767,49.621,-37.900,8.205,-3.516,-8.596,59.389,-26.178,-2.344,54.701,-37.900
'[09:31:48.184 25/07/2074]',-43.761,-106.276,41.416,57.436,-39.853,-23.834,-28.523,42.979,91.038,-32.821,27.741,12.503,73.065,79.707,-61.343,6.642,2.344,-7.033,-40.635,64.078,4.689,87.521,-61.343
'[09:31:48.188 25/07/2074]',-55.482,-104.713,49.621,48.449,-44.151,-15.238,-23.053,21.490,81.270,-32.821,32.039,2.344,60.562,26.178,-5.079,0.391,4.689,-10.940,-48.840,53.919,9.377,41.807,-5.079
'[09:31:48.191 25/07/2074]',-60.952,-55.092,3.516,41.026,-47.668,-18.755,-14.847,10.940,66.422,-30.867,28.913,-0.781,42.589,-10.940,35.946,-4.298,7.424,-16.801,-2.735,23.834,-8.205,0.781,35.946
'[09:31:48.195 25/07/2074]',-74.237,-85.568,37.118,36.728,-53.919,-22.662,-21.099,14.457,72.283,-30.867,24.615,-3.126,40.244,-32.430,60.171,-6.252,5.861,-14.457,-36.337,46.496,-8.987,-16.410,60.171
'[09:31:48.199 25/07/2074]',-73.065,57.436,-105.104,33.211,-48.059,-26.569,-24.225,12.894,78.535,-28.132,18.364,-4.298,41.807,-51.575,84.396,-10.549,1.563,-10.549,105.885,-105.104,-11.331,-24.615,84.396
'[09:31:48.203 25/07/2074]',-61.734,92.601,-132.845,24.225,-34.383,-26.960,-1.172,-12.503,81.661,-21.880,17.192,-1.563,44.151,-7.814,52.747,-14.066,2.735,-10.549,133.626,-127.766,-10.159,5.470,52.747
'[09:31:48.207 25/07/2074]',-53.138,-38.291,0.781,25.006,-21.490,-20.317,5.861,-28.132,86.349,-16.410,13.284,-1.563,50.794,-49.231,93.382,-14.066,7.424,-8.596,0.000,1.172,7.033,-46.105,93.382
'[09:31:48.211 25/07/2074]',-46.496,-114.481,84.786,23.053,-8.987,-5.470,-3.126,-32.821,98.071,-7.033,10.549,-5.470,63.297,-73.846,124.249,-17.192,8.596,-2.344,-84.005,71.502,8.987,-60.952,124.249
'[09:31:48.215 25/07/2074]',-38.291,-144.176,124.640,19.536,-0.781,0.781,-2.735,-35.165,89.866,-0.781,14.457,-6.252,51.575,-73.846,137.143,-17.973,9.768,0.000,-123.858,101.197,1.954,-57.436,137.143
'[09:31:48.219 25/07/2074]',-36.728,-151.209,137.924,20.708,0.000,3.126,10.940,-42.979,62.515,-0.391,14.457,-2.344,26.178,-89.475,151.990,-14.847,11.722,3.907,-137.143,126.593,-3.126,-82.051,151.990
'[09:31:48.223 25/07/2074]',-35.165,-52.747,42.198,26.569,0.391,-0.781,31.648,-48.840,73.455,1.954,8.596,11.722,39.463,-58.217,130.501,-14.847,9.377,13.675,-41.416,26.960,0.000,-51.575,130.501
'[09:31:48.227 25/07/2074]',-32.821,3.126,-12.503,26.569,-2.344,-7.424,27.741,-32.821,78.144,3.516,3.126,21.880,45.714,24.615,53.529,-16.801,3.907,15.629,13.284,-27.350,-6.642,38.681,53.529
'[09:31:48.230 25/07/2074]',-29.304,-14.847,4.298,23.834,-4.689,-7.814,25.006,-27.741,60.171,0.391,1.563,25.788,33.993,15.238,53.919,-15.629,1.954,10.940,-3.516,6.642,-8.596,19.536,53.919
'[09:31:48.234 25/07/2074]',-21.880,-33.993,30.085,26.960,3.126,-1.172,30.867,-30.867,65.641,0.781,-3.907,32.821,46.886,5.861,59.780,-17.192,1.954,11.722,-29.304,25.397,17.973,1.172,59.780
'[09:31:48.238 25/07/2074]',-16.410,-31.258,24.225,30.476,6.252,0.000,28.523,-28.132,58.999,1.172,-7.033,33.993,41.026,60.952,1.563,-16.020,-1.954,11.331,-23.443,14.847,9.377,73.846,1.563
'[09:31:48.242 25/07/2074]',-16.410,0.391,-2.735,30.867,6.642,0.781,34.383,-30.867,11.331,-1.954,-6.252,35.165,-6.252,51.966,7.814,-15.629,-5.079,7.814,3.516,-23.443,23.834,64.860,7.814
'[09:31:48.246 25/07/2074]',-16.801,41.807,-47.277,40.635,4.689,-0.781,32.430,-18.364,8.205,-5.470,-11.722,45.714,-7.814,34.774,24.615,-14.457,-5.079,10.159,48.059,-53.138,26.960,37.118,24.615
'[09:31:48.250 25/07/2074]',-35.165,45.714,-61.734,45.714,-16.410,-9.768,37.118,-15.238,24.615,-5.079,-19.927,54.310,9.768,110.574,-55.092,-11.722,-8.205,10.940,62.515,-55.092,18.364,117.998,-55.092
'[09:31:48.254 25/07/2074]',-44.933,-3.907,-14.066,39.463,-27.741,-10.549,39.072,-23.834,35.165,-5.861,-23.834,51.184,21.880,39.853,4.689,-11.331,-12.112,3.516,14.847,-5.079,18.755,48.449,4.689
'[09:31:48.258 25/07/2074]',-42.589,-44.542,26.178,34.774,-23.834,-7.033,40.635,-34.383,60.952,-4.298,-28.523,49.231,52.357,1.172,38.291,-14.847,-8.987,-1.563,-25.397,43.761,29.304,-1.954,38.291
'[09:31:48.262 25/07/2074]',-34.774,-58.217,31.258,38.681,-16.410,-12.503,38.681,-30.867,66.422,0.000,-43.761,56.264,60.171,-22.271,51.184,-9.768,-11.722,-5.079,-30.476,62.906,17.973,-15.629,51.184
'[09:31:48.266 25/07/2074]',-21.099,8.596,-32.430,31.648,-1.954,-12.503,32.039,-29.695,66.032,-0.391,-48.840,53.138,60.562,-28.913,53.138,-13.675,-17.582,-10.549,33.211,-28.523,37.900,-9.768,53.138
'[09:31:48.270 25/07/2074]',-25.788,8.987,-36.728,31.648,-7.814,-14.066,42.198,-40.635,44.542,-3.907,-49.231,53.529,35.556,-31.648,53.529,-13.284,-20.317,-15.629,37.509,-14.847,28.523,-17.582,53.529
'[09:31:48.273 25/07/2074]',-32.430,-11.331,-21.880,33.993,-17.582,-11.331,37.509,-39.072,25.397,-10.549,-43.370,45.324,13.284,-17.973,32.821,-11.331,-22.662,-16.020,22.662,15.629,16.020,-7.033,32.821
'[09:31:48.277 25/07/2074]',-39.463,-13.284,-19.536,29.695,-21.880,-9.377,20.317,-31.258,33.602,-16.020,-34.383,30.085,21.880,21.880,-12.503,-18.755,-26.960,-14.457,20.317,-3.907,34.383,41.416,-12.503
'[09:31:48.281 25/07/2074]',-54.701,-68.767,44.933,24.225,-30.085,-3.126,8.205,-27.741,46.105,-17.973,-18.755,8.987,32.821,54.310,-39.072,-30.085,-25.397,-16.410,-44.151,59.780,23.443,78.144,-39.072
'[09:31:48.285 25/07/2074]',-45.324,-28.913,5.470,22.271,-25.788,1.563,12.894,-34.774,48.840,-20.317,-7.033,4.689,37.900,84.396,-65.250,-30.476,-19.927,-14.457,-4.689,37.900,16.801,90.256,-65.250
'[09:31:48.289 25/07/2074]',-41.026,65.250,-85.958,22.662,-22.662,-1.172,34.383,-48.449,50.012,-19.536,-3.126,6.642,42.198,4.298,12.112,-25.397,-19.536,-6.642,86.740,-68.376,30.085,8.205,12.112
'[09:31:48.293 25/07/2074]',-40.635,94.554,-107.448,14.457,-21.880,-2.735,28.913,-41.416,56.264,-16.410,0.781,2.344,52.357,57.827,-41.416,-25.006,-23.053,-3.907,108.230,-108.620,26.960,76.581,-41.416
'[09:31:48.297 25/07/2074]',-26.569,96.508,-116.435,10.159,-17.973,1.954,12.503,-32.430,59.389,-14.847,8.205,-0.391,62.125,-20.317,29.304,-18.755,-18.755,-3.516,117.216,-97.289,16.020,-19.536,29.304
'[09:31:48.301 25/07/2074]',-27.741,1.563,-21.880,11.331,-19.145,-1.563,16.801,-32.039,51.966,-10.940,7.814,-3.907,56.264,-75.018,76.581,-12.894,-17.973,-1.172,22.662,-8.596,17.192,-74.237,76.581
'[09:31:48.305 25/07/2074]',-27.350,-85.568,67.595,3.907,-14.847,0.781,16.801,-43.370,60.952,-6.252,11.722,-13.675,67.595,-7.033,11.331,-19.145,-18.755,-4.298,-66.813,50.403,22.271,13.284,11.331
'[09:31:48.309 25/07/2074]',-21.880,-104.322,85.568,1.954,-10.159,6.252,10.159,-44.933,60.952,-4.298,14.457,-10.159,67.204,25.397,-8.987,-22.271,-14.457,-8.987,-84.786,77.363,13.284,39.463,-8.987
'[09:31:48.313 25/07/2074]',-32.430,-108.620,91.819,4.689,-21.099,1.563,9.768,-33.993,15.238,-7.424,9.768,8.205,15.629,-47.277,69.939,-10.940,-16.020,-6.252,-91.038,83.223,7.814,-36.337,69.939
'[09:31:48.316 25/07/2074]',-36.728,-29.304,13.675,4.298,-26.960,-2.735,12.894,-30.085,4.689,-8.987,3.126,17.973,3.126,-44.151,64.860,-7.033,-23.443,-2.344,-12.894,-14.457,19.536,-24.225,64.860
'[09:31:48.320 25/07/2074]',-28.523,-46.886,39.853,-0.781,-21.099,0.391,17.582,-33.602,12.112,-8.987,1.954,18.755,13.675,-44.151,61.734,-6.642,-27.741,-4.689,-39.072,10.549,26.178,-31.258,61.734
'[09:31:48.324 25/07/2074]',-26.178,-25.006,23.443,-1.563,-23.053,0.000,25.397,-31.258,17.192,-10.549,3.126,21.490,13.284,-117.607,140.659,-4.298,-30.476,-6.252,-22.662,4.298,13.675,-114.481,140.659
'[09:31:48.328 25/07/2074]',-35.946,6.252,-12.112,-1.954,-34.383,-8.205,24.615,-25.006,24.225,-13.675,0.781,19.145,17.192,-98.852,117.998,-4.689,-38.291,-5.079,12.894,-41.026,13.284,-84.396,117.998
'[09:31:48.332 25/07/2074]',-41.026,1.954,-2.735,-3.516,-34.774,-8.596,19.145,-20.708,42.979,-15.629,4.298,16.410,34.774,-10.549,36.337,-12.112,-41.416,-7.033,3.516,-47.668,17.582,15.238,36.337
'[09:31:48.336 25/07/2074]',-22.662,46.496,-44.933,-1.563,-18.364,-5.079,29.304,-27.350,37.900,-19.536,8.987,21.490,27.741,50.794,-11.331,-17.192,-37.900,-8.987,45.714,-66.422,6.642,60.171,-11.331
'[09:31:48.340 25/07/2074]',-8.205,10.159,-16.801,2.344,-3.516,-9.377,47.668,-45.324,27.350,-24.225,9.768,28.523,20.708,113.700,-73.455,-18.755,-36.337,-5.861,17.582,-28.132,16.410,112.527,-73.455
'[09:31:48.344 25/07/2074]',6.642,-71.111,62.125,7.814,16.801,-6.642,38.291,-42.198,46.886,-23.834,9.768,29.304,42.589,138.706,-103.932,-14.847,-38.291,-6.642,-61.343,28.132,33.211,152.381,-103.932
'[09:31:48.348 25/07/2074]',26.960,-52.747,36.337,8.205,35.165,0.000,24.615,-40.244,51.184,-21.099,13.284,23.053,50.012,29.695,0.391,-12.503,-37.118,-10.940,-35.556,13.675,28.913,37.118,0.391
'[09:31:48.352 25/07/2074]',-16.020,-116.825,89.084,10.159,-5.470,-5.470,32.821,-53.919,45.324,-18.364,8.987,20.317,47.277,-51.184,65.641,-4.298,-35.946,-14.457,-88.303,84.005,32.430,-57.827,65.641
'[09:31:48.355 25/07/2074]',-66.813,-48.449,17.973,9.377,-51.184,-12.894,25.397,-48.449,42.979,-17.973,8.205,9.377,36.728,-92.991,103.541,-3.516,-39.463,-9.768,-17.192,-2.735,26.569,-81.661,103.541
'[09:31:48.359 25/07/2074]',-75.018,-3.907,-16.410,8.987,-56.654,-8.987,19.145,-38.681,41.416,-14.066,10.940,3.126,33.211,-66.422,80.488,-3.907,-36.337,-6.642,17.192,-37.900,19.927,-53.529,80.488
'[09:31:48.363 25/07/2074]',-85.958,1.563,-9.768,12.112,-60.952,-8.987,14.066,-24.225,-7.424,-16.410,8.987,12.503,-17.192,-93.773,101.587,7.033,-35.556,-3.126,10.549,-23.443,24.615,-91.429,101.587
'[09:31:48.367 25/07/2074]',-61.734,12.503,-18.755,14.847,-36.337,-4.689,10.159,-20.317,-6.252,-15.629,8.205,13.284,-17.973,-59.389,64.860,13.675,-33.211,1.563,19.536,-26.960,14.066,-52.747,64.860
'[09:31:48.371 25/07/2074]',-31.258,57.045,-53.919,11.331,-7.424,0.781,23.053,-32.821,29.695,-12.503,10.159,6.642,16.020,-76.581,86.349,8.596,-26.569,2.344,54.701,-81.661,28.132,-66.422,86.349
