'Time and date','FP1-F7','F7-T7','T7-P7','P7-O1','FP1-F3','F3-C3','C3-P3','P3-O1','FP2-F4','F4-C4','C4-P4','P4-O2','FP2-F8','F8-T8','T8-P8','P8-O2','FZ-CZ','CZ-PZ','P7-T7','T7-FT9','FT9-FT10','FT10-T8','T8-P8'
'hh:mm:ss.mmm dd/mm/yyyy','uV','uV','uV','uV','uV','uV','uV','uV','uV','uV','uV','uV','uV','uV','uV','uV','uV','uV','uV','uV','uV','uV','uV'
'[02:44:51.000 07/11/2076]',-40.244,59.780,16.020,-60.171,-41.807,93.382,-44.933,-31.258,9.377,5.861,-49.231,-325.861,-48.059,80.879,-25.397,-367.277,53.529,-51.184,-15.238,-37.509,-0.391,78.535,-25.397
'[02:44:51.004 07/11/2076]',0.391,0.391,0.391,0.391,0.391,0.391,0.391,0.391,0.391,0.391,0.391,0.391,0.391,0.391,0.391,0.391,0.391,0.391,0.391,0.391,0.391,0.391,0.391
'[02:44:51.008 07/11/2076]',0.391,0.391,0.391,0.391,0.391,0.391,0.391,0.391,0.391,0.391,0.000,0.000,0.391,0.391,0.391,-0.391,0.391,0.391,0.391,0.391,0.391,0.391,0.391
'[02:44:51.012 07/11/2076]',0.000,0.781,0.391,0.391,0.391,0.391,0.000,0.391,0.781,0.391,-2.735,-4.298,-1.172,2.344,0.000,-7.033,-0.391,-0.781,0.391,-1.172,0.391,2.344,0.000
'[02:44:51.016 07/11/2076]',0.391,0.391,0.391,0.391,0.391,0.391,0.781,0.391,0.391,0.391,1.954,-1.172,0.781,0.000,0.781,0.391,0.781,1.172,0.391,0.781,0.391,-0.391,0.781
'[02:44:51.020 07/11/2076]',3.126,-1.563,1.954,0.781,0.391,1.172,1.954,0.391,-1.563,0.781,16.020,20.708,7.814,-9.377,2.735,34.383,3.907,5.861,-1.172,7.424,-0.781,-8.205,2.735
'[02:44:51.023 07/11/2076]',2.735,-1.954,1.563,1.172,0.391,0.781,0.391,1.563,-1.172,0.000,9.768,26.960,6.642,-7.033,1.172,34.383,1.954,1.954,-0.781,5.470,-0.781,-5.079,1.172
'[02:44:51.027 07/11/2076]',-2.735,1.954,-1.172,0.000,-0.391,0.000,-2.735,1.563,2.344,-0.781,-19.927,-12.503,-7.814,11.331,-3.126,-31.648,-4.298,-7.814,1.954,-7.814,1.172,11.722,-3.126
'[02:44:51.031 07/11/2076]',-3.516,4.298,-1.563,-1.563,-0.781,-0.391,-0.781,-0.391,2.344,0.391,-17.582,-37.509,-10.549,13.284,-1.954,-53.138,-2.735,-3.907,2.344,-8.205,1.954,10.549,-1.954
'[02:44:51.035 07/11/2076]',4.689,-1.563,2.344,0.000,0.391,0.391,5.079,-1.172,-2.344,1.563,27.350,10.940,10.159,-12.894,4.298,35.946,6.252,11.331,-1.563,10.940,-1.172,-15.238,4.298
'[02:44:51.039 07/11/2076]',11.722,-7.033,5.470,1.954,0.391,3.126,6.252,1.172,-7.033,0.391,53.529,80.879,27.741,-33.993,7.424,127.375,11.722,17.192,-4.689,24.225,-5.079,-30.085,7.424
'[02:44:51.043 07/11/2076]',19.927,-12.894,10.159,2.344,-3.907,7.814,8.987,5.861,-15.238,0.781,89.084,164.884,49.621,-61.343,12.503,237.949,24.615,31.648,-9.377,44.151,-12.112,-51.184,12.503
'[02:44:51.047 07/11/2076]',27.741,-21.880,13.675,2.735,-5.861,7.033,8.205,13.284,-22.271,-4.298,113.700,242.637,66.032,-82.051,12.503,332.894,27.350,35.556,-12.894,58.608,-16.801,-66.813,12.503
'[02:44:51.051 07/11/2076]',21.490,-15.629,9.768,-4.298,-11.722,5.470,1.954,15.629,-20.317,-8.596,73.846,199.658,45.714,-57.045,3.907,252.015,15.629,16.020,-8.987,40.635,-15.238,-44.542,3.907
'[02:44:51.055 07/11/2076]',16.020,-7.424,5.470,-12.503,-17.582,3.126,0.781,14.066,-18.755,-10.549,41.026,136.361,23.834,-33.211,-2.735,159.805,10.159,10.549,-4.689,23.834,-14.457,-27.350,-2.735
'[02:44:51.059 07/11/2076]',23.053,-9.768,3.907,-14.066,-18.755,0.391,7.814,12.894,-25.006,-10.940,69.939,140.269,32.039,-49.231,-0.391,191.062,12.894,24.615,-3.126,35.946,-18.755,-47.668,-0.391
'[02:44:51.063 07/11/2076]',29.695,-11.331,2.344,-17.582,-18.755,1.563,11.722,7.814,-28.523,-12.894,91.038,161.368,41.416,-63.297,0.391,231.697,15.629,30.476,-1.563,43.761,-22.662,-62.515,0.391
'[02:44:51.066 07/11/2076]',28.523,-8.987,-3.516,-17.192,-21.880,3.907,7.033,8.596,-28.132,-14.457,67.595,179.731,37.509,-57.436,-3.126,227.009,14.066,25.788,4.298,37.118,-26.960,-51.575,-3.126
'[02:44:51.070 07/11/2076]',26.569,-8.205,-8.596,-17.192,-21.490,3.126,2.344,7.424,-26.569,-17.192,51.966,177.778,36.337,-54.701,-6.252,209.817,14.457,24.615,9.377,35.165,-29.304,-47.668,-6.252
'[02:44:51.074 07/11/2076]',25.788,-7.033,-8.205,-24.615,-20.317,3.516,2.344,-0.391,-25.788,-20.317,66.032,145.348,35.946,-55.482,-3.907,188.718,14.457,21.099,8.987,36.728,-27.350,-54.310,-3.907
'[02:44:51.078 07/11/2076]',24.615,-5.861,-6.252,-28.523,-19.145,3.907,3.516,-4.689,-23.834,-20.708,70.720,135.580,36.728,-53.919,-1.954,180.513,14.847,16.801,7.033,36.728,-25.788,-55.482,-1.954
'[02:44:51.082 07/11/2076]',24.615,-6.642,-5.470,-25.788,-18.755,4.298,3.126,-3.126,-24.615,-20.317,66.422,159.023,38.291,-55.482,-2.344,198.095,15.238,14.457,6.252,37.900,-26.178,-54.701,-2.344
'[02:44:51.086 07/11/2076]',23.443,-5.470,-3.516,-26.960,-17.973,2.735,4.689,-3.126,-25.006,-19.927,65.250,145.739,36.337,-53.919,-1.954,184.420,16.410,10.549,4.298,36.728,-22.271,-54.701,-1.954
'[02:44:51.090 07/11/2076]',19.927,-1.954,0.000,-27.741,-16.020,1.563,5.470,-1.172,-22.662,-17.192,53.138,121.123,30.085,-45.714,-4.298,152.772,16.020,5.470,0.781,29.695,-16.801,-46.886,-4.298
'[02:44:51.094 07/11/2076]',21.880,1.563,0.781,-23.834,-9.768,4.298,3.516,1.954,-20.317,-14.457,46.496,146.911,33.602,-47.668,-6.252,176.996,19.145,3.516,0.000,28.913,-18.364,-43.370,-6.252
'[02:44:51.098 07/11/2076]',25.006,2.735,3.516,-23.053,-3.907,7.424,3.126,1.563,-18.364,-15.629,52.357,166.056,38.681,-57.436,-5.470,209.035,21.099,3.126,-2.735,32.821,-22.662,-49.231,-5.470
'[02:44:51.102 07/11/2076]',22.271,7.424,7.814,-25.006,0.781,9.768,3.516,-0.391,-14.847,-12.894,47.668,127.375,30.476,-49.621,-5.861,171.526,19.536,-0.391,-7.033,28.132,-20.708,-45.714,-5.861
'[02:44:51.105 07/11/2076]',18.364,10.159,10.549,-20.708,0.781,10.159,5.861,1.172,-12.894,-10.159,33.993,107.448,21.880,-39.853,-8.205,142.613,18.755,-0.781,-9.768,19.927,-16.020,-38.681,-8.205
'[02:44:51.109 07/11/2076]',19.536,7.814,13.675,-14.066,1.563,10.159,9.768,5.079,-15.629,-8.205,43.370,140.269,28.132,-48.059,-6.252,185.983,24.615,8.596,-12.894,25.397,-14.457,-48.059,-6.252
'[02:44:51.113 07/11/2076]',17.582,8.596,18.755,-8.596,-0.391,8.987,14.457,12.112,-16.020,-5.861,52.747,146.911,30.085,-46.886,-3.907,196.532,27.741,14.457,-17.973,20.317,-3.907,-51.184,-3.907
'[02:44:51.117 07/11/2076]',11.722,12.112,17.582,-1.563,-0.391,7.424,13.675,19.536,-13.284,-5.470,28.913,115.263,16.410,-26.960,-5.079,139.878,22.662,5.079,-16.801,2.344,3.907,-33.993,-5.079
'[02:44:51.121 07/11/2076]',15.629,16.410,17.192,1.563,3.516,13.284,12.112,21.490,-9.768,-5.470,27.350,118.779,18.755,-29.304,-3.126,144.567,21.099,9.377,-16.410,2.735,-3.907,-33.602,-3.126
'[02:44:51.125 07/11/2076]',20.317,14.066,18.755,5.470,4.689,14.457,17.582,22.662,-11.331,-3.907,51.184,121.514,28.523,-42.198,1.563,168.400,21.099,19.927,-17.973,11.722,-6.642,-47.668,1.563
'[02:44:51.129 07/11/2076]',24.225,14.457,23.834,6.252,7.814,15.238,23.834,21.880,-10.549,-0.781,66.032,116.435,35.165,-46.496,7.033,174.261,18.364,28.913,-23.053,15.238,-8.205,-50.403,7.033
'[02:44:51.133 07/11/2076]',23.053,15.629,25.788,9.768,5.470,16.020,26.960,26.178,-7.814,0.391,49.621,144.567,36.337,-42.198,4.689,186.764,15.238,33.993,-25.006,13.284,-9.768,-42.589,4.689
'[02:44:51.137 07/11/2076]',19.536,16.801,26.569,13.675,0.781,12.894,30.867,32.430,-7.424,1.563,40.635,150.037,33.993,-35.165,5.079,180.122,11.722,41.807,-25.788,9.768,-6.642,-35.946,5.079
'[02:44:51.141 07/11/2076]',17.192,17.582,28.132,13.284,-0.391,7.033,36.337,33.993,-5.861,1.954,48.059,115.263,28.913,-26.960,7.033,149.255,7.424,47.277,-27.350,6.252,-2.344,-32.430,7.033
'[02:44:51.145 07/11/2076]',17.192,17.582,27.741,11.722,-1.954,3.907,38.681,33.993,-5.079,-0.391,53.919,112.137,27.350,-22.271,4.689,150.427,2.735,50.794,-26.960,7.033,-2.735,-30.085,4.689
'[02:44:51.148 07/11/2076]',20.708,12.894,24.225,12.894,-0.391,1.172,35.165,35.556,-6.642,-4.298,57.045,134.408,31.648,-29.695,4.689,171.917,-4.689,55.092,-23.443,12.503,-6.642,-33.602,4.689
'[02:44:51.152 07/11/2076]',19.536,10.549,19.536,15.629,0.781,-4.298,32.430,37.509,-5.861,-9.377,54.310,119.170,30.085,-26.960,3.126,149.646,-14.847,53.919,-18.755,12.503,-4.689,-29.304,3.126
'[02:44:51.156 07/11/2076]',14.457,9.768,14.847,19.536,0.391,-11.331,29.304,41.416,-3.126,-14.066,37.900,105.495,25.397,-17.973,-0.391,117.607,-23.834,50.012,-14.066,5.861,2.344,-19.536,-0.391
'[02:44:51.160 07/11/2076]',11.722,6.642,9.377,27.350,0.391,-17.192,25.788,47.277,-0.391,-16.020,28.132,141.441,32.430,-20.317,-4.689,143.004,-28.523,51.966,-8.596,3.907,8.987,-15.238,-4.689
'[02:44:51.164 07/11/2076]',6.252,2.344,3.516,37.509,0.781,-28.132,22.662,55.092,1.954,-21.490,19.927,159.414,33.602,-19.927,-8.596,154.335,-34.774,46.105,-2.735,-2.344,21.099,-9.768,-8.596
'[02:44:51.168 07/11/2076]',0.391,2.344,3.126,34.774,2.344,-33.993,22.662,49.231,7.033,-24.615,20.317,113.309,27.741,-14.457,-9.377,111.355,-37.509,40.244,-2.344,-7.424,30.085,-8.596,-9.377
'[02:44:51.172 07/11/2076]',-4.689,4.298,0.000,30.867,4.298,-33.602,17.973,41.807,11.722,-26.178,17.192,84.396,24.615,-12.112,-10.940,84.786,-40.635,35.556,0.781,-8.596,30.867,-6.642,-10.940
'[02:44:51.176 07/11/2076]',0.000,-2.344,-5.079,33.211,8.596,-32.821,10.940,37.509,8.987,-27.350,31.648,109.792,32.039,-32.039,-8.596,132.063,-37.900,35.165,5.861,9.377,17.582,-22.662,-8.596
'[02:44:51.180 07/11/2076]',0.781,-7.033,-8.987,32.039,10.940,-32.430,5.470,32.039,5.470,-27.350,45.714,112.527,34.383,-43.761,-5.470,150.818,-35.165,32.821,9.768,21.099,8.596,-33.993,-5.470
'[02:44:51.184 07/11/2076]',-1.563,-5.079,-17.192,27.741,11.331,-31.648,-2.735,26.178,3.516,-22.271,23.053,98.462,21.880,-32.039,-7.814,121.514,-40.244,21.099,17.973,15.238,0.000,-19.927,-7.814
'[02:44:51.188 07/11/2076]',-3.126,-6.252,-23.443,26.569,15.238,-37.118,-8.596,23.834,2.344,-17.582,2.344,95.336,12.112,-22.662,-10.159,103.150,-41.416,14.066,24.225,8.205,-5.470,-6.642,-10.159
'[02:44:51.191 07/11/2076]',0.391,-8.596,-21.099,21.490,21.099,-40.635,-7.033,17.582,0.781,-13.675,19.927,78.144,13.675,-26.960,-5.861,104.713,-38.291,17.973,21.880,13.284,-8.205,-13.675,-5.861
'[02:44:51.195 07/11/2076]',0.781,-8.205,-16.410,15.629,25.397,-41.026,-3.907,10.940,5.079,-9.768,30.867,61.734,17.582,-27.350,-1.563,98.462,-39.463,18.364,17.192,14.847,-8.987,-13.675,-1.563
'[02:44:51.199 07/11/2076]',0.000,-9.768,-15.629,19.536,27.741,-41.807,-6.642,14.066,10.159,-8.596,9.768,89.084,18.364,-23.053,-3.126,108.620,-39.463,12.503,16.410,12.112,-10.159,-3.126,-3.126
'[02:44:51.203 07/11/2076]',0.391,-12.503,-13.675,21.490,26.569,-40.635,-7.424,16.410,14.847,-9.768,1.954,92.991,20.317,-22.662,-3.516,106.276,-37.509,10.159,14.457,12.894,-5.079,-1.954,-3.516
'[02:44:51.207 07/11/2076]',-1.954,-11.331,-11.331,17.973,24.225,-38.291,-5.861,12.112,18.364,-10.159,4.689,58.217,17.973,-16.410,-3.126,73.455,-37.509,6.252,12.112,11.331,-1.172,0.781,-3.126
'[02:44:51.211 07/11/2076]',-1.954,-12.112,-8.596,15.629,25.788,-37.509,-6.252,10.159,21.099,-10.940,2.735,62.906,17.973,-12.894,-6.252,77.363,-35.946,2.344,9.377,11.331,0.781,5.079,-6.252
'[02:44:51.215 07/11/2076]',0.391,-16.410,-6.642,18.364,28.132,-39.463,-4.298,10.940,21.099,-12.503,7.814,83.223,22.271,-16.801,-6.642,100.806,-33.993,1.172,7.424,14.066,3.907,1.563,-6.642
'[02:44:51.219 07/11/2076]',-1.172,-16.410,-4.298,16.801,30.476,-43.370,-1.172,7.814,24.225,-13.675,10.549,55.092,20.317,-13.284,-5.470,74.237,-37.900,1.954,5.079,10.549,9.768,3.907,-5.470
'[02:44:51.223 07/11/2076]',-5.079,-14.457,-4.298,16.410,32.039,-48.840,2.344,5.861,27.350,-15.629,-0.391,40.635,15.238,-6.252,-6.252,48.840,-41.807,2.344,5.079,3.516,15.629,10.549,-6.252
'[02:44:51.227 07/11/2076]',-6.642,-16.801,-4.689,25.397,28.913,-55.092,8.205,12.894,22.271,-17.582,0.391,92.601,19.927,-14.847,-3.126,96.508,-41.416,10.159,5.470,2.344,20.317,7.814,-3.126
'[02:44:51.230 07/11/2076]',-8.987,-14.457,-0.781,23.443,26.178,-55.482,16.410,10.940,20.708,-21.099,7.424,103.932,22.662,-20.317,1.172,107.448,-44.151,18.755,1.563,0.391,23.834,4.689,1.172
'[02:44:51.234 07/11/2076]',-9.768,-5.079,0.781,16.410,28.523,-50.794,18.755,4.298,20.317,-26.569,4.689,67.204,14.066,-15.629,3.126,63.687,-50.794,20.317,0.000,-6.252,21.099,8.987,3.126
'[02:44:51.238 07/11/2076]',-8.205,0.000,2.735,14.457,29.304,-45.324,20.708,2.735,19.145,-31.258,0.391,60.171,9.768,-15.238,3.516,49.621,-56.264,25.397,-1.954,-9.377,14.066,11.722,3.516
'[02:44:51.242 07/11/2076]',0.781,1.563,7.033,14.457,32.821,-38.681,27.741,1.954,17.973,-32.821,21.880,82.833,21.880,-32.039,7.814,90.647,-51.966,38.681,-6.252,-1.563,8.987,-3.126,7.814
'[02:44:51.246 07/11/2076]',9.768,5.079,8.987,12.894,37.118,-32.039,30.476,0.781,18.364,-34.774,35.946,90.256,31.648,-42.979,10.549,110.574,-49.621,42.979,-8.205,1.172,6.642,-14.457,10.549
'[02:44:51.250 07/11/2076]',10.940,9.377,7.814,11.722,36.728,-28.913,27.741,4.689,21.490,-34.383,13.284,95.726,26.178,-34.383,6.252,98.071,-48.059,32.430,-7.033,-7.814,5.079,-5.079,6.252
'[02:44:51.254 07/11/2076]',12.894,11.331,7.033,12.503,35.946,-27.350,25.788,9.768,23.053,-32.821,-3.126,101.197,23.443,-30.867,5.470,89.475,-44.542,25.788,-6.252,-14.847,3.126,-0.391,5.470
'[02:44:51.258 07/11/2076]',17.582,12.894,8.205,6.252,37.900,-26.569,25.397,8.205,20.708,-31.258,14.066,77.753,24.615,-33.602,7.033,82.833,-40.635,24.225,-7.424,-10.159,1.172,-12.112,7.033
'[02:44:51.262 07/11/2076]',19.927,11.331,8.205,0.781,37.118,-26.569,21.880,8.205,18.364,-31.648,23.053,67.985,22.271,-33.211,7.033,80.879,-41.026,20.708,-7.424,-7.814,-3.126,-16.410,7.033
'[02:44:51.266 07/11/2076]',23.053,7.814,4.298,2.344,32.821,-25.788,16.020,15.238,14.847,-30.476,10.549,98.071,21.880,-33.602,5.470,99.243,-42.198,18.755,-3.516,-5.470,-12.112,-14.457,5.470
'[02:44:51.270 07/11/2076]',25.006,9.768,0.391,0.000,30.867,-25.006,13.675,14.847,10.549,-28.523,8.596,94.554,20.317,-32.821,4.689,92.991,-42.198,18.755,0.391,-5.861,-17.973,-15.238,4.689
'[02:44:51.273 07/11/2076]',26.960,12.894,-5.470,-3.516,30.476,-23.443,10.549,12.503,10.549,-27.350,6.642,67.204,15.238,-27.350,2.344,66.422,-41.807,15.238,6.252,-8.987,-24.615,-13.284,2.344
'[02:44:51.277 07/11/2076]',32.039,12.112,-9.768,-4.298,31.258,-21.490,6.642,12.112,10.549,-23.443,3.516,79.316,17.973,-29.304,-0.781,82.442,-37.509,12.503,10.549,-8.596,-31.648,-11.722,-0.781
'[02:44:51.281 07/11/2076]',35.946,10.159,-11.722,-4.689,33.211,-20.708,5.861,9.377,8.596,-20.317,10.159,91.038,21.880,-34.383,-1.563,103.150,-31.648,7.424,12.503,-6.252,-31.258,-16.020,-1.563
'[02:44:51.285 07/11/2076]',35.556,10.549,-12.112,-9.768,35.165,-21.099,4.689,4.298,10.549,-16.020,8.987,53.919,19.145,-28.132,-2.344,69.158,-29.695,1.172,12.894,-10.940,-23.053,-14.066,-2.344
'[02:44:51.289 07/11/2076]',31.648,9.377,-13.284,-7.814,32.039,-24.225,5.470,5.470,12.503,-9.377,-1.954,31.648,15.629,-19.536,-5.079,41.026,-25.397,-1.172,14.066,-17.973,-9.377,-6.252,-5.079
'[02:44:51.293 07/11/2076]',30.085,8.205,-10.940,-9.377,29.304,-20.708,6.252,2.735,13.675,-2.344,-7.033,57.827,21.880,-20.708,-4.689,65.641,-16.020,-1.954,11.722,-16.410,-2.735,-3.516,-4.689
'[02:44:51.297 07/11/2076]',30.476,9.377,-8.987,-10.549,28.913,-14.066,7.814,-3.126,16.410,2.344,0.000,62.515,29.304,-23.053,-3.516,79.707,-10.159,0.391,9.768,-10.159,-1.172,-4.298,-3.516
'[02:44:51.301 07/11/2076]',25.006,12.503,-10.159,-11.722,27.741,-7.424,4.689,-7.814,23.443,5.470,-11.722,22.662,22.662,-9.768,-7.424,35.556,-12.112,-5.079,10.940,-14.066,-0.391,8.596,-7.424
'[02:44:51.305 07/11/2076]',21.490,15.238,-9.768,-11.722,27.350,-4.689,4.689,-12.503,27.350,10.159,-21.880,4.689,21.099,0.781,-10.159,9.768,-11.331,-5.079,10.549,-16.410,2.735,19.927,-10.159
'[02:44:51.309 07/11/2076]',23.834,10.159,-7.033,-7.424,27.350,-1.172,9.377,-15.238,25.788,16.410,4.689,12.894,33.993,-7.033,-7.033,41.807,-5.079,7.424,7.814,-3.907,4.689,9.377,-7.033
'[02:44:51.313 07/11/2076]',23.053,9.377,-3.516,-3.516,26.960,2.344,13.284,-17.973,27.350,24.615,22.271,10.940,43.761,-6.252,-5.470,54.701,0.391,16.410,4.298,-0.781,12.112,8.205,-5.470
'[02:44:51.316 07/11/2076]',19.536,10.549,-3.516,0.000,24.615,5.861,13.284,-17.192,28.523,33.993,4.298,20.708,41.807,6.642,-6.642,47.668,4.689,16.020,4.298,-8.987,17.582,23.053,-6.642
'[02:44:51.320 07/11/2076]',18.364,9.768,-4.689,3.516,21.880,10.159,12.894,-18.755,28.913,40.244,-3.516,25.006,41.416,12.503,-6.252,44.542,11.331,21.490,5.470,-11.722,20.317,32.430,-6.252
'[02:44:51.324 07/11/2076]',16.801,8.596,-4.298,2.735,21.490,8.987,16.801,-23.834,25.788,46.496,14.847,-5.470,41.416,12.112,-1.172,30.085,11.722,29.304,5.079,-8.205,24.615,27.741,-1.172
'[02:44:51.328 07/11/2076]',16.020,7.814,-5.470,1.172,20.317,5.079,19.927,-26.178,22.271,49.621,23.834,-16.801,38.681,15.238,2.344,23.443,10.940,33.211,6.252,-6.642,28.523,28.132,2.344
'[02:44:51.332 07/11/2076]',16.801,5.079,-5.470,3.126,17.973,2.344,22.271,-23.053,19.145,51.184,22.662,8.205,41.416,14.847,1.172,45.714,10.159,41.807,6.252,-1.954,29.695,28.523,1.172
'[02:44:51.336 07/11/2076]',17.582,5.470,-3.516,2.344,15.629,2.735,25.006,-21.880,19.145,53.919,24.615,0.781,40.244,17.582,3.516,38.291,10.940,46.886,4.298,0.781,30.085,26.569,3.516
'[02:44:51.340 07/11/2076]',16.801,9.768,-3.907,6.252,11.722,5.861,25.006,-15.629,21.490,53.529,16.801,-16.410,35.946,25.006,2.344,13.675,12.894,46.886,4.689,-2.344,30.867,30.476,2.344
'[02:44:51.344 07/11/2076]',16.410,9.377,-3.126,10.549,6.252,7.033,27.350,-7.424,21.880,50.794,10.159,14.847,39.072,22.662,0.391,37.509,15.238,44.933,3.907,-1.954,29.304,31.648,0.391
'[02:44:51.348 07/11/2076]',16.410,8.205,-2.344,14.847,0.391,7.424,27.741,-0.391,20.317,45.324,14.457,33.993,41.026,16.410,0.781,57.045,14.066,41.026,3.126,0.391,30.867,26.569,0.781
'[02:44:51.352 07/11/2076]',8.987,11.331,-6.642,18.364,-5.079,1.954,27.741,7.033,17.582,39.463,6.642,-4.298,28.132,26.569,-0.391,6.252,3.907,33.602,7.424,-10.940,37.900,32.430,-0.391
'[02:44:51.355 07/11/2076]',4.298,14.847,-5.861,12.112,-8.987,-0.391,31.648,3.516,15.629,36.728,5.079,-18.364,22.662,31.258,0.391,-14.066,-1.172,33.602,6.642,-15.238,40.244,31.648,0.391
'[02:44:51.359 07/11/2076]',10.159,12.112,-5.861,12.503,-8.205,2.735,29.695,3.907,10.549,34.383,16.801,21.880,30.867,14.847,2.344,36.337,-2.735,42.589,6.642,-3.907,28.132,18.364,2.344
'[02:44:51.363 07/11/2076]',13.284,7.424,-7.814,16.801,-5.861,3.516,25.788,6.642,4.689,29.304,28.132,46.496,35.946,0.391,3.516,69.548,-7.424,45.714,8.596,6.252,14.457,7.033,3.516
'[02:44:51.367 07/11/2076]',10.549,8.596,-8.205,14.847,-5.470,2.344,21.880,6.252,1.563,24.615,13.675,33.211,26.178,4.689,1.954,41.807,-12.112,34.774,8.987,1.563,8.987,12.894,1.954
'[02:44:51.371 07/11/2076]',10.940,8.205,-11.331,16.410,-4.689,0.781,16.801,10.549,-0.781,19.927,-0.391,35.165,19.927,11.331,-2.735,26.569,-16.410,26.178,12.112,-1.954,4.298,21.490,-2.735
'[02:44:51.375 07/11/2076]',14.066,5.079,-11.722,18.364,-1.954,-3.126,18.364,13.284,-5.470,16.410,18.364,38.291,25.006,1.172,-0.391,43.370,-16.410,30.085,12.503,4.689,3.516,8.596,-0.391
'[02:44:51.379 07/11/2076]',16.410,5.470,-10.159,16.020,-0.391,-3.126,20.708,10.549,-4.298,14.457,33.602,30.476,28.132,1.954,1.172,43.370,-16.410,31.258,10.940,3.126,8.205,3.907,1.172
'[02:44:51.383 07/11/2076]',16.020,7.424,-14.066,18.755,0.391,-1.172,16.410,11.722,0.391,12.503,14.066,52.747,25.397,10.549,-1.563,47.277,-18.364,28.132,14.847,-1.563,5.861,13.675,-1.563
'[02:44:51.387 07/11/2076]',14.847,6.252,-16.410,22.271,0.391,1.172,12.503,12.894,4.298,10.159,3.126,60.171,26.960,9.768,-3.126,46.496,-20.708,29.695,17.192,-1.172,3.907,15.629,-3.126
'[02:44:51.391 07/11/2076]',11.722,6.252,-12.894,21.099,-1.563,3.516,14.457,9.768,6.252,8.987,13.675,30.476,24.225,10.940,-1.563,27.741,-21.880,30.476,13.675,0.391,7.033,12.503,-1.563
'[02:44:51.395 07/11/2076]',10.940,6.252,-8.596,19.927,-3.126,5.861,18.364,7.424,8.987,7.033,17.973,27.741,25.006,12.503,-4.298,30.867,-21.099,28.132,9.377,0.781,9.768,13.675,-4.298
'[02:44:51.398 07/11/2076]',11.722,2.735,-3.907,20.317,-3.907,7.814,19.145,7.424,8.205,5.470,18.755,46.886,30.085,2.735,-3.516,51.966,-20.317,29.695,4.689,6.642,8.205,9.377,-3.516
'[02:44:51.402 07/11/2076]',11.722,1.563,0.000,20.317,-3.126,7.424,20.317,7.814,8.596,4.298,19.536,29.304,28.913,-0.781,-1.563,37.900,-20.708,31.258,0.781,7.033,8.596,5.861,-1.563
'[02:44:51.406 07/11/2076]',10.549,3.126,1.172,21.880,-0.781,6.252,21.490,8.596,12.503,5.470,7.033,8.205,23.834,5.470,-5.470,10.940,-19.536,28.523,-0.391,0.391,12.894,10.549,-5.470
'[02:44:51.410 07/11/2076]',9.768,3.907,3.907,23.834,1.172,7.033,22.271,10.159,16.410,7.424,-1.172,37.118,28.913,0.000,-4.689,37.509,-17.582,32.430,-3.126,-2.344,14.847,10.549,-4.689
'[02:44:51.414 07/11/2076]',8.596,2.735,7.424,30.867,0.391,4.689,25.006,19.145,19.145,5.861,-4.298,58.608,32.430,-3.126,-7.033,59.389,-19.536,33.602,-6.642,-6.252,23.053,8.596,-7.033
'[02:44:51.418 07/11/2076]',2.344,9.768,12.894,22.271,-0.781,6.252,30.867,11.331,25.397,5.861,-8.596,8.987,25.788,8.596,-12.112,11.331,-24.225,30.867,-12.112,-13.284,33.211,14.066,-12.112
'[02:44:51.422 07/11/2076]',0.000,13.675,14.457,15.238,0.000,5.861,32.821,4.298,30.085,2.735,-14.847,-14.847,24.615,10.549,-17.192,-12.503,-29.695,33.602,-13.675,-16.020,34.383,17.192,-17.192
'[02:44:51.426 07/11/2076]',4.298,10.159,15.238,16.020,-0.391,8.596,32.430,5.079,26.178,0.781,0.000,14.847,35.946,-7.033,-20.317,35.556,-30.867,44.151,-14.457,-2.735,27.741,3.907,-20.317
'[02:44:51.430 07/11/2076]',7.033,10.940,13.284,11.331,0.000,10.549,31.258,0.391,21.099,0.391,11.722,17.192,41.416,-15.629,-24.615,51.575,-30.867,47.277,-12.503,4.689,23.443,-5.079,-24.615
'[02:44:51.434 07/11/2076]',5.079,14.457,7.424,5.861,-0.391,12.112,24.225,-3.126,17.582,1.954,-7.033,1.172,31.258,-5.079,-30.867,20.317,-34.383,40.244,-6.642,-3.907,19.536,4.298,-30.867
'[02:44:51.438 07/11/2076]',3.516,16.020,2.344,3.907,-3.516,12.112,18.755,-1.563,12.503,3.516,-24.225,0.781,24.225,0.000,-34.774,5.079,-35.165,34.774,-1.563,-9.377,16.020,8.987,-34.774
'[02:44:51.441 07/11/2076]',5.079,12.894,0.391,-0.781,-7.814,9.377,19.536,-4.298,3.907,7.033,-5.470,-15.238,25.788,-7.814,-35.165,8.596,-31.258,37.900,0.391,-1.954,16.801,-5.470,-35.165
'[02:44:51.445 07/11/2076]',3.907,10.940,-0.781,-8.205,-10.159,5.079,20.317,-9.377,-0.781,8.987,6.252,-30.085,25.397,-10.549,-33.211,3.516,-33.211,38.291,1.563,2.344,14.066,-11.331,-33.211
'[02:44:51.449 07/11/2076]',1.563,7.033,-3.516,-7.424,-14.847,2.344,14.847,-5.470,-4.689,10.159,-10.159,-4.298,24.225,-10.940,-35.946,14.457,-35.165,37.509,4.298,0.391,13.675,-6.642,-35.946
'[02:44:51.453 07/11/2076]',1.563,5.470,-4.298,-9.768,-16.410,0.391,12.112,-3.516,-8.596,11.722,-17.582,-0.781,22.271,-8.596,-37.900,9.768,-38.291,39.463,5.079,1.172,13.284,-6.252,-37.900
'[02:44:51.457 07/11/2076]',0.781,7.814,-3.516,-19.145,-14.847,-0.391,10.940,-8.987,-10.940,12.112,-10.159,-37.900,17.192,-1.954,-38.681,-21.490,-41.416,39.463,4.298,0.000,12.894,-6.252,-38.681
'[02:44:51.461 07/11/2076]',3.907,7.814,-4.298,-23.443,-11.722,0.391,6.642,-10.159,-9.768,10.159,-8.596,-34.774,17.192,-0.391,-41.026,-18.364,-43.761,35.946,5.079,0.391,9.377,-5.470,-41.026
'[02:44:51.465 07/11/2076]',7.033,3.516,-3.907,-23.053,-10.549,-1.563,3.907,-7.424,-10.940,5.861,-3.907,-12.894,23.053,-6.642,-42.589,5.861,-45.714,33.993,4.689,7.424,6.642,-11.331,-42.589
'[02:44:51.469 07/11/2076]',6.642,0.781,-5.470,-23.053,-10.940,-6.252,3.516,-7.033,-10.940,2.735,-1.563,-35.946,21.099,-4.689,-44.933,-16.410,-48.449,30.085,6.252,7.424,8.987,-12.503,-44.933
'[02:44:51.473 07/11/2076]',3.516,-2.735,-5.470,-21.099,-14.066,-10.159,3.907,-5.079,-9.768,0.391,-11.722,-50.403,16.020,3.126,-47.277,-42.979,-49.621,26.960,6.252,3.516,15.238,-7.033,-47.277
'[02:44:51.477 07/11/2076]',2.344,-9.768,-5.861,-10.940,-18.364,-15.238,5.079,3.516,-13.284,-1.954,-11.722,0.391,20.317,-1.954,-46.105,1.172,-45.714,32.430,6.642,5.079,17.973,-7.424,-46.105
'[02:44:51.480 07/11/2076]',1.563,-11.722,-3.907,-11.331,-19.927,-16.801,8.205,2.735,-16.020,-2.344,-4.689,7.424,21.099,-1.172,-44.933,9.768,-44.542,35.556,4.689,6.642,19.927,-7.814,-44.933
'[02:44:51.484 07/11/2076]',-0.391,-10.159,-4.689,-16.020,-19.145,-17.192,7.424,-3.126,-15.629,-5.861,-6.252,-32.821,8.205,8.987,-42.979,-34.774,-50.012,33.211,5.470,4.298,15.238,-1.563,-42.979
'[02:44:51.488 07/11/2076]',-2.344,-8.987,-9.377,-14.457,-18.364,-18.364,3.516,-1.954,-17.192,-10.159,-10.549,-41.416,1.954,12.894,-41.026,-52.747,-56.654,35.556,10.159,4.298,6.642,3.907,-41.026
'[02:44:51.492 07/11/2076]',0.391,-14.066,-8.987,-11.722,-17.582,-20.708,4.689,-1.172,-23.443,-8.596,10.159,-14.066,9.377,0.391,-35.165,-9.377,-56.264,44.933,9.768,17.192,1.172,-8.596,-35.165
'[02:44:51.496 07/11/2076]',0.781,-18.755,-7.424,-10.549,-17.973,-21.880,5.861,-1.954,-28.132,-10.549,27.350,-0.781,11.722,-5.861,-29.695,12.112,-54.310,48.449,8.205,24.615,0.000,-17.192,-29.695
'[02:44:51.500 07/11/2076]',-5.470,-16.801,-9.377,-7.424,-21.490,-20.317,1.563,0.391,-29.695,-12.894,10.159,4.298,3.126,4.298,-30.867,-3.516,-53.529,38.291,10.159,16.410,1.563,-3.516,-30.867
'[02:44:51.504 07/11/2076]',-9.768,-16.020,-9.768,-3.516,-24.225,-19.536,0.391,3.126,-32.821,-11.331,-1.172,10.940,-1.954,9.377,-29.304,-11.722,-48.059,32.821,10.549,11.331,5.470,2.344,-29.304
'[02:44:51.508 07/11/2076]',-7.814,-15.238,-8.596,-4.298,-24.225,-16.020,3.126,0.391,-36.728,-12.503,18.755,-4.689,0.391,3.907,-26.178,-12.894,-40.244,33.602,9.377,17.582,7.424,-10.159,-26.178
'[02:44:51.512 07/11/2076]',-6.642,-14.457,-7.814,-3.516,-24.225,-13.284,3.516,0.391,-41.416,-14.066,29.695,-8.987,1.172,1.172,-24.225,-12.503,-37.118,28.913,8.596,21.490,6.642,-14.847,-24.225
'[02:44:51.516 07/11/2076]',-6.642,-16.801,-10.159,2.735,-26.569,-13.284,0.391,8.596,-46.886,-13.284,15.629,27.741,1.172,0.391,-26.569,7.814,-33.602,22.271,10.940,20.708,7.424,-12.894,-26.569
'[02:44:51.520 07/11/2076]',-7.424,-16.410,-8.987,1.172,-30.085,-10.940,-0.391,9.768,-48.449,-13.675,9.377,33.211,0.391,0.781,-27.741,6.642,-30.085,16.801,9.768,21.490,5.861,-13.284,-27.741
'[02:44:51.523 07/11/2076]',-9.768,-12.503,-7.033,-5.470,-32.039,-5.470,-3.516,5.470,-47.668,-14.066,6.252,8.987,-5.079,1.954,-27.741,-16.020,-25.397,5.861,7.814,21.490,0.391,-12.112,-27.741
'[02:44:51.527 07/11/2076]',-7.814,-10.940,-7.033,-9.768,-32.821,0.000,-7.814,4.298,-47.277,-12.894,0.000,23.834,-7.033,-3.126,-24.225,-1.563,-17.582,-3.907,7.814,20.708,-5.861,-13.675,-24.225
'[02:44:51.531 07/11/2076]',-4.298,-10.549,-6.642,-14.066,-33.211,3.516,-9.377,1.172,-46.105,-14.066,3.126,41.416,-5.470,-9.377,-19.536,19.927,-13.675,-10.549,7.424,20.708,-10.549,-20.317,-19.536
'[02:44:51.535 07/11/2076]',-1.172,-6.252,-5.861,-21.490,-30.476,5.079,-8.987,-3.126,-40.244,-16.020,1.563,11.331,-10.159,-5.861,-16.410,-9.377,-13.675,-18.364,6.642,16.020,-12.503,-20.708,-16.410
'[02:44:51.539 07/11/2076]',-0.781,-3.907,-7.033,-20.317,-29.304,2.344,-7.424,0.781,-37.118,-17.582,-7.424,-1.563,-18.755,3.907,-14.847,-33.993,-15.238,-20.317,7.814,5.470,-8.596,-14.847,-14.847
'[02:44:51.543 07/11/2076]',4.689,-1.954,-3.907,-21.099,-25.397,2.344,-3.907,3.126,-32.039,-16.020,-4.689,31.258,-9.377,2.735,-13.284,-0.781,-12.112,-15.629,4.689,4.689,-9.377,-14.847,-13.284
'[02:44:51.547 07/11/2076]',12.112,-0.781,-1.954,-20.317,-17.192,5.861,-3.516,2.735,-25.397,-15.629,1.954,46.886,0.391,-2.344,-12.894,23.053,-10.159,-10.940,2.735,7.424,-15.238,-14.847,-12.894
'[02:44:51.551 07/11/2076]',14.457,1.172,-1.563,-19.145,-8.205,7.424,-7.814,3.516,-17.582,-16.410,-5.470,12.112,-4.298,1.954,-12.112,-12.112,-13.284,-16.410,2.344,3.907,-21.490,-8.205,-12.112
'[02:44:51.555 07/11/2076]',15.629,3.126,-3.516,-17.973,-0.391,8.205,-12.112,0.000,-9.377,-14.847,-16.410,-1.563,-5.861,4.298,-10.549,-30.476,-12.503,-19.536,4.298,-0.391,-22.271,-1.954,-10.549
'[02:44:51.559 07/11/2076]',19.927,-2.344,-3.126,-12.112,5.470,7.814,-9.768,-2.735,-5.861,-12.112,3.907,12.112,3.907,-12.894,-1.954,10.159,-4.689,-10.549,3.907,10.159,-25.788,-16.410,-1.954
'[02:44:51.563 07/11/2076]',21.880,-4.689,-2.344,-8.205,10.159,8.205,-7.814,-6.252,-1.954,-9.768,21.490,10.549,7.424,-21.880,6.642,27.741,0.000,-7.033,3.126,15.238,-26.178,-23.443,6.642
'[02:44:51.566 07/11/2076]',19.536,-3.907,-4.689,-4.689,11.331,7.814,-7.424,-7.033,2.344,-3.126,3.126,14.066,-0.781,-9.377,10.159,17.192,3.126,-6.642,5.470,5.861,-25.788,-9.377,10.159
'[02:44:51.570 07/11/2076]',19.145,-5.079,-4.298,-2.735,12.503,7.033,-3.516,-8.987,5.861,2.735,-4.298,16.410,-2.735,-4.689,15.238,13.284,10.159,-1.563,5.079,1.563,-28.523,-0.391,15.238
'[02:44:51.574 07/11/2076]',20.708,-6.252,-1.172,-2.344,14.457,8.596,1.172,-14.066,6.642,6.642,17.582,-12.503,-0.781,-5.861,21.099,4.298,15.238,8.596,1.954,5.470,-28.132,-6.642,21.099
'[02:44:51.578 07/11/2076]',19.145,-7.814,1.563,-3.907,14.066,8.596,5.079,-19.536,5.861,7.814,28.913,-23.053,-0.781,-5.470,24.225,2.344,20.317,12.112,-0.781,5.470,-26.569,-6.252,24.225
'[02:44:51.582 07/11/2076]',16.801,-10.940,3.126,-0.391,14.847,8.987,8.205,-24.225,4.689,6.252,27.741,7.424,3.126,-10.549,27.741,26.569,24.225,14.847,-2.344,7.033,-26.178,-6.642,27.741
'[02:44:51.586 07/11/2076]',14.457,-13.675,6.252,2.735,15.238,10.549,9.768,-26.960,3.516,3.516,33.602,9.377,6.252,-16.410,31.258,29.304,24.225,21.490,-5.470,12.503,-24.615,-12.112,31.258
'[02:44:51.590 07/11/2076]',7.814,-13.284,7.424,6.252,12.503,7.424,11.331,-25.006,0.781,1.954,28.523,-4.298,-0.781,-11.331,30.085,9.377,20.317,24.615,-6.642,10.159,-21.099,-10.159,30.085
'[02:44:51.594 07/11/2076]',2.344,-13.675,10.549,10.159,7.033,2.735,18.364,-19.927,-1.954,1.954,23.443,25.006,-1.563,-9.768,29.304,30.476,18.755,29.304,-9.768,10.549,-17.973,-8.596,29.304
'[02:44:51.598 07/11/2076]',0.000,-16.020,15.629,14.066,0.781,-0.391,25.006,-12.894,-5.861,0.391,30.085,46.496,1.172,-11.331,25.788,54.310,18.364,32.039,-14.847,13.284,-12.503,-11.722,25.788
'[02:44:51.602 07/11/2076]',-8.205,-15.238,17.582,10.940,-7.424,-6.252,26.960,-7.424,-10.940,-2.735,19.927,11.722,-11.331,1.954,19.145,7.033,13.284,22.662,-16.801,5.861,-2.344,-5.079,19.145
'[02:44:51.605 07/11/2076]',-11.722,-10.940,20.708,1.563,-12.112,-7.814,30.476,-10.549,-10.159,-4.689,15.238,-4.689,-13.675,10.159,15.238,-17.582,13.284,14.457,-19.927,1.563,3.126,-1.954,15.238
'[02:44:51.609 07/11/2076]',-5.079,-12.503,21.099,-1.563,-10.159,-3.516,25.788,-10.940,-10.940,-9.377,19.927,38.291,0.000,-5.470,11.331,30.867,15.238,14.457,-20.317,14.066,-2.735,-14.066,11.331
'[02:44:51.613 07/11/2076]',-0.781,-14.847,19.536,-4.298,-8.987,-1.563,17.973,-8.596,-12.112,-17.192,22.662,60.171,9.377,-22.271,4.298,60.562,9.377,8.205,-18.755,23.834,-8.987,-25.006,4.298
'[02:44:51.617 07/11/2076]',-1.954,-8.205,14.847,-8.987,-8.987,-0.391,10.940,-7.424,-7.033,-23.053,0.391,40.244,4.298,-18.364,-5.470,28.913,1.954,-6.642,-14.066,16.801,-10.940,-19.536,-5.470
'[02:44:51.621 07/11/2076]',-1.954,-5.079,8.987,-8.205,-8.987,-2.344,6.642,-2.344,-5.079,-28.523,-21.490,34.383,-0.781,-18.364,-14.457,12.112,-1.563,-16.410,-8.205,10.940,-15.238,-14.066,-14.457
'[02:44:51.625 07/11/2076]',4.298,-7.424,6.252,-7.033,-7.814,-2.344,5.861,0.000,-7.424,-31.648,-7.814,38.681,3.516,-34.383,-16.410,37.900,0.391,-18.364,-5.470,17.582,-18.364,-29.695,-16.410
'[02:44:51.629 07/11/2076]',10.159,-10.159,6.252,-11.722,-3.907,-2.735,3.516,-1.954,-6.642,-33.602,0.781,29.304,4.689,-41.416,-16.801,43.370,3.907,-25.006,-5.470,19.536,-20.317,-36.728,-16.801
'[02:44:51.633 07/11/2076]',12.503,-13.284,0.781,-10.549,0.391,-4.298,-6.252,-0.391,-2.344,-35.165,-23.834,43.761,-2.344,-39.072,-22.271,44.933,1.172,-37.118,0.000,14.847,-28.523,-26.178,-22.271
'[02:44:51.637 07/11/2076]',15.238,-19.145,-3.516,-9.768,5.079,-7.814,-16.020,0.391,2.344,-40.244,-39.463,48.059,-8.205,-41.026,-25.006,45.324,-0.391,-45.324,4.298,14.847,-35.946,-23.053,-25.006
'[02:44:51.641 07/11/2076]',15.629,-25.006,-3.907,-14.847,8.205,-12.894,-19.145,-4.298,4.298,-41.026,-32.039,14.066,-14.457,-44.151,-24.225,29.304,-3.126,-51.966,4.689,16.801,-39.072,-26.569,-24.225
'[02:44:51.645 07/11/2076]',14.847,-26.960,-5.079,-16.801,9.377,-16.020,-19.536,-8.596,6.642,-40.244,-30.476,5.079,-19.536,-46.496,-22.662,30.085,-2.344,-58.217,5.861,16.020,-45.324,-26.178,-22.662
'[02:44:51.648 07/11/2076]',17.192,-30.867,-5.470,-15.238,11.722,-14.457,-20.317,-12.503,6.252,-37.900,-29.304,25.006,-19.145,-53.529,-18.364,55.092,2.344,-56.654,6.252,19.145,-52.747,-28.523,-18.364
'[02:44:51.652 07/11/2076]',16.801,-33.211,-3.907,-14.847,16.020,-14.066,-21.099,-16.410,3.907,-30.085,-26.569,9.377,-22.662,-51.966,-12.503,44.151,6.252,-55.482,4.689,17.192,-53.138,-28.132,-12.503
'[02:44:51.656 07/11/2076]',12.112,-32.039,-2.735,-12.503,19.145,-15.629,-21.490,-17.973,4.689,-23.834,-31.648,-11.331,-29.695,-41.026,-7.814,15.629,8.596,-53.138,3.516,9.377,-50.403,-17.582,-7.814
'[02:44:51.660 07/11/2076]',9.377,-33.993,-1.954,-6.642,23.443,-16.410,-22.662,-18.364,3.907,-17.973,-30.085,16.410,-28.523,-36.728,-3.126,40.635,11.722,-46.496,2.735,6.642,-45.324,-11.331,-3.126
'[02:44:51.664 07/11/2076]',2.735,-39.463,1.954,0.391,22.271,-22.271,-19.927,-14.066,2.344,-16.020,-23.053,34.383,-28.913,-31.648,1.172,56.264,11.722,-40.635,-1.172,2.735,-34.383,-5.861,1.172
'[02:44:51.668 07/11/2076]',-5.470,-34.774,6.252,-3.907,18.364,-21.099,-12.112,-23.834,2.344,-12.894,-12.503,-8.205,-31.648,-19.145,4.689,14.457,12.894,-39.463,-5.470,-2.344,-23.834,0.391,4.689
'[02:44:51.672 07/11/2076]',-9.377,-30.085,7.814,-9.768,17.582,-16.020,-9.377,-33.993,2.344,-10.549,-8.205,-31.258,-32.430,-12.112,7.424,-10.159,14.066,-30.867,-7.033,-5.470,-19.927,4.689,7.424
'[02:44:51.676 07/11/2076]',-4.689,-30.867,8.987,-8.205,18.755,-10.940,-7.424,-35.165,-3.126,-9.377,9.377,10.159,-17.973,-26.960,12.112,39.072,18.755,-17.973,-8.205,6.642,-27.350,-7.424,12.112
'[02:44:51.680 07/11/2076]',-2.735,-27.741,11.331,-6.642,17.582,-5.079,-4.689,-34.774,-10.549,-8.987,27.350,26.960,-10.159,-36.337,17.192,63.687,21.490,-10.159,-10.549,12.503,-30.867,-16.020,17.192
'[02:44:51.684 07/11/2076]',-6.252,-19.145,11.722,-5.861,15.238,-1.954,-4.298,-28.523,-13.284,-11.331,11.331,21.880,-20.317,-23.443,16.410,34.774,17.582,-14.066,-10.940,3.126,-33.993,-5.079,16.410
'[02:44:51.688 07/11/2076]',-10.549,-13.675,14.847,0.391,11.331,-3.126,0.391,-17.192,-15.629,-14.066,-2.344,30.085,-28.523,-13.284,16.020,22.662,16.020,-15.629,-14.066,-4.689,-33.602,3.516,16.020
'[02:44:51.691 07/11/2076]',-11.722,-8.987,21.880,4.298,3.516,-1.954,12.894,-9.768,-20.317,-16.020,22.271,30.476,-22.271,-19.927,17.973,40.244,20.317,-7.033,-21.099,0.781,-31.258,-8.596,17.973
'[02:44:51.695 07/11/2076]',-9.768,-3.126,27.741,1.563,0.391,-0.391,22.271,-6.252,-19.536,-20.317,37.509,25.788,-17.582,-23.053,19.536,44.542,20.317,-1.563,-26.960,1.954,-29.695,-14.457,19.536
'[02:44:51.699 07/11/2076]',-8.205,-1.172,27.350,3.126,-2.735,0.391,22.271,1.172,-15.238,-26.178,19.927,57.827,-15.629,-22.271,12.503,60.562,16.801,-2.735,-26.569,-1.172,-29.304,-8.987,12.503
'[02:44:51.703 07/11/2076]',-3.907,0.391,25.788,1.563,-5.079,0.781,21.490,6.642,-11.331,-30.867,10.159,69.548,-10.159,-26.960,7.814,65.641,14.457,-2.735,-25.006,-2.344,-27.350,-11.331,7.814
'[02:44:51.707 07/11/2076]',0.781,3.126,24.615,-5.470,-4.298,2.344,19.536,5.470,-5.470,-36.337,14.457,39.463,-8.205,-28.523,4.689,42.979,10.159,-4.298,-23.834,-2.344,-26.569,-14.847,4.689
'[02:44:51.711 07/11/2076]',7.814,2.735,22.271,-8.596,-0.781,4.689,12.503,6.642,1.172,-39.853,11.722,40.635,-4.689,-31.648,1.172,48.059,7.814,-12.894,-21.490,0.000,-27.741,-16.410,1.172
'[02:44:51.715 07/11/2076]',14.457,-0.781,18.755,-5.861,1.954,3.516,4.298,14.847,4.298,-41.026,7.814,62.906,3.126,-43.370,0.391,73.455,4.689,-18.364,-17.973,6.252,-28.523,-24.225,0.391
'[02:44:51.719 07/11/2076]',17.582,-3.907,15.238,-3.907,5.079,-2.344,0.391,20.317,6.252,-40.244,6.642,36.337,0.781,-43.761,0.781,51.575,1.954,-26.569,-14.457,6.252,-23.443,-26.178,0.781
'[02:44:51.723 07/11/2076]',17.973,-8.205,10.159,-1.954,8.205,-10.940,-3.126,23.053,10.549,-38.681,-8.205,16.410,-4.689,-38.681,0.391,23.834,-1.563,-32.430,-9.377,4.298,-20.317,-20.708,0.391
'[02:44:51.727 07/11/2076]',20.317,-16.801,7.033,6.642,11.331,-22.271,-2.344,30.085,10.159,-35.946,-12.503,62.515,-1.563,-45.714,1.563,69.158,-0.391,-33.602,-6.252,3.907,-16.020,-21.880,1.563
'[02:44:51.730 07/11/2076]',19.536,-20.708,7.424,9.377,14.066,-27.741,1.954,26.178,10.549,-31.258,-7.814,64.469,-2.735,-44.933,7.033,76.972,2.735,-34.774,-6.642,2.344,-12.894,-20.708,7.033
'[02:44:51.734 07/11/2076]',17.192,-20.317,5.470,5.861,19.927,-26.178,0.000,14.847,14.847,-26.960,-10.940,19.536,-13.284,-33.602,9.768,32.821,0.391,-38.291,-4.689,0.391,-15.629,-13.675,9.768
'[02:44:51.738 07/11/2076]',14.066,-21.099,2.344,10.159,23.443,-23.834,-6.252,11.722,15.238,-20.708,-18.755,1.563,-22.271,-26.178,12.503,13.284,0.000,-39.853,-1.563,-0.781,-21.880,-4.298,12.503
'[02:44:51.742 07/11/2076]',14.066,-27.741,0.781,17.582,25.788,-23.053,-8.205,10.549,8.205,-12.112,3.126,19.536,-17.192,-32.821,19.536,49.621,5.470,-28.132,0.000,9.768,-26.178,-14.066,19.536
'[02:44:51.746 07/11/2076]',12.894,-32.821,-1.563,21.880,23.443,-20.708,-9.768,6.642,-0.781,-6.642,24.615,23.443,-17.582,-32.821,24.615,66.032,7.424,-19.536,2.344,19.536,-28.132,-20.317,24.615
'[02:44:51.750 07/11/2076]',3.126,-32.821,-5.861,23.834,17.973,-21.099,-12.503,4.298,-9.377,-2.344,12.894,20.317,-31.258,-14.066,24.225,41.416,3.907,-22.271,6.642,14.457,-29.304,-6.642,24.225
'[02:44:51.754 07/11/2076]',-5.079,-32.039,-9.377,25.006,11.722,-21.490,-12.503,-0.391,-18.755,-0.781,9.768,24.615,-40.244,-3.126,27.741,29.695,4.298,-21.490,10.159,10.549,-29.304,-1.954,27.741
'[02:44:51.758 07/11/2076]',-7.814,-31.648,-8.596,17.192,6.252,-17.582,-6.252,-13.675,-26.178,0.391,35.165,9.377,-38.291,-5.079,32.821,28.913,8.205,-12.503,9.377,18.755,-31.648,-14.847,32.821
'[02:44:51.762 07/11/2076]',-12.503,-28.913,-5.079,10.549,2.344,-14.066,-0.391,-23.443,-28.523,0.391,48.840,7.814,-36.337,-5.861,35.165,35.165,11.331,-7.814,5.861,20.708,-34.383,-19.145,35.165
'[02:44:51.766 07/11/2076]',-18.364,-25.788,-3.126,12.112,-3.907,-10.549,1.954,-21.880,-25.006,-0.391,33.211,42.198,-32.430,-6.642,34.774,52.747,14.066,-6.252,3.907,17.582,-38.681,-13.675,34.774
'[02:44:51.770 07/11/2076]',-23.443,-19.145,0.781,10.940,-10.549,-5.470,8.596,-21.880,-17.192,-2.344,22.662,46.496,-28.523,-6.642,34.383,50.012,17.973,-5.079,0.000,14.457,-37.900,-12.112,34.383
'[02:44:51.773 07/11/2076]',-27.741,-10.549,5.470,7.033,-19.536,1.563,16.020,-22.271,-8.987,-5.861,18.364,22.271,-26.569,-4.689,31.648,23.834,17.192,-5.470,-4.689,14.457,-35.946,-9.768,31.648
'[02:44:51.777 07/11/2076]',-27.350,-3.907,8.987,9.377,-25.397,8.596,20.708,-16.020,-1.954,-10.549,13.675,38.291,-19.145,-9.768,29.304,37.118,20.317,-7.033,-8.205,14.066,-31.258,-10.159,29.304
'[02:44:51.781 07/11/2076]',-22.662,0.000,12.894,10.159,-30.867,16.020,26.178,-11.331,3.907,-16.410,14.847,58.999,-7.424,-18.364,25.006,61.734,23.053,-6.642,-12.112,14.066,-24.225,-15.238,25.006
'[02:44:51.785 07/11/2076]',-17.192,1.954,14.847,4.298,-32.039,20.317,28.523,-12.112,11.331,-20.317,12.503,31.258,-3.516,-17.973,18.755,36.728,21.880,-9.377,-14.066,10.159,-15.238,-15.629,18.755
'[02:44:51.789 07/11/2076]',-14.847,2.344,13.675,5.079,-31.648,17.582,27.741,-5.861,17.582,-24.615,0.391,19.927,-5.079,-16.410,14.847,19.145,23.834,-11.722,-12.894,2.344,-4.298,-15.238,14.847
'[02:44:51.793 07/11/2076]',-8.205,1.172,11.722,4.298,-27.350,16.410,24.615,-3.907,26.178,-30.085,-8.987,47.668,-2.344,-20.317,13.284,43.761,23.834,-17.582,-10.940,-0.391,-3.907,-13.675,13.284
'[02:44:51.797 07/11/2076]',-0.391,-1.172,8.596,1.954,-19.927,17.582,16.410,-4.298,34.383,-35.946,-10.159,60.952,1.172,-32.039,13.675,65.250,19.145,-24.225,-7.814,5.079,-9.377,-18.755,13.675
'[02:44:51.801 07/11/2076]',1.954,-1.172,2.735,0.391,-11.331,15.238,4.689,-3.126,42.979,-44.151,-26.178,24.615,-10.940,-29.695,11.722,25.397,8.596,-39.463,-1.954,3.126,-16.410,-13.675,11.722
'[02:44:51.805 07/11/2076]',4.689,-3.907,-2.735,1.172,-3.126,8.987,-4.298,-1.954,53.529,-49.621,-45.714,7.814,-18.755,-27.350,8.205,3.516,2.735,-53.138,3.516,-0.781,-21.490,-4.298,8.205
'[02:44:51.809 07/11/2076]',10.940,-13.284,-4.689,3.516,4.298,0.000,-7.033,-1.172,53.138,-48.840,-28.132,21.880,-10.159,-44.151,8.205,42.979,4.689,-52.747,5.470,10.940,-26.569,-17.582,8.205
'[02:44:51.813 07/11/2076]',13.284,-23.443,-7.814,4.689,10.549,-11.722,-9.768,-0.781,49.231,-47.277,-11.331,21.099,-10.159,-52.357,12.894,60.171,4.298,-51.966,8.596,17.973,-28.913,-25.397,12.894
'[02:44:51.816 07/11/2076]',8.205,-27.350,-14.066,9.377,11.331,-23.834,-14.066,2.344,40.244,-42.589,-24.615,22.271,-25.397,-36.337,13.284,43.761,1.563,-57.436,14.847,9.377,-29.304,-12.503,13.284
'[02:44:51.820 07/11/2076]',4.689,-31.648,-16.410,13.675,11.331,-32.039,-13.675,3.907,25.788,-33.993,-21.880,28.523,-35.556,-26.178,19.536,39.072,1.172,-49.621,17.192,6.642,-32.430,-6.642,19.536
'[02:44:51.824 07/11/2076]',3.907,-34.774,-16.410,14.066,8.987,-35.946,-9.377,3.516,3.516,-24.225,10.940,9.377,-42.589,-20.317,30.476,32.430,0.000,-30.867,17.192,13.675,-37.118,-16.801,30.476
'[02:44:51.828 07/11/2076]',1.563,-33.993,-14.457,13.675,6.642,-39.072,-2.735,1.954,-14.847,-17.973,34.774,8.987,-47.668,-11.722,37.509,31.648,-0.781,-17.973,15.238,12.894,-40.635,-20.708,37.509
'[02:44:51.832 07/11/2076]',0.391,-36.337,-14.066,15.238,3.516,-41.416,0.000,2.344,-33.993,-12.894,40.635,47.277,-48.449,-7.814,40.635,55.873,-2.735,-5.470,14.847,17.582,-50.012,-22.271,40.635
'[02:44:51.836 07/11/2076]',-3.126,-34.774,-15.238,12.503,0.391,-43.370,1.172,0.781,-50.012,-12.112,49.231,54.310,-50.794,-4.689,41.026,53.919,-5.079,2.735,16.020,21.490,-60.171,-26.569,41.026
'[02:44:51.840 07/11/2076]',-12.503,-30.476,-16.020,10.549,-6.252,-46.496,2.344,1.954,-60.171,-14.847,48.840,39.463,-59.389,4.689,39.463,25.397,-9.768,4.298,16.801,17.582,-63.687,-25.397,39.463
'[02:44:51.844 07/11/2076]',-16.801,-26.960,-14.066,10.549,-13.675,-45.714,5.470,6.252,-68.767,-13.284,45.714,66.813,-58.608,8.987,38.291,39.463,-9.377,4.689,14.847,15.629,-64.860,-24.615,38.291
'[02:44:51.848 07/11/2076]',-20.708,-21.880,-7.033,12.894,-21.490,-40.635,13.675,11.331,-70.720,-14.066,51.966,90.647,-51.184,9.377,38.681,59.389,-5.861,8.205,7.814,16.410,-61.734,-28.523,38.681
'[02:44:51.852 07/11/2076]',-28.132,-8.596,-0.391,15.238,-32.039,-32.821,24.225,17.973,-65.250,-12.894,42.198,56.264,-52.357,23.053,39.072,9.768,-2.735,6.642,1.172,1.954,-47.668,-21.880,39.072
'[02:44:51.855 07/11/2076]',-30.476,2.735,9.377,12.894,-38.291,-20.317,36.337,17.973,-54.701,-7.814,39.072,42.979,-44.542,25.788,39.853,-3.907,6.252,6.252,-8.596,-3.126,-36.728,-21.099,39.853
'[02:44:51.859 07/11/2076]',-25.788,10.549,14.847,16.801,-41.807,-3.516,41.807,21.490,-42.198,-9.768,42.198,80.488,-24.615,8.596,38.291,46.886,16.801,11.331,-14.066,6.252,-40.635,-29.304,38.291
'[02:44:51.863 07/11/2076]',-22.662,13.284,16.801,19.536,-43.761,5.861,41.416,24.225,-29.695,-14.847,42.979,96.508,-12.112,-11.331,35.556,80.879,20.708,6.642,-16.020,14.457,-43.761,-37.900,35.556
'[02:44:51.867 07/11/2076]',-24.615,19.536,16.410,13.675,-46.496,14.457,35.556,22.271,-13.284,-19.927,19.145,63.687,-15.629,-10.549,27.350,46.496,18.364,-12.503,-15.629,7.033,-41.807,-29.695,27.350
'[02:44:51.871 07/11/2076]',-21.880,22.662,15.238,8.987,-44.933,19.145,28.913,22.271,1.172,-24.225,-8.205,48.840,-16.410,-11.722,20.317,24.225,15.238,-24.225,-14.457,2.344,-40.635,-21.099,20.317
'[02:44:51.875 07/11/2076]',-12.112,21.099,14.457,7.814,-41.416,21.880,26.178,24.615,11.722,-25.397,-3.516,48.059,-3.126,-29.695,18.755,44.542,19.536,-26.960,-13.675,9.377,-38.291,-31.258,18.755
'[02:44:51.879 07/11/2076]',-2.344,22.662,15.238,0.391,-34.774,26.960,20.317,24.225,25.788,-21.490,-3.907,33.993,8.205,-37.900,18.755,44.151,23.053,-37.118,-14.457,9.377,-32.039,-33.993,18.755
'[02:44:51.883 07/11/2076]',4.298,25.006,12.503,1.563,-26.178,29.304,7.814,33.602,41.807,-15.629,-33.602,41.026,11.331,-33.211,16.410,37.118,27.741,-51.966,-11.722,3.126,-29.304,-19.145,16.410
'[02:44:51.887 07/11/2076]',9.768,23.053,7.814,5.861,-16.410,25.788,-3.516,42.198,54.310,-12.112,-53.529,37.900,10.940,-32.430,17.192,29.304,32.430,-66.813,-7.033,0.781,-28.132,-9.377,17.192
'[02:44:51.891 07/11/2076]',12.503,19.145,7.424,4.298,-4.689,20.708,-12.503,41.416,63.687,-8.205,-44.933,-0.781,8.205,-30.867,20.708,9.377,35.556,-80.879,-6.642,0.781,-21.880,-7.814,20.708
'[02:44:51.895 07/11/2076]',16.410,14.457,7.424,1.172,7.424,15.629,-17.582,35.556,69.158,-3.126,-38.291,-16.801,3.516,-26.569,27.350,5.470,38.291,-91.429,-6.642,0.391,-19.927,-1.563,27.350
'[02:44:51.898 07/11/2076]',20.317,4.689,5.861,5.861,18.364,10.159,-22.662,31.258,66.813,1.563,-36.337,0.391,0.000,-28.132,33.993,26.178,40.244,-95.726,-5.079,3.126,-21.490,0.391,33.993
'[02:44:51.902 07/11/2076]',21.099,-5.470,5.861,9.377,28.132,3.907,-26.178,25.397,59.389,10.549,-32.821,-13.284,-10.549,-21.099,42.979,12.894,37.509,-94.164,-5.079,3.907,-22.271,4.298,42.979
'[02:44:51.906 07/11/2076]',17.192,-12.503,6.642,14.457,33.602,-2.735,-25.397,20.317,47.668,23.834,-31.648,-33.211,-27.350,-3.907,51.575,-13.675,37.118,-89.866,-5.861,-2.344,-20.317,13.284,51.575
'[02:44:51.910 07/11/2076]',11.722,-18.755,8.205,24.615,36.728,-8.987,-21.880,20.708,31.258,38.291,-23.053,-4.298,-35.165,6.642,60.562,9.768,39.463,-77.363,-7.424,-3.907,-20.317,17.973,60.562
'[02:44:51.914 07/11/2076]',0.000,-24.615,13.284,34.774,31.648,-17.973,-12.503,24.225,12.503,46.886,-11.331,12.894,-46.496,20.317,67.204,20.317,34.383,-62.515,-12.503,-9.768,-15.238,22.662,67.204
'[02:44:51.918 07/11/2076]',-10.549,-19.927,22.271,29.304,25.006,-18.755,0.000,15.629,0.391,53.529,11.331,-22.662,-53.138,33.993,71.893,-9.768,32.821,-44.933,-21.490,-14.066,-9.768,22.271,71.893
'[02:44:51.922 07/11/2076]',-19.536,-12.503,27.741,24.225,18.364,-16.020,11.331,5.861,-6.252,53.529,20.317,-43.761,-57.827,45.714,73.455,-37.118,30.085,-26.569,-26.960,-17.582,-10.940,25.006,73.455
'[02:44:51.926 07/11/2076]',-23.834,-11.722,32.430,27.741,8.596,-11.331,20.708,5.861,-13.675,48.059,40.244,0.781,-44.542,32.821,73.065,13.675,29.695,-3.516,-31.648,-5.079,-18.755,14.066,73.065
'[02:44:51.930 07/11/2076]',-30.085,-7.814,39.072,25.788,-1.172,-5.470,30.476,2.735,-18.364,43.370,57.045,19.927,-33.993,24.615,73.065,37.900,30.085,13.675,-38.291,2.735,-19.145,5.079,73.065
'[02:44:51.934 07/11/2076]',-41.026,2.735,40.244,22.271,-11.722,-0.391,35.556,0.781,-16.801,38.291,37.900,6.642,-38.681,37.118,67.204,0.391,24.225,15.238,-39.463,-5.079,-17.192,17.192,67.204
'[02:44:51.938 07/11/2076]',-49.621,12.112,41.807,18.364,-23.834,4.689,41.026,1.563,-14.066,34.774,20.708,5.861,-38.291,45.714,58.999,-19.536,20.708,21.490,-41.026,-12.894,-13.284,27.350,58.999
'[02:44:51.941 07/11/2076]',-49.231,17.582,46.105,10.159,-32.430,10.159,51.966,-2.735,-14.847,34.383,36.337,3.126,-24.615,35.165,54.310,-6.252,24.225,33.211,-45.324,-7.033,-6.642,12.503,54.310
'[02:44:51.945 07/11/2076]',-42.979,24.225,47.668,-0.781,-34.383,18.364,55.482,-10.940,-9.377,32.039,44.542,-9.377,-11.331,28.913,47.277,-8.205,28.132,37.118,-46.886,-5.861,-2.344,6.252,47.277
'[02:44:51.949 07/11/2076]',-37.118,28.913,42.198,-4.689,-35.165,26.178,51.184,-11.722,-1.954,30.867,19.145,11.331,-3.516,28.132,35.556,-1.563,30.085,29.695,-41.416,-10.549,0.000,11.331,35.556
'[02:44:51.953 07/11/2076]',-30.476,32.430,38.291,-7.033,-33.211,31.258,47.668,-11.722,3.516,29.695,1.563,19.536,5.470,22.662,26.960,-0.391,33.602,24.615,-37.509,-11.331,3.126,10.549,26.960
'[02:44:51.957 07/11/2076]',-21.490,38.291,35.556,-15.629,-26.569,34.774,44.542,-16.020,13.675,27.741,-0.781,-17.582,10.940,18.755,20.708,-28.523,34.774,19.536,-34.774,-14.457,9.377,8.205,20.708
'[02:44:51.961 07/11/2076]',-12.894,43.761,33.211,-23.053,-19.536,38.681,39.463,-17.973,26.178,23.443,-8.205,-24.615,19.145,10.549,15.238,-28.132,33.602,10.549,-32.430,-15.238,10.940,7.033,15.238
'[02:44:51.965 07/11/2076]',-3.516,41.416,29.695,-23.053,-12.503,37.509,32.821,-12.112,38.681,14.457,-16.410,-3.907,32.430,-7.033,9.377,-2.735,31.648,1.172,-28.913,-10.940,11.722,2.344,9.377
'[02:44:51.969 07/11/2076]',0.781,39.463,23.834,-23.834,-5.470,29.695,23.053,-6.642,51.966,2.735,-27.350,-28.132,36.337,-15.629,2.735,-25.006,27.350,-13.284,-23.053,-11.722,19.536,1.563,2.735
'[02:44:51.973 07/11/2076]',2.344,34.774,14.066,-24.225,-0.391,21.880,10.159,-3.516,60.171,-8.596,-43.761,-47.277,32.821,-14.847,-4.298,-53.138,21.099,-32.039,-13.284,-14.066,25.788,8.205,-4.298
'[02:44:51.977 07/11/2076]',5.079,22.271,5.470,-14.847,0.781,10.159,-0.781,7.814,55.092,-16.020,-41.416,-1.563,36.337,-21.099,-6.252,-13.675,20.708,-44.151,-4.689,-9.377,32.430,8.205,-6.252
'[02:44:51.980 07/11/2076]',7.814,14.457,-0.781,-14.457,3.516,2.344,-8.987,9.377,41.026,-19.145,-33.211,8.596,30.476,-15.238,-8.987,-8.596,20.708,-50.794,1.563,-5.470,35.946,10.159,-8.987
'[02:44:51.984 07/11/2076]',8.205,12.112,-4.689,-23.443,5.861,0.391,-16.020,1.172,21.099,-15.238,-20.317,-33.211,12.503,3.907,-7.814,-56.654,15.238,-52.747,5.470,-3.516,33.211,14.457,-7.814
'[02:44:51.988 07/11/2076]',10.940,7.814,-9.768,-23.053,8.205,0.391,-21.490,-0.391,-2.344,-7.033,-9.377,-47.277,-2.735,19.145,-4.298,-79.316,11.331,-46.886,10.549,0.391,23.053,16.801,-4.298
'[02:44:51.992 07/11/2076]',14.457,-1.172,-12.112,-18.364,9.377,-3.516,-22.271,-0.781,-29.304,2.344,17.973,-13.284,-4.689,17.192,0.781,-36.337,12.503,-30.867,12.894,14.457,11.331,2.735,0.781
'[02:44:51.996 07/11/2076]',16.020,-7.033,-12.894,-16.410,9.768,-5.861,-21.880,-1.954,-51.184,11.331,41.807,1.172,-8.205,21.490,2.735,-12.894,12.112,-20.708,13.675,21.490,4.298,-7.033,2.735
'[02:44:52.000 07/11/2076]',10.159,-8.205,-14.066,-12.112,5.470,-8.205,-24.225,1.954,-65.250,17.973,28.523,7.424,-21.880,40.244,0.391,-30.867,7.033,-22.271,14.847,14.457,-2.344,0.391,0.391
'[02:44:52.004 07/11/2076]',3.516,-8.596,-12.894,-7.814,-1.954,-8.987,-23.834,7.814,-75.018,19.927,16.020,17.973,-29.695,51.966,-3.126,-39.463,7.033,-22.662,13.675,8.205,-5.861,5.079,-3.126
'[02:44:52.008 07/11/2076]',2.735,-4.689,-5.079,-10.549,-7.033,-2.735,-16.020,7.814,-81.270,23.834,33.993,11.722,-23.443,48.840,-5.470,-30.867,12.503,-12.503,5.861,12.503,-8.596,-9.377,-5.470
'[02:44:52.012 07/11/2076]',1.954,0.781,3.907,-11.722,-11.722,3.907,-7.033,9.377,-81.661,23.053,46.105,13.675,-17.973,45.714,-7.033,-19.927,13.284,-7.424,-3.126,14.847,-11.722,-19.536,-7.033
'[02:44:52.016 07/11/2076]',0.000,5.861,8.205,-5.470,-17.192,8.987,-2.344,18.755,-75.800,21.099,26.178,51.184,-11.331,41.026,-9.377,1.954,15.629,-8.205,-7.424,9.377,-14.457,-19.536,-9.377
'[02:44:52.020 07/11/2076]',-1.563,11.331,14.066,-2.344,-19.927,14.847,3.907,22.662,-63.687,19.927,11.331,61.343,-5.470,41.026,-15.238,9.377,19.145,-8.596,-13.284,4.298,-12.112,-18.755,-15.238
'[02:44:52.023 07/11/2076]',-1.172,18.755,17.192,-3.126,-20.708,22.662,9.377,20.317,-43.761,15.629,4.298,37.118,-1.954,37.900,-17.973,-4.689,19.927,-11.331,-16.410,0.391,-14.066,-19.145,-17.973
'[02:44:52.027 07/11/2076]',-1.563,23.834,19.145,-1.954,-21.490,27.741,12.894,20.708,-21.490,10.940,-5.861,43.761,6.252,27.741,-20.708,13.675,25.397,-16.410,-18.364,-1.954,-15.238,-19.145,-20.708
'[02:44:52.031 07/11/2076]',0.391,28.523,21.099,0.391,-22.271,34.383,17.192,21.099,0.000,7.033,-12.503,53.529,18.755,13.675,-23.053,39.072,29.304,-17.582,-20.317,-3.126,-10.940,-20.708,-23.053
'[02:44:52.035 07/11/2076]',1.563,35.946,23.053,-1.954,-21.099,40.244,21.099,18.755,20.708,6.252,-21.099,19.927,25.397,7.424,-25.397,19.145,33.211,-20.708,-22.271,-8.205,0.000,-18.364,-25.397
'[02:44:52.039 07/11/2076]',0.000,39.853,25.397,0.391,-20.317,37.118,24.615,23.834,41.416,4.298,-35.165,-3.126,32.430,0.391,-26.960,2.344,37.509,-25.006,-24.615,-16.020,16.801,-12.503,-26.960
'[02:44:52.043 07/11/2076]',3.516,41.807,26.569,1.954,-16.410,40.244,25.006,25.397,64.078,-0.391,-50.403,23.834,46.105,-8.596,-27.741,27.741,42.198,-28.132,-25.788,-19.145,28.523,-3.907,-27.741
'[02:44:52.047 07/11/2076]',10.549,39.853,26.960,0.781,-9.377,44.151,22.662,21.490,89.084,-9.377,-53.919,30.085,59.780,-22.662,-28.132,46.886,41.807,-31.258,-26.178,-13.284,32.430,-0.391,-28.132
'[02:44:52.051 07/11/2076]',11.331,41.416,22.662,-2.344,-1.563,44.151,16.410,14.847,112.527,-24.615,-64.469,-14.847,57.436,-26.178,-28.523,4.298,33.602,-41.807,-21.880,-15.238,35.556,10.159,-28.523
'[02:44:52.055 07/11/2076]',12.894,41.416,16.410,-3.516,4.689,43.370,9.768,8.596,130.501,-40.635,-76.190,-39.853,55.092,-28.132,-28.523,-25.397,23.443,-46.496,-15.629,-18.364,37.509,21.490,-28.523
'[02:44:52.059 07/11/2076]',19.536,31.258,11.331,0.000,12.894,37.118,7.033,5.079,128.938,-51.575,-50.012,-29.695,60.171,-45.324,-25.788,7.814,19.145,-38.681,-10.549,-4.298,38.291,11.331,-25.788
'[02:44:52.063 07/11/2076]',23.053,22.271,7.033,0.781,20.317,27.350,3.907,1.954,115.653,-57.436,-24.225,-30.867,57.436,-54.310,-20.317,19.927,14.066,-31.648,-6.252,1.563,42.198,5.861,-20.317
'[02:44:52.066 07/11/2076]',18.755,19.145,0.000,3.516,25.397,17.582,-1.172,0.000,96.508,-54.701,-31.258,-31.648,36.728,-36.728,-18.364,-2.735,6.252,-33.211,0.781,-6.642,45.714,18.364,-18.364
'[02:44:52.070 07/11/2076]',16.410,13.675,-3.516,3.516,30.476,8.596,-4.689,-3.516,72.674,-46.886,-30.867,-27.741,18.364,-20.317,-15.238,-15.629,1.172,-27.741,4.298,-10.940,43.370,27.741,-15.238
'[02:44:52.074 07/11/2076]',15.238,10.159,-4.689,1.563,33.993,2.735,-2.344,-10.549,47.668,-34.774,-1.954,-44.151,8.205,-13.675,-6.252,-22.271,0.781,-12.894,5.470,-5.861,39.463,18.364,-6.252
'[02:44:52.078 07/11/2076]',12.894,7.814,-6.642,0.391,34.774,-0.781,-2.344,-17.192,26.569,-22.271,14.066,-47.277,0.391,-1.563,-1.563,-25.006,-1.954,-5.470,7.424,-7.033,36.337,16.410,-1.563
'[02:44:52.082 07/11/2076]',10.549,3.126,-7.033,2.344,31.648,-3.907,-1.563,-15.629,10.549,-9.768,10.549,-10.940,-2.735,7.814,-1.954,-3.126,-3.907,3.126,7.814,-3.907,26.960,19.145,-1.954
'[02:44:52.086 07/11/2076]',9.377,0.391,-5.470,4.689,26.960,-4.689,0.391,-13.675,-1.954,1.954,14.847,-3.516,-2.735,14.847,1.954,-3.516,-4.298,14.066,6.252,0.391,19.145,15.238,1.954
'[02:44:52.090 07/11/2076]',3.907,1.172,-2.735,3.907,20.708,-5.079,2.735,-12.112,-10.159,12.112,12.112,-19.145,-7.814,29.304,3.907,-30.867,-5.861,19.927,3.516,-1.172,14.066,17.582,3.907
'[02:44:52.094 07/11/2076]',0.391,5.079,2.344,3.516,13.675,-1.954,7.814,-7.033,-16.020,21.880,10.940,8.205,-3.516,37.509,6.252,-16.410,-2.735,25.788,-1.563,-2.735,8.987,17.192,6.252
'[02:44:52.098 07/11/2076]',-0.781,9.768,10.549,1.954,5.470,2.735,16.801,-3.516,-19.536,27.741,19.536,32.039,3.907,39.463,11.331,3.907,1.172,35.946,-9.768,-4.689,7.424,11.331,11.331
'[02:44:52.102 07/11/2076]',-4.689,17.192,16.020,-0.781,-1.563,7.424,23.443,-0.781,-18.364,33.993,6.252,7.424,1.563,51.966,12.503,-37.118,3.516,37.509,-15.238,-19.536,10.940,16.410,12.503
'[02:44:52.105 07/11/2076]',-2.735,28.523,21.490,-7.424,-4.689,18.755,29.695,-3.516,-12.503,41.026,4.298,-7.814,5.861,57.827,8.987,-48.059,7.814,41.416,-20.708,-24.615,9.768,16.020,8.987
'[02:44:52.109 07/11/2076]',5.079,34.774,27.350,-8.205,-4.689,31.648,37.118,-3.516,-3.516,46.496,5.470,30.476,23.834,42.979,8.596,1.563,16.801,52.357,-26.569,-20.317,1.563,7.033,8.596
'[02:44:52.113 07/11/2076]',12.503,38.291,28.913,-6.642,-3.126,44.933,34.774,-2.344,7.814,44.933,3.516,51.966,37.509,24.225,6.252,38.681,20.317,51.575,-28.132,-13.284,-7.033,-1.954,6.252
'[02:44:52.117 07/11/2076]',13.284,47.277,26.960,-13.675,-1.172,53.138,28.132,-5.470,25.788,37.118,-17.192,21.099,37.509,21.490,0.391,6.642,17.192,31.648,-26.178,-18.364,-7.424,1.954,0.391
'[02:44:52.121 07/11/2076]',12.503,53.138,23.443,-17.192,-1.172,56.654,18.755,-1.172,43.370,23.834,-43.370,7.814,38.681,15.629,-4.689,-17.192,15.629,12.112,-22.662,-25.397,-4.298,7.033,-4.689
'[02:44:52.125 07/11/2076]',15.629,50.403,20.317,-16.801,-1.172,54.701,9.768,5.861,56.654,8.205,-39.072,16.020,50.403,-8.596,-8.205,8.205,18.364,-3.516,-19.536,-17.582,0.391,-3.126,-8.205
'[02:44:52.129 07/11/2076]',19.927,46.886,17.582,-19.536,2.344,51.966,0.391,9.768,73.065,-9.768,-36.728,7.424,60.171,-24.225,-14.457,12.503,16.410,-24.225,-16.801,-13.284,10.159,-7.424,-14.457
'[02:44:52.133 07/11/2076]',16.020,45.324,12.112,-16.410,2.735,51.575,-13.675,16.801,87.912,-29.304,-63.687,12.894,58.217,-28.523,-25.788,3.516,9.768,-45.714,-11.331,-16.410,17.192,5.079,-25.788
'[02:44:52.137 07/11/2076]',15.629,39.072,5.861,-7.424,4.689,46.496,-21.099,22.271,93.773,-43.761,-77.753,17.582,54.701,-34.383,-31.258,-0.391,3.907,-57.436,-5.079,-15.238,23.053,12.112,-31.258
'[02:44:52.141 07/11/2076]',13.675,30.867,3.516,-5.470,6.642,41.026,-22.662,17.582,84.396,-52.747,-56.264,-10.549,47.668,-39.463,-31.258,-12.503,-2.735,-58.999,-2.735,-5.861,32.430,5.079,-31.258
'[02:44:52.145 07/11/2076]',14.457,24.615,0.000,-6.252,9.377,36.337,-23.053,9.768,63.687,-50.403,-33.602,-22.662,39.853,-39.072,-27.350,-16.020,-5.079,-56.654,0.781,-1.172,38.291,1.172,-27.350
'[02:44:52.148 07/11/2076]',16.020,14.847,-5.079,0.391,12.503,30.085,-23.834,7.033,30.867,-34.774,-17.582,2.735,31.648,-34.383,-22.271,6.252,-3.907,-48.059,5.861,6.642,35.556,1.172,-22.271
'[02:44:52.152 07/11/2076]',17.973,5.470,-12.112,7.424,17.582,20.708,-26.178,6.252,-4.298,-13.675,-2.344,1.563,20.317,-19.536,-16.410,-3.126,0.000,-37.118,12.894,9.768,34.774,3.126,-16.410
'[02:44:52.156 07/11/2076]',16.410,-0.781,-18.364,11.722,19.927,10.159,-28.913,7.424,-35.946,11.722,3.126,-13.284,5.861,7.033,-14.457,-32.430,5.470,-27.350,19.145,6.642,36.337,12.894,-14.457
'[02:44:52.160 07/11/2076]',17.973,-7.814,-20.708,20.317,23.834,2.344,-27.741,10.159,-59.389,39.072,9.768,17.582,5.470,25.788,-10.159,-13.675,16.020,-17.973,21.490,6.252,35.946,18.364,-10.159
'[02:44:52.164 07/11/2076]',17.582,-16.410,-20.708,30.867,26.178,-6.252,-28.523,19.927,-75.018,58.217,10.159,44.542,5.079,43.761,-8.987,-1.563,23.834,-14.457,21.490,3.126,38.291,23.443,-8.987
'[02:44:52.168 07/11/2076]',16.410,-16.020,-11.722,25.788,29.695,-9.377,-20.317,14.066,-76.972,69.939,26.960,9.768,4.298,58.608,-3.516,-29.304,30.476,-9.377,12.503,0.781,42.979,20.317,-3.516
'[02:44:52.172 07/11/2076]',18.755,-13.284,-1.172,20.708,36.728,-6.252,-12.112,6.252,-64.860,73.846,31.648,-11.722,9.768,67.985,0.391,-50.012,33.211,-3.126,1.954,-1.954,35.946,23.053,0.391
'[02:44:52.176 07/11/2076]',27.350,-14.847,4.298,25.397,46.105,-3.126,-6.642,6.642,-51.575,71.502,44.151,32.821,26.178,53.919,5.470,10.159,36.337,10.159,-3.516,7.033,16.410,16.020,5.470
'[02:44:52.180 07/11/2076]',34.774,-14.457,10.549,25.006,53.529,-0.391,1.172,1.172,-33.211,66.032,57.045,48.840,38.681,44.933,11.722,43.370,35.556,23.443,-9.768,11.722,4.298,8.596,11.722
'[02:44:52.184 07/11/2076]',34.774,-7.814,10.549,20.708,58.608,2.735,1.954,-4.298,-6.252,61.734,32.039,28.913,38.291,55.482,7.033,14.457,29.695,20.708,-9.768,0.000,-0.781,22.662,7.033
'[02:44:52.188 07/11/2076]',32.821,-1.954,9.768,17.582,58.608,3.907,3.907,-7.424,17.973,57.436,2.344,21.880,38.681,59.780,2.344,0.391,24.615,19.536,-8.987,-11.331,-5.470,33.211,2.344
'[02:44:52.191 07/11/2076]',34.774,0.781,12.503,11.331,57.436,7.424,8.205,-11.331,38.291,48.840,10.159,20.317,50.012,41.026,0.391,27.350,25.006,23.053,-11.722,-7.033,-5.079,17.582,0.391
'[02:44:52.195 07/11/2076]',35.165,6.252,17.192,1.563,53.529,11.722,11.331,-15.629,64.078,33.602,14.066,6.642,60.952,25.006,-1.172,35.556,20.317,19.927,-16.410,-6.252,-5.079,10.159,-1.172
'[02:44:52.199 07/11/2076]',28.913,11.331,12.503,3.126,42.979,13.284,7.814,-7.033,90.256,16.410,-16.020,26.178,64.469,14.457,-7.033,45.714,11.331,6.642,-11.722,-10.940,-7.814,18.364,-7.033
'[02:44:52.203 07/11/2076]',24.615,14.457,8.596,5.079,33.602,14.066,6.252,-0.391,114.481,-0.391,-35.946,26.178,68.376,1.563,-8.596,42.979,3.907,-1.954,-7.814,-12.894,-3.126,22.662,-8.596
'[02:44:52.207 07/11/2076]',19.927,17.973,6.642,4.689,23.834,16.410,6.642,2.344,137.534,-17.582,-37.118,-14.066,71.502,-8.987,-7.424,13.284,-3.126,-7.424,-5.861,-12.112,3.907,23.443,-7.424
'[02:44:52.211 07/11/2076]',16.801,20.708,2.344,6.252,17.192,19.927,5.079,4.689,156.288,-33.993,-42.198,-25.006,74.237,-18.364,-8.987,7.814,-10.549,-14.457,-1.563,-10.549,10.159,27.350,-8.987
'[02:44:52.215 07/11/2076]',16.410,17.582,-1.172,12.503,12.894,21.490,0.391,10.940,161.368,-48.840,-44.151,-7.814,76.581,-35.556,-7.814,26.960,-19.145,-15.629,1.954,-4.689,15.629,25.006,-7.814
'[02:44:52.219 07/11/2076]',14.847,14.847,-5.079,15.629,10.159,18.755,-4.298,15.629,158.242,-64.078,-41.807,-24.615,69.548,-41.416,-10.159,8.596,-30.476,-19.536,5.861,-3.126,26.178,24.225,-10.159
'[02:44:52.223 07/11/2076]',10.159,13.675,-14.066,18.755,8.987,12.503,-12.503,18.755,148.474,-74.628,-48.059,-42.589,54.310,-36.728,-14.066,-21.490,-42.979,-24.615,14.847,-4.689,35.946,29.695,-14.066
'[02:44:52.227 07/11/2076]',7.814,3.907,-20.708,26.178,7.033,3.126,-19.145,25.788,127.766,-79.707,-37.118,-2.735,48.840,-40.244,-15.238,14.847,-50.794,-25.788,21.490,-1.954,48.840,27.741,-15.238
'[02:44:52.230 07/11/2076]',7.424,-1.563,-25.006,27.741,8.205,-0.391,-23.443,23.834,107.839,-79.707,-35.165,7.424,38.291,-34.383,-17.192,14.066,-56.264,-25.006,25.788,0.781,56.654,27.350,-17.192
'[02:44:52.234 07/11/2076]',5.861,-2.344,-27.741,21.880,12.503,-1.563,-28.132,14.066,91.429,-76.581,-29.304,-39.072,22.271,-16.410,-15.238,-44.151,-62.906,-25.006,28.523,1.172,60.952,31.258,-15.238
'[02:44:52.238 07/11/2076]',5.861,-5.861,-33.993,23.834,16.020,-2.344,-33.602,10.549,69.939,-70.720,-25.006,-55.873,9.768,-5.861,-12.503,-71.893,-68.376,-21.880,34.774,3.516,56.264,33.993,-12.503
'[02:44:52.242 07/11/2076]',10.940,-15.629,-33.602,30.867,20.708,-5.470,-35.165,12.112,44.542,-58.217,-6.252,-21.099,11.331,-9.377,-5.861,-37.118,-62.515,-11.722,34.383,17.582,50.403,22.662,-5.861
'[02:44:52.246 07/11/2076]',11.722,-24.615,-32.039,37.900,25.006,-8.987,-39.072,14.847,20.317,-45.714,14.457,-5.861,8.596,-7.814,0.391,-18.364,-58.608,-5.861,32.821,27.350,45.714,15.629,0.391
'[02:44:52.250 07/11/2076]',5.470,-29.304,-32.039,44.542,29.304,-14.066,-43.370,16.801,0.781,-32.039,3.516,-7.424,-8.987,10.159,1.954,-39.853,-56.264,-13.284,32.821,20.708,41.416,25.006,1.954
'[02:44:52.254 07/11/2076]',2.344,-35.165,-26.960,49.231,35.165,-19.145,-42.979,15.629,-14.066,-17.192,-7.814,-1.954,-23.443,25.006,3.907,-47.668,-49.621,-15.629,27.741,14.457,36.728,32.430,3.907
'[02:44:52.258 07/11/2076]',3.126,-41.807,-20.317,49.231,42.979,-23.053,-36.728,6.642,-27.350,-5.470,17.973,-8.596,-26.178,21.490,9.768,-30.867,-39.463,-4.298,21.099,22.271,30.476,16.020,9.768
'[02:44:52.262 07/11/2076]',4.298,-46.105,-15.238,46.105,47.668,-26.569,-28.523,-2.735,-36.728,3.516,35.556,-12.112,-29.304,19.145,14.457,-15.238,-33.602,0.781,16.020,25.397,23.443,7.033,14.457
'[02:44:52.266 07/11/2076]',4.689,-48.059,-12.503,45.714,46.886,-28.913,-25.397,-2.735,-43.761,12.112,19.145,22.271,-33.602,20.317,12.503,10.549,-29.304,1.563,13.284,19.927,16.410,9.377,12.503
'[02:44:52.270 07/11/2076]',3.126,-47.668,-9.377,40.635,41.026,-28.132,-23.443,-2.735,-44.933,15.238,7.033,32.821,-35.946,19.145,10.159,17.192,-26.960,3.907,10.159,18.364,10.940,7.033,10.159
'[02:44:52.273 07/11/2076]',0.781,-42.979,-3.907,31.648,31.648,-22.271,-17.973,-5.861,-41.807,18.755,3.516,5.470,-37.900,16.020,6.642,0.781,-27.350,0.781,4.689,16.410,3.516,5.470,6.642
'[02:44:52.277 07/11/2076]',0.000,-37.900,1.954,26.178,20.708,-14.847,-11.722,-2.344,-33.211,14.847,-1.563,14.457,-33.993,5.079,2.735,20.317,-25.788,-3.516,-1.172,14.066,-1.172,1.954,2.735
'[02:44:52.281 07/11/2076]',-1.954,-32.430,8.205,23.053,6.642,-6.642,-4.689,1.172,-22.271,7.033,-5.470,31.258,-24.615,-13.675,-0.781,48.840,-23.834,-7.033,-7.424,14.847,-1.954,-6.252,-0.781
'[02:44:52.285 07/11/2076]',-4.689,-23.443,13.675,17.192,-3.907,0.000,3.126,3.126,-6.642,-3.126,-8.596,4.689,-19.536,-24.615,-4.689,34.774,-24.225,-13.284,-12.894,10.159,2.344,-10.549,-4.689
'[02:44:52.289 07/11/2076]',-11.331,-16.410,17.582,16.410,-16.801,0.391,10.940,11.331,8.596,-16.020,-17.973,-9.768,-16.801,-34.774,-7.033,23.053,-25.788,-19.927,-16.801,3.516,13.284,-14.066,-7.033
'[02:44:52.293 07/11/2076]',-10.549,-12.894,19.927,13.675,-21.099,2.344,11.331,16.410,24.615,-30.476,-34.383,23.053,-9.377,-42.589,-10.159,44.542,-28.913,-25.397,-19.145,0.391,17.192,-10.940,-10.159
'[02:44:52.297 07/11/2076]',-5.470,-12.112,21.099,8.987,-19.927,6.252,8.205,16.020,41.026,-48.449,-31.258,36.728,1.563,-55.482,-10.940,63.297,-35.946,-27.741,-20.317,4.298,16.020,-13.675,-10.940
'[02:44:52.301 07/11/2076]',-3.516,-10.549,19.536,7.033,-14.847,6.642,3.907,16.410,53.919,-63.687,-37.118,-1.172,-1.172,-54.701,-13.284,21.490,-50.794,-35.556,-18.755,3.126,15.238,-8.205,-13.284
'[02:44:52.305 07/11/2076]',-1.563,-11.331,15.238,7.814,-7.033,6.252,-3.516,15.629,62.906,-75.409,-48.840,-16.020,-2.344,-50.403,-19.145,-4.689,-61.343,-37.900,-14.457,2.735,17.192,1.172,-19.145
'[02:44:52.309 07/11/2076]',4.298,-17.582,10.940,14.847,1.563,2.344,-8.987,18.364,60.171,-83.223,-26.960,5.861,8.205,-63.687,-21.880,33.211,-64.078,-30.085,-10.159,15.629,22.662,-9.768,-21.880
'[02:44:52.313 07/11/2076]',7.424,-24.225,5.861,19.927,11.722,-4.689,-16.801,20.317,53.138,-87.131,-12.503,12.503,13.284,-67.985,-25.006,46.886,-71.111,-26.178,-5.079,23.834,30.867,-16.020,-25.006
'[02:44:52.316 07/11/2076]',4.298,-27.741,-1.954,21.880,19.927,-15.629,-28.132,20.708,44.542,-89.084,-31.258,12.112,3.516,-51.184,-32.430,16.801,-80.879,-32.430,2.735,17.582,41.026,-2.344,-32.430
'[02:44:52.320 07/11/2076]',3.907,-32.430,-10.159,20.708,28.913,-26.569,-38.291,18.364,31.258,-87.912,-41.026,14.066,-2.735,-38.681,-34.774,-5.470,-88.303,-33.993,10.940,13.675,45.324,6.252,-34.774
'[02:44:52.324 07/11/2076]',8.596,-39.463,-16.020,16.410,38.681,-36.728,-42.589,9.768,12.894,-80.488,-19.536,-6.252,-2.735,-36.728,-31.648,-20.708,-93.382,-24.225,16.801,21.490,48.059,-4.689,-31.648
'[02:44:52.328 07/11/2076]',11.331,-46.886,-18.755,10.159,47.277,-48.059,-45.324,2.344,-3.907,-68.767,-4.298,-17.582,-3.907,-28.913,-28.913,-32.821,-96.117,-19.927,19.536,25.006,51.184,-7.424,-28.913
'[02:44:52.332 07/11/2076]',13.284,-55.482,-24.615,10.549,55.092,-56.264,-53.138,-1.563,-17.973,-53.138,-9.377,8.205,-1.954,-21.099,-28.523,-20.317,-93.773,-17.192,25.397,29.304,47.668,-5.079,-28.523
'[02:44:52.336 07/11/2076]',14.457,-62.515,-27.741,11.331,64.469,-65.641,-55.873,-6.252,-26.569,-36.728,-6.252,8.596,0.781,-13.675,-25.788,-22.662,-91.429,-11.331,28.523,35.165,42.589,-5.861,-25.788
'[02:44:52.340 07/11/2076]',11.722,-65.250,-28.913,13.675,71.502,-75.800,-54.701,-8.987,-27.350,-22.271,-3.516,-13.284,-1.172,0.391,-19.927,-46.496,-87.912,-5.861,29.695,32.039,39.853,-1.172,-19.927
'[02:44:52.344 07/11/2076]',10.940,-67.595,-28.523,18.755,77.363,-82.442,-50.012,-10.940,-23.443,-7.033,-2.344,3.907,2.735,7.424,-10.940,-29.304,-80.488,0.391,29.304,29.304,31.258,5.079,-10.940
'[02:44:52.348 07/11/2076]',8.596,-68.376,-24.225,22.271,77.753,-88.303,-41.026,-9.377,-16.410,3.516,7.033,24.225,11.722,8.205,0.391,-1.954,-73.846,12.503,25.006,30.867,23.443,3.126,0.391
'[02:44:52.352 07/11/2076]',0.391,-67.985,-20.317,24.615,70.330,-97.680,-31.258,-4.298,-4.298,8.987,-3.516,-0.781,7.033,18.755,10.549,-37.900,-72.674,17.192,21.099,19.927,25.397,9.377,10.549
'[02:44:52.355 07/11/2076]',-5.861,-62.125,-14.066,17.973,63.297,-99.243,-22.271,-4.689,9.377,10.940,-1.954,-17.192,7.814,23.053,16.020,-46.886,-69.548,18.755,14.847,17.973,18.755,10.549,16.020
'[02:44:52.359 07/11/2076]',-7.424,-59.780,-6.642,12.894,51.184,-95.336,-14.457,-2.735,22.271,6.642,1.563,27.350,20.317,8.596,21.099,7.814,-66.032,24.615,7.424,28.132,5.470,0.000,21.099
'[02:44:52.363 07/11/2076]',-7.424,-57.045,-3.907,11.722,39.853,-89.866,-11.722,5.470,33.602,-3.516,5.079,51.184,26.178,-5.079,22.271,42.589,-67.985,22.271,4.689,34.383,-8.596,-7.424,22.271
'[02:44:52.367 07/11/2076]',-8.987,-47.668,-3.516,1.563,27.741,-83.614,-10.940,7.033,47.277,-16.801,-7.033,21.099,18.364,-3.126,19.927,8.205,-75.018,10.549,4.298,27.741,-16.410,-3.126,19.927
'[02:44:52.371 07/11/2076]',-12.503,-39.072,-6.252,-8.596,12.894,-78.144,-10.940,9.377,58.217,-32.821,-26.960,8.987,12.112,-3.516,15.238,-17.192,-81.661,0.391,7.033,21.490,-21.490,1.172,15.238
'[02:44:52.375 07/11/2076]',-7.033,-39.072,-8.205,-13.284,0.391,-74.237,-7.814,12.894,62.906,-49.231,-15.238,21.880,20.317,-25.006,16.410,7.424,-83.614,-0.391,8.987,29.304,-22.662,-13.284,16.410
'[02:44:52.379 07/11/2076]',-3.516,-34.774,-10.940,-21.099,-7.033,-69.548,-6.642,11.722,67.204,-63.687,-5.079,16.801,25.788,-37.509,16.020,10.159,-87.131,-0.391,11.722,30.476,-17.582,-21.490,16.020
'[02:44:52.383 07/11/2076]',-4.689,-29.304,-17.192,-21.490,-14.847,-63.297,-8.987,14.847,68.376,-73.846,-22.271,26.178,21.490,-32.821,12.503,-3.126,-92.210,-6.252,17.973,25.006,-12.894,-12.503,12.503
'[02:44:52.387 07/11/2076]',-2.344,-28.913,-24.615,-16.020,-20.317,-59.389,-12.503,19.927,60.171,-79.707,-31.258,35.946,18.364,-29.304,8.987,-13.675,-95.336,-5.079,25.397,23.834,-8.987,-5.079,8.987
'[02:44:52.391 07/11/2076]',-0.391,-28.913,-29.695,-16.020,-21.880,-57.045,-15.238,18.755,42.198,-78.926,-8.596,10.159,15.238,-27.350,9.768,-32.821,-96.508,1.172,30.476,28.132,-2.344,-12.503,9.768
'[02:44:52.395 07/11/2076]',3.516,-30.867,-34.774,-20.317,-21.490,-53.529,-20.317,12.112,22.271,-74.237,8.987,1.172,15.238,-23.443,6.642,-41.026,-94.164,2.344,35.556,32.039,4.689,-16.410,6.642
'[02:44:52.398 07/11/2076]',9.768,-37.118,-39.853,-22.271,-19.927,-48.449,-27.350,5.861,0.781,-67.595,12.503,28.132,20.708,-24.225,0.000,-22.271,-89.084,2.735,40.635,39.463,5.079,-19.927,0.000
'[02:44:52.402 07/11/2076]',14.457,-41.416,-43.370,-25.006,-16.020,-44.542,-35.946,1.172,-21.490,-55.482,12.503,24.615,19.536,-18.364,-6.252,-35.556,-83.223,4.298,44.151,40.635,7.033,-23.443,-6.252
'[02:44:52.406 07/11/2076]',15.629,-39.463,-44.542,-29.695,-14.066,-40.244,-40.244,-2.735,-38.681,-41.026,10.159,5.470,15.629,-2.735,-14.847,-62.906,-76.190,6.642,45.324,36.337,9.768,-20.708,-14.847
'[02:44:52.410 07/11/2076]',19.536,-39.853,-41.416,-30.085,-10.940,-36.728,-39.072,-4.298,-51.966,-26.960,5.861,29.304,19.145,6.252,-21.490,-48.059,-65.250,8.596,42.198,32.821,9.768,-18.755,-21.490
'[02:44:52.414 07/11/2076]',18.364,-39.072,-37.509,-25.006,-8.596,-37.509,-36.728,0.391,-63.687,-12.503,1.954,49.621,18.364,17.192,-26.178,-34.774,-54.701,9.377,38.291,25.788,9.377,-15.629,-26.178
'[02:44:52.418 07/11/2076]',17.582,-33.211,-27.350,-33.602,-3.907,-35.165,-27.741,-8.596,-65.250,1.954,14.066,5.861,16.801,29.695,-27.350,-62.515,-42.979,12.503,28.132,18.364,10.940,-16.410,-27.350
'[02:44:52.422 07/11/2076]',19.145,-27.741,-18.364,-39.463,4.689,-30.867,-20.317,-19.536,-57.827,15.629,15.238,-26.569,16.410,39.463,-28.913,-80.879,-28.132,16.020,19.145,13.675,1.954,-13.284,-28.913
'[02:44:52.426 07/11/2076]',24.225,-29.695,-9.768,-34.383,12.894,-28.132,-15.238,-18.755,-51.184,24.225,21.099,11.331,25.006,25.788,-26.178,-19.536,-13.675,24.615,10.549,21.099,-16.410,-22.271,-26.178
'[02:44:52.430 07/11/2076]',24.615,-28.913,-1.954,-32.430,17.192,-27.350,-7.814,-19.927,-39.072,28.523,26.569,17.973,30.085,17.582,-27.350,14.066,-5.470,29.695,2.735,23.443,-27.741,-28.523,-27.350
'[02:44:52.434 07/11/2076]',17.192,-23.053,3.126,-33.993,17.192,-28.913,-3.516,-20.317,-18.755,26.569,0.391,-9.768,21.490,23.443,-32.430,-14.847,-4.689,18.364,-2.344,11.331,-34.383,-17.582,-32.430
'[02:44:52.438 07/11/2076]',7.424,-19.145,7.424,-33.602,11.722,-33.993,-0.391,-14.066,1.172,21.880,-32.039,-21.490,17.582,22.662,-37.118,-33.602,-8.596,9.377,-6.642,0.781,-35.556,-8.205,-37.118
'[02:44:52.441 07/11/2076]',0.391,-19.927,13.284,-34.383,1.172,-39.853,6.642,-10.159,16.801,14.066,-25.006,-25.397,27.350,3.516,-41.026,-9.377,-11.722,10.159,-12.503,5.861,-32.821,-18.755,-41.026
'[02:44:52.445 07/11/2076]',-8.596,-19.145,16.020,-41.026,-7.814,-43.370,10.549,-12.112,35.165,2.344,-21.880,-42.589,33.993,-10.940,-44.151,-4.298,-17.192,5.079,-15.238,8.596,-29.304,-22.662,-44.151
'[02:44:52.449 07/11/2076]',-20.317,-20.708,12.894,-38.681,-21.099,-48.059,7.033,-5.470,53.138,-14.457,-50.012,-29.304,29.695,-17.582,-51.575,-1.172,-28.132,-4.689,-12.112,5.079,-25.788,-12.112,-51.575
'[02:44:52.453 07/11/2076]',-34.383,-22.662,10.159,-34.774,-34.774,-51.966,6.252,-1.563,68.376,-37.118,-66.032,-27.350,24.615,-26.960,-57.436,-1.954,-37.509,-11.722,-9.377,5.079,-18.364,-6.252,-57.436
'[02:44:52.457 07/11/2076]',-46.496,-20.317,7.424,-38.291,-45.714,-53.138,8.205,-7.033,83.223,-60.952,-56.654,-66.032,21.099,-36.337,-58.999,-25.788,-46.105,-17.582,-6.642,5.470,-7.424,-8.205,-58.999
'[02:44:52.461 07/11/2076]',-54.310,-18.755,3.907,-36.728,-55.873,-50.403,9.768,-10.159,92.210,-82.051,-51.966,-71.502,19.536,-46.886,-58.999,-26.178,-55.482,-19.145,-3.126,5.861,1.954,-7.033,-58.999
'[02:44:52.465 07/11/2076]',-60.562,-20.317,-0.781,-23.834,-65.641,-48.449,12.112,-4.298,91.819,-100.415,-46.496,-44.542,21.490,-61.343,-55.873,-3.126,-67.204,-8.205,1.563,10.940,11.331,-8.596,-55.873
'[02:44:52.469 07/11/2076]',-66.813,-20.317,-4.689,-13.675,-75.409,-46.496,14.457,0.391,84.786,-112.137,-38.681,-50.403,17.582,-62.906,-53.529,-16.410,-76.972,3.126,5.470,10.940,26.960,-6.252,-53.529
'[02:44:52.473 07/11/2076]',-72.674,-20.708,-11.722,-5.079,-84.005,-46.105,14.847,2.735,72.283,-119.951,-41.026,-58.608,5.470,-56.654,-51.184,-43.761,-86.740,12.894,12.503,7.424,41.807,0.000,-51.184
'[02:44:52.477 07/11/2076]',-75.018,-27.741,-15.238,8.205,-89.866,-48.059,14.457,12.112,53.138,-125.421,-36.337,-10.549,-1.172,-58.217,-45.714,-13.675,-90.647,22.271,16.020,8.596,55.873,1.563,-45.714
'[02:44:52.480 07/11/2076]',-75.409,-31.258,-17.192,8.987,-91.038,-47.668,12.503,9.768,36.337,-126.984,-32.039,6.642,-10.940,-54.701,-41.416,-8.205,-88.303,21.099,17.973,10.159,63.297,0.000,-41.416
'[02:44:52.484 07/11/2076]',-74.628,-28.913,-20.708,-1.172,-85.958,-42.198,3.516,-2.344,21.880,-128.547,-28.132,-34.383,-29.695,-45.714,-33.993,-58.999,-91.038,14.457,21.490,10.940,58.608,0.000,-33.993
'[02:44:52.488 07/11/2076]',-71.893,-28.913,-25.397,-3.516,-79.316,-39.072,-5.861,-5.861,8.596,-126.203,-30.867,-49.621,-45.324,-38.681,-26.960,-85.958,-90.647,11.722,26.178,11.331,48.449,2.344,-26.960
'[02:44:52.492 07/11/2076]',-66.032,-31.648,-25.788,-1.172,-74.237,-36.728,-6.642,-7.033,-4.689,-116.435,-12.112,-18.364,-43.370,-46.886,-17.582,-43.370,-81.270,20.317,26.569,21.490,37.118,-10.549,-17.582
'[02:44:52.496 07/11/2076]',-61.343,-32.821,-24.615,0.000,-69.939,-32.821,-7.424,-8.596,-16.410,-106.667,9.377,-6.642,-42.589,-50.403,-6.252,-21.099,-71.502,28.132,25.397,28.523,28.132,-19.536,-6.252
'[02:44:52.500 07/11/2076]',-62.906,-30.085,-26.178,2.735,-66.813,-31.258,-10.549,-7.424,-22.271,-94.554,-3.126,-16.020,-53.919,-33.211,-2.344,-46.886,-63.687,22.271,26.960,16.801,24.225,-6.642,-2.344
'[02:44:52.504 07/11/2076]',-62.906,-27.350,-25.788,4.689,-61.343,-32.430,-7.424,-8.596,-27.350,-77.753,-16.410,-17.192,-60.952,-22.271,2.344,-59.389,-51.966,19.145,26.569,8.596,19.536,1.172,2.344
'[02:44:52.508 07/11/2076]',-57.045,-29.304,-21.880,3.126,-54.701,-30.476,-3.126,-15.629,-33.993,-60.171,3.907,-28.913,-55.482,-27.350,9.768,-46.496,-32.039,25.788,22.662,16.801,11.722,-11.331,9.768
'[02:44:52.512 07/11/2076]',-51.184,-29.695,-17.582,-0.391,-46.105,-28.132,-3.516,-21.490,-35.165,-44.933,14.847,-39.853,-51.184,-31.648,14.457,-37.900,-16.410,25.788,18.364,19.145,3.126,-16.801,14.457
'[02:44:52.516 07/11/2076]',-48.840,-30.085,-17.192,0.781,-42.589,-28.913,-2.344,-20.708,-33.211,-28.132,-8.205,-16.410,-48.449,-30.085,12.894,-21.099,-3.126,19.927,17.973,14.066,-5.470,-11.722,12.894
'[02:44:52.520 07/11/2076]',-46.105,-28.523,-13.284,-0.391,-39.463,-30.476,0.000,-18.364,-30.085,-15.629,-20.708,-12.112,-47.668,-29.304,12.112,-16.020,8.596,18.755,14.066,13.284,-13.284,-13.675,12.112
'[02:44:52.523 07/11/2076]',-45.714,-23.834,-9.768,-6.252,-39.072,-30.867,2.344,-19.536,-26.960,-8.987,-16.801,-41.416,-49.621,-28.132,10.549,-28.523,11.722,14.066,10.549,11.722,-22.271,-16.020,10.549
'[02:44:52.527 07/11/2076]',-45.324,-20.708,-6.252,-10.940,-43.370,-32.430,6.252,-14.066,-25.006,-6.252,-20.317,-32.039,-47.668,-32.039,8.596,-13.284,12.112,8.596,7.033,10.159,-30.867,-18.364,8.596
'[02:44:52.531 07/11/2076]',-42.589,-17.973,-3.126,-10.159,-49.231,-32.821,11.722,-4.298,-25.397,-5.470,-19.145,-10.549,-42.198,-40.244,6.642,14.066,11.722,6.642,3.907,11.331,-35.556,-23.443,6.642
'[02:44:52.535 07/11/2076]',-41.416,-12.503,0.391,-12.503,-56.654,-30.085,16.410,1.954,-23.443,-5.470,-14.066,-31.648,-38.291,-42.198,6.252,-0.391,12.894,5.470,0.391,8.596,-32.821,-26.569,6.252
'[02:44:52.539 07/11/2076]',-42.979,-5.470,0.000,-9.377,-66.422,-28.523,20.708,14.847,-21.099,-5.470,-21.099,-42.589,-33.993,-42.589,2.735,-17.582,13.284,7.424,0.781,2.344,-23.443,-25.397,2.735
'[02:44:52.543 07/11/2076]',-37.900,-0.391,0.000,-7.814,-71.111,-21.099,23.834,19.927,-16.410,-6.252,-25.006,-12.112,-23.053,-46.105,0.000,8.205,18.364,8.205,0.781,0.391,-16.410,-24.225,0.000
'[02:44:52.547 07/11/2076]',-32.430,3.126,0.000,-8.205,-73.455,-10.940,24.225,20.317,-12.503,-10.549,-15.238,2.344,-10.549,-56.654,-3.126,32.821,19.536,12.503,0.781,6.642,-13.284,-31.258,-3.126
'[02:44:52.551 07/11/2076]',-32.430,6.252,-3.126,-11.722,-78.144,-1.954,19.145,17.973,-11.331,-17.192,-17.973,-33.211,-16.020,-48.449,-10.549,-5.470,11.722,12.112,3.907,6.642,-11.331,-25.397,-10.549
'[02:44:52.555 07/11/2076]',-32.821,8.205,-7.424,-11.722,-82.051,3.126,15.629,16.020,-13.675,-18.364,-24.225,-50.794,-20.317,-38.681,-14.847,-33.211,9.768,13.675,8.205,3.516,-9.377,-16.801,-14.847
'[02:44:52.559 07/11/2076]',-26.960,2.735,-9.377,-5.861,-86.349,9.377,15.629,17.582,-25.788,-14.847,1.954,-22.662,-9.377,-44.542,-12.894,5.861,14.066,30.476,10.159,18.364,-8.205,-27.350,-12.894
'[02:44:52.563 07/11/2076]',-22.662,-1.172,-12.503,0.000,-88.303,14.847,14.457,19.145,-38.291,-5.470,25.788,-13.675,-3.907,-37.118,-8.987,17.582,19.536,42.589,13.284,26.178,-5.079,-30.085,-8.987
'[02:44:52.566 07/11/2076]',-25.397,2.735,-17.973,4.298,-88.694,21.490,9.768,18.755,-47.277,6.252,14.066,-16.020,-13.284,-7.033,-7.424,-13.675,22.271,40.244,18.755,16.410,0.391,-11.331,-7.424
'[02:44:52.570 07/11/2076]',-23.053,3.126,-18.364,7.424,-85.177,29.695,7.033,15.629,-58.217,20.708,9.377,-12.894,-20.317,16.020,-5.079,-32.039,30.476,41.416,19.145,10.940,2.735,1.172,-5.079
'[02:44:52.574 07/11/2076]',-17.973,2.344,-16.801,7.814,-76.972,37.118,5.861,7.424,-73.065,37.509,33.602,-30.085,-23.053,26.960,0.781,-36.728,41.416,48.059,17.582,16.410,4.298,-5.470,0.781
'[02:44:52.578 07/11/2076]',-15.629,1.563,-9.768,5.079,-67.595,42.198,6.642,-0.781,-84.786,52.747,48.059,-40.635,-29.695,40.244,6.642,-42.589,51.966,46.886,10.549,15.238,6.252,-4.298,6.642
'[02:44:52.582 07/11/2076]',-12.503,0.000,-3.126,7.424,-57.827,46.496,5.861,-4.689,-94.554,66.422,39.853,-9.377,-33.211,46.886,10.549,-21.490,62.515,46.886,3.907,12.112,1.954,2.735,10.549
'[02:44:52.586 07/11/2076]',-7.814,0.000,2.735,6.642,-46.105,50.403,6.642,-10.549,-100.024,79.707,39.072,-3.516,-36.337,48.059,16.410,-14.457,71.502,48.449,-1.954,10.549,-5.079,3.126,16.410
'[02:44:52.590 07/11/2076]',-6.642,4.298,9.768,3.516,-35.556,52.357,10.159,-16.020,-99.243,87.521,37.118,-26.569,-43.761,55.092,20.708,-33.993,76.190,48.449,-8.987,2.735,-11.722,7.033,20.708
'[02:44:52.594 07/11/2076]',-4.298,7.814,18.364,0.781,-26.569,50.403,16.410,-17.582,-96.117,91.819,33.211,-6.642,-45.714,56.654,24.615,-12.894,80.879,48.059,-17.582,-5.470,-19.536,10.940,24.615
'[02:44:52.598 07/11/2076]',-3.126,9.377,23.443,0.391,-21.880,43.761,22.271,-13.675,-90.256,91.429,33.602,12.503,-43.761,51.575,25.397,13.675,80.488,47.277,-22.662,-9.377,-23.443,7.033,25.397
'[02:44:52.602 07/11/2076]',-9.768,10.940,27.741,-1.563,-21.880,29.695,26.178,-6.642,-79.316,84.786,19.536,-20.708,-52.357,57.827,23.834,-25.006,72.283,39.853,-26.960,-19.145,-20.317,10.159,23.834
'[02:44:52.605 07/11/2076]',-15.629,12.503,32.821,-7.424,-24.225,16.410,32.039,-2.735,-65.641,75.409,15.238,-38.291,-53.138,55.873,21.490,-38.681,64.078,35.165,-32.039,-22.662,-17.192,10.159,21.490
'[02:44:52.609 07/11/2076]',-14.457,10.549,35.165,-10.159,-24.615,10.159,30.476,4.298,-53.529,63.687,14.847,-1.954,-42.198,36.337,21.099,6.252,55.482,34.774,-34.383,-10.940,-25.006,1.954,21.099
'[02:44:52.613 07/11/2076]',-12.112,10.549,34.774,-10.549,-25.788,7.814,26.960,10.940,-42.198,48.840,17.192,15.629,-33.602,18.364,19.536,34.383,44.151,30.867,-33.993,-3.126,-29.695,-6.642,19.536
'[02:44:52.617 07/11/2076]',-14.066,18.364,33.602,-18.364,-29.304,9.377,22.662,14.847,-30.085,34.383,4.689,-15.238,-38.681,20.708,15.238,-4.298,28.132,19.536,-32.821,-8.987,-28.132,0.781,15.238
'[02:44:52.621 07/11/2076]',-16.801,28.132,28.132,-24.225,-34.774,12.503,17.192,18.755,-20.708,19.927,-12.112,-26.960,-44.151,23.443,11.331,-32.430,14.847,14.457,-27.350,-16.801,-25.006,8.987,11.331
'[02:44:52.625 07/11/2076]',-13.284,30.085,24.225,-23.834,-41.416,14.066,19.145,24.615,-16.410,4.689,2.735,-10.549,-33.211,5.470,12.503,-5.079,8.596,18.755,-23.443,-10.549,-19.927,-2.344,12.503
'[02:44:52.629 07/11/2076]',-12.112,32.430,21.880,-26.569,-47.668,16.410,19.536,25.397,-12.112,-7.814,17.192,-10.159,-25.788,-2.344,12.894,0.391,-0.391,21.880,-21.099,-7.033,-11.722,-7.033,12.894
'[02:44:52.633 07/11/2076]',-16.801,35.946,14.457,-25.397,-52.747,20.708,13.284,25.397,-8.596,-17.192,0.000,-0.781,-27.350,1.172,11.722,-13.675,-9.768,18.364,-13.675,-10.549,-5.470,3.516,11.722
'[02:44:52.637 07/11/2076]',-17.582,35.946,5.079,-19.536,-53.919,22.271,7.814,26.960,-8.596,-23.834,-10.549,5.470,-28.913,5.470,8.596,-23.834,-15.238,17.582,-4.298,-10.159,0.391,11.331,8.596
'[02:44:52.641 07/11/2076]',-14.847,34.383,2.344,-16.410,-53.529,27.350,5.470,23.443,-12.503,-22.662,8.987,-17.973,-24.615,7.033,10.549,-39.072,-16.020,22.271,-1.563,-4.298,11.722,4.689,10.549
'[02:44:52.645 07/11/2076]',-11.722,34.383,0.391,-14.066,-50.012,36.337,3.907,16.801,-19.145,-16.020,22.662,-25.397,-20.317,11.722,11.331,-42.198,-9.768,24.225,0.391,-1.172,19.927,5.079,11.331
'[02:44:52.648 07/11/2076]',-5.079,30.476,-2.344,-6.252,-44.151,45.324,-1.563,17.582,-28.913,-4.298,22.662,5.079,-14.066,14.457,11.722,-19.927,1.563,25.006,3.126,4.298,19.927,5.470,11.722
'[02:44:52.652 07/11/2076]',1.172,27.741,-1.954,0.781,-37.118,55.092,-7.424,16.801,-37.900,14.847,22.271,2.735,-9.377,23.834,14.066,-27.741,18.364,22.271,2.735,5.861,20.708,6.642,14.066
'[02:44:52.656 07/11/2076]',3.126,29.304,0.000,5.861,-31.258,62.515,-8.205,14.847,-44.542,40.244,19.145,-16.020,-12.112,42.979,17.582,-50.403,40.244,16.801,0.781,0.391,21.099,13.675,17.582
'[02:44:52.660 07/11/2076]',5.470,31.258,-0.391,13.284,-26.178,67.595,-7.424,16.410,-49.231,66.422,16.410,6.252,-7.424,57.436,21.880,-33.211,64.469,11.722,1.172,-2.344,18.755,17.582,21.880
'[02:44:52.664 07/11/2076]',10.549,30.867,1.563,23.443,-22.271,69.158,-1.954,21.490,-50.794,89.866,18.364,22.662,-0.391,71.111,25.788,-17.192,86.349,9.768,-0.781,-8.596,18.364,21.880,25.788
'[02:44:52.668 07/11/2076]',14.066,37.118,6.252,20.317,-18.364,72.674,10.549,13.284,-48.840,110.183,31.648,-9.377,3.126,85.177,30.085,-36.337,105.885,12.503,-5.470,-14.066,18.364,20.317,30.085
'[02:44:52.672 07/11/2076]',21.099,41.416,10.549,14.847,-8.987,76.190,17.582,3.907,-42.589,123.858,32.821,-30.085,8.987,91.429,33.211,-51.184,118.779,16.410,-9.768,-16.020,8.987,21.490,33.211
'[02:44:52.676 07/11/2076]',34.774,38.291,12.112,16.020,3.907,78.535,16.801,1.954,-36.728,133.626,42.589,10.159,28.132,78.535,31.648,8.596,132.063,24.225,-11.331,-5.470,-8.987,12.503,31.648
'[02:44:52.680 07/11/2076]',42.979,35.946,15.629,12.112,14.457,80.488,14.847,-2.735,-27.350,137.534,51.966,24.225,41.026,67.985,33.211,42.589,139.878,25.397,-14.847,0.391,-19.145,3.516,33.211
'[02:44:52.684 07/11/2076]',41.026,38.681,16.410,7.814,19.145,78.926,10.159,-3.907,-10.549,136.361,29.695,-2.735,37.118,76.581,28.913,8.205,136.752,11.331,-15.629,-8.205,-25.006,14.847,28.913
'[02:44:52.688 07/11/2076]',39.853,39.463,13.675,5.079,20.317,71.893,4.689,0.391,6.252,128.938,8.596,-13.675,37.118,79.707,23.053,-10.940,130.891,2.344,-12.894,-16.801,-26.178,23.834,23.053
'[02:44:52.691 07/11/2076]',41.416,33.211,14.457,3.126,19.145,62.125,5.861,4.689,17.192,118.388,21.099,-11.331,49.231,60.562,20.317,14.066,123.077,3.516,-13.675,-8.596,-24.225,9.768,20.317
'[02:44:52.695 07/11/2076]',39.853,30.085,16.801,-5.861,15.629,53.138,7.424,3.516,27.350,101.587,28.523,-18.364,55.873,43.370,17.192,21.880,107.448,1.954,-16.020,-3.907,-20.317,0.781,17.192
'[02:44:52.699 07/11/2076]',32.039,27.350,11.331,-8.987,8.987,43.370,-1.172,10.159,35.556,81.661,1.563,-0.781,51.966,32.039,9.768,22.662,85.177,-5.470,-10.549,-7.033,-19.536,8.596,9.768
'[02:44:52.703 07/11/2076]',21.490,23.053,6.642,-12.503,0.000,34.774,-8.596,13.675,41.026,60.171,-17.582,7.033,46.886,20.317,3.907,18.755,64.078,-8.987,-5.861,-8.596,-14.066,11.331,3.907
'[02:44:52.707 07/11/2076]',10.159,22.271,6.642,-21.099,-10.940,30.867,-10.159,8.596,42.589,38.291,-11.722,-26.569,37.509,8.987,2.344,-7.033,43.761,-10.940,-5.861,-7.033,-7.033,7.033,2.344
'[02:44:52.711 07/11/2076]',0.781,19.536,7.033,-26.178,-19.145,28.132,-13.284,5.470,40.244,17.192,-11.331,-33.602,26.960,0.000,1.563,-16.020,23.834,-15.629,-6.252,-6.252,-3.126,6.252,1.563
'[02:44:52.715 07/11/2076]',-4.298,13.284,5.470,-23.443,-25.006,25.006,-17.582,8.205,28.913,2.344,-12.503,-5.079,20.317,-11.331,0.000,4.298,8.987,-17.192,-4.689,-2.344,1.172,3.516,0.000
'[02:44:52.719 07/11/2076]',-11.722,10.549,6.642,-22.662,-29.695,22.662,-18.755,7.424,12.503,-3.126,-10.940,-14.457,8.205,-10.940,-1.172,-12.894,-1.563,-18.755,-5.861,-3.516,12.112,3.907,-1.172
'[02:44:52.723 07/11/2076]',-20.708,9.768,8.205,-19.536,-32.430,21.880,-20.317,7.424,-6.642,-0.781,-14.847,-27.350,-9.377,-1.954,0.391,-38.681,-6.252,-19.536,-7.424,-8.596,22.662,8.987,0.391
'[02:44:52.727 07/11/2076]',-24.615,4.298,8.596,-8.987,-32.430,22.271,-23.053,11.722,-30.867,10.549,-8.596,16.020,-17.192,1.172,1.954,1.563,-1.954,-16.801,-7.814,-10.159,32.821,10.549,1.954
'[02:44:52.730 07/11/2076]',-27.741,1.954,10.159,-5.470,-28.913,23.834,-22.662,5.861,-50.012,25.006,-7.033,23.834,-30.085,10.159,4.298,6.252,5.861,-17.192,-9.377,-12.503,37.900,10.549,4.298
'[02:44:52.734 07/11/2076]',-29.304,3.126,12.503,-10.549,-20.317,31.258,-24.225,-10.549,-64.860,40.635,-2.344,-24.225,-48.840,26.569,7.424,-35.165,13.675,-22.662,-11.722,-14.847,36.728,13.284,7.424
'[02:44:52.738 07/11/2076]',-28.523,3.516,13.675,-9.377,-8.205,37.509,-25.788,-22.662,-76.581,57.045,-0.391,-45.324,-61.734,39.463,9.377,-52.357,25.006,-25.006,-12.894,-16.020,28.523,15.629,9.377
'[02:44:52.742 07/11/2076]',-22.662,1.954,17.192,-4.689,0.781,43.761,-23.053,-30.085,-87.912,73.455,14.457,-14.066,-58.999,35.556,14.847,-6.252,43.761,-18.364,-16.410,-8.987,19.145,6.642,14.847
'[02:44:52.746 07/11/2076]',-20.708,5.079,24.225,-2.344,8.205,51.966,-15.629,-37.509,-96.899,87.912,37.118,-0.781,-55.873,34.383,21.880,25.788,59.780,-8.205,-23.443,-5.079,14.066,-1.563,21.880
'[02:44:52.750 07/11/2076]',-21.099,10.549,31.258,0.391,13.284,57.436,-11.722,-37.900,-97.680,100.024,25.788,-6.642,-64.860,52.357,23.053,10.549,70.330,-5.079,-30.476,-15.629,8.987,10.549,23.053
'[02:44:52.754 07/11/2076]',-20.317,17.582,37.118,2.735,18.755,58.608,-4.689,-34.774,-95.336,107.057,16.020,-5.861,-71.111,64.078,25.006,2.735,78.535,3.126,-36.337,-28.132,2.735,21.490,25.006
'[02:44:52.758 07/11/2076]',-12.112,17.582,44.933,-0.391,24.225,57.436,3.907,-36.337,-92.991,109.402,38.681,-12.503,-66.813,56.264,30.085,23.053,87.131,14.847,-44.151,-21.099,-8.205,9.377,30.085
'[02:44:52.762 07/11/2076]',-5.861,20.708,50.403,-6.642,31.258,52.747,13.284,-38.681,-81.661,108.230,52.747,-19.536,-61.734,51.575,33.993,34.383,88.694,20.708,-49.621,-19.927,-19.927,6.642,33.993
'[02:44:52.766 07/11/2076]',-1.563,23.053,49.621,-5.079,31.648,48.059,17.973,-32.039,-68.767,104.322,32.821,5.861,-59.389,52.357,33.993,46.496,83.614,20.317,-48.840,-26.960,-25.397,13.284,33.993
'[02:44:52.770 07/11/2076]',1.172,28.132,49.231,-8.596,30.867,43.370,24.615,-30.476,-53.138,95.336,22.662,10.159,-54.310,48.840,35.556,44.542,75.800,22.662,-48.449,-29.695,-28.913,14.066,35.556
'[02:44:52.773 07/11/2076]',4.298,33.211,47.668,-14.457,31.258,40.635,30.476,-31.648,-35.556,84.396,28.523,-18.364,-46.105,42.979,35.556,25.006,65.250,24.225,-46.886,-29.695,-30.085,11.331,35.556
'[02:44:52.777 07/11/2076]',7.033,35.165,46.886,-13.675,28.913,38.291,33.993,-26.178,-17.973,70.720,28.913,-14.066,-35.946,35.946,32.821,33.993,54.701,26.569,-46.105,-30.085,-27.350,10.159,32.821
'[02:44:52.781 07/11/2076]',10.549,32.821,46.886,-11.722,27.350,33.602,35.946,-18.755,-2.735,54.701,27.741,6.252,-23.053,22.662,29.695,55.873,43.761,26.960,-46.105,-27.741,-23.053,7.424,29.695
'[02:44:52.785 07/11/2076]',11.331,31.258,43.370,-11.722,25.788,29.304,33.211,-14.847,12.503,40.635,23.834,-12.894,-14.066,16.410,24.615,37.509,33.602,23.053,-42.589,-26.569,-14.066,7.033,24.615
'[02:44:52.789 07/11/2076]',8.205,27.350,37.509,-5.470,23.443,22.271,28.523,-6.642,25.788,29.695,9.768,-21.490,-8.205,14.066,19.927,17.582,25.397,16.801,-36.728,-30.476,1.172,10.159,19.927
'[02:44:52.793 07/11/2076]',8.987,21.099,33.993,-4.298,25.397,19.145,21.490,-6.642,35.556,19.927,-4.689,8.205,2.735,8.596,16.020,31.258,21.099,9.377,-33.211,-30.476,14.066,15.629,16.020
'[02:44:52.797 07/11/2076]',12.112,15.238,26.178,-2.735,30.476,21.099,10.159,-10.159,41.416,10.159,-4.298,23.443,17.192,-7.033,12.894,47.668,18.364,1.563,-25.397,-21.099,16.801,10.940,12.894
'[02:44:52.801 07/11/2076]',8.987,12.503,18.364,-2.344,33.211,26.569,-5.079,-16.020,42.589,3.516,-11.331,-12.894,14.066,-7.033,9.768,3.907,12.503,-13.675,-17.582,-21.099,20.317,17.192,9.768
'[02:44:52.805 07/11/2076]',5.079,11.722,11.331,-2.344,34.383,30.476,-16.020,-22.271,38.291,4.298,-21.490,-33.211,10.940,-1.563,3.907,-25.788,13.284,-24.225,-10.549,-23.053,25.006,26.178,3.907
'[02:44:52.809 07/11/2076]',6.642,4.298,6.642,3.516,33.993,33.993,-21.490,-23.443,22.271,11.722,-3.516,-7.814,20.708,-15.238,3.907,13.284,21.099,-23.443,-5.861,-9.768,28.132,12.894,3.907
'[02:44:52.813 07/11/2076]',6.642,-1.563,2.735,6.252,33.211,34.383,-28.132,-24.225,5.079,21.490,13.284,-3.907,23.834,-18.755,3.126,26.960,29.695,-28.132,-1.954,-3.907,33.993,6.642,3.126
'[02:44:52.816 07/11/2076]',0.781,-1.563,-0.781,7.424,33.602,28.913,-34.383,-22.662,-10.940,31.648,-2.344,-10.940,11.331,-0.391,-1.563,-1.954,32.039,-42.198,1.563,-10.159,38.291,19.145,-1.563
'[02:44:52.820 07/11/2076]',-2.344,-3.126,-2.735,8.596,36.337,22.271,-35.556,-22.271,-27.741,43.370,-11.722,-10.159,2.344,12.112,-3.516,-17.192,35.165,-47.277,3.516,-14.066,37.900,25.788,-3.516
'[02:44:52.824 07/11/2076]',0.391,-2.344,0.391,8.596,41.026,17.582,-28.132,-23.443,-47.668,55.482,16.410,-19.145,0.000,12.112,2.344,-9.377,42.589,-36.728,0.391,-8.205,29.695,12.894,2.344
'[02:44:52.828 07/11/2076]',0.781,0.391,4.689,5.861,44.151,13.675,-17.582,-26.178,-61.343,64.860,36.728,-18.755,-5.079,18.755,8.596,-1.563,45.714,-27.741,-3.907,-9.377,19.536,8.987,8.596
'[02:44:52.832 07/11/2076]',3.126,2.344,7.033,7.814,45.714,11.722,-9.768,-25.006,-70.720,73.065,32.039,20.317,-10.159,25.788,12.503,26.960,47.668,-13.284,-6.252,-14.066,7.814,10.159,12.503
'[02:44:52.836 07/11/2076]',5.079,2.735,8.205,6.252,43.761,8.205,-6.252,-21.099,-75.409,76.190,35.165,32.430,-14.457,27.350,17.192,37.118,43.370,2.735,-7.424,-15.629,-2.735,5.861,17.192
'[02:44:52.840 07/11/2076]',2.735,5.861,7.424,1.954,38.681,0.781,-5.079,-14.847,-73.065,70.330,38.291,7.814,-23.053,32.039,17.973,15.238,30.476,14.847,-6.642,-17.973,-11.331,5.470,17.973
'[02:44:52.844 07/11/2076]',-1.563,5.861,8.987,-1.954,30.476,-7.424,-2.735,-7.814,-67.985,64.860,34.774,16.801,-25.397,33.211,16.410,24.225,17.192,25.788,-8.205,-19.145,-14.847,5.079,16.410
'[02:44:52.848 07/11/2076]',-3.907,6.642,12.503,-4.689,22.662,-10.549,0.391,-1.954,-59.780,58.217,37.509,30.867,-22.271,26.569,18.364,43.761,5.470,36.337,-11.722,-17.582,-16.801,0.000,18.364
'[02:44:52.852 07/11/2076]',-8.987,12.112,15.629,-7.424,14.847,-12.894,6.642,2.344,-46.105,51.575,30.085,-3.126,-25.397,30.867,20.708,5.470,-2.735,40.635,-14.847,-25.788,-13.284,2.344,20.708
'[02:44:52.855 07/11/2076]',-9.768,17.582,20.708,-14.066,9.377,-8.205,16.020,-2.344,-26.960,46.496,28.523,-20.317,-21.099,33.602,22.662,-8.596,-1.563,44.933,-19.927,-30.476,-10.549,3.907,22.662
'[02:44:52.859 07/11/2076]',0.781,19.536,20.708,-15.629,10.549,4.689,16.801,-6.642,-8.596,41.416,29.695,22.271,-2.735,18.755,24.615,42.198,5.861,51.575,-19.927,-23.443,-20.708,-0.391,24.615
'[02:44:52.863 07/11/2076]',10.940,21.099,16.410,-14.066,13.675,14.847,13.675,-6.642,9.377,31.258,32.039,41.807,12.894,3.516,23.443,74.237,10.940,50.403,-15.629,-18.364,-30.476,-4.689,23.443
'[02:44:52.867 07/11/2076]',16.020,23.834,12.503,-19.536,15.629,21.880,7.814,-11.331,29.304,19.145,16.410,10.549,14.457,4.298,17.192,37.900,8.987,37.509,-11.722,-21.880,-32.430,2.344,17.192
'[02:44:52.871 07/11/2076]',17.582,26.569,7.424,-22.662,18.364,26.569,-0.391,-15.238,46.886,7.424,-7.033,-5.470,17.582,3.907,10.940,8.596,8.205,25.006,-6.642,-26.960,-29.304,11.722,10.940
'[02:44:52.875 07/11/2076]',21.880,20.708,2.735,-20.317,21.880,27.350,-6.642,-16.410,58.608,-5.079,0.391,4.689,33.211,-17.192,10.549,30.867,9.377,16.801,-1.954,-17.192,-21.880,0.391,10.549
'[02:44:52.879 07/11/2076]',24.615,15.238,-1.172,-21.099,27.350,27.350,-13.675,-22.662,69.939,-19.927,8.205,0.391,43.761,-31.258,11.722,33.993,9.768,4.689,1.954,-9.768,-9.768,-5.861,11.722
'[02:44:52.883 07/11/2076]',21.490,13.284,-8.596,-18.364,32.430,29.304,-27.350,-26.569,75.800,-30.867,-15.238,1.954,39.072,-28.132,5.861,12.894,8.596,-15.629,9.377,-12.894,2.344,5.470,5.861
'[02:44:52.887 07/11/2076]',19.536,10.159,-15.238,-13.675,38.291,30.476,-37.509,-30.085,71.893,-35.556,-32.039,3.907,33.602,-28.523,2.735,0.391,11.722,-29.304,16.020,-15.238,9.377,14.066,2.735
'[02:44:52.891 07/11/2076]',19.145,6.642,-16.020,-12.894,42.589,32.430,-40.244,-38.291,57.045,-32.821,-15.238,-20.317,26.569,-30.867,1.563,-9.377,18.755,-32.430,16.801,-8.987,16.020,6.642,1.563
'[02:44:52.895 07/11/2076]',16.801,5.079,-11.722,-16.801,44.933,33.993,-36.728,-49.621,37.118,-23.443,-3.516,-30.476,17.973,-28.132,0.000,-9.377,26.960,-33.993,12.503,-7.424,18.755,4.689,0.000
'[02:44:52.898 07/11/2076]',16.410,3.516,-11.331,-13.284,45.714,35.556,-35.556,-51.184,15.629,-10.549,-3.516,-2.735,10.940,-26.569,-0.781,14.847,36.337,-30.867,12.112,-6.252,11.331,5.861,-0.781
'[02:44:52.902 07/11/2076]',15.629,1.563,-11.722,-9.768,44.542,33.211,-30.867,-50.794,-5.470,5.079,-0.781,-2.735,0.000,-19.145,3.126,11.722,43.370,-25.006,12.503,-6.642,5.861,5.470,3.126
'[02:44:52.906 07/11/2076]',11.722,1.172,-13.284,-4.298,41.416,24.615,-23.443,-47.668,-22.662,19.536,3.907,-21.490,-13.284,-5.470,6.642,-8.596,49.621,-19.145,14.066,-10.549,5.079,6.642,6.642
'[02:44:52.910 07/11/2076]',7.424,0.391,-13.675,1.563,37.509,16.020,-18.364,-39.072,-40.244,34.383,5.470,1.954,-18.755,2.735,9.377,8.205,54.701,-10.940,14.457,-13.675,5.470,8.205,9.377
'[02:44:52.914 07/11/2076]',2.735,-5.079,-13.284,10.159,30.085,2.344,-12.503,-25.397,-58.608,46.496,6.642,20.708,-26.178,13.284,10.159,17.582,55.092,-4.298,14.066,-17.582,11.331,8.987,10.159
'[02:44:52.918 07/11/2076]',-1.954,-4.298,-8.987,4.689,24.225,-7.814,-5.861,-21.490,-66.813,54.701,19.927,-9.377,-29.304,21.880,10.549,-5.470,53.919,1.954,9.768,-16.801,17.973,2.735,10.549
'[02:44:52.922 07/11/2076]',-5.079,-0.781,-8.205,-1.172,19.536,-12.894,-2.735,-20.317,-68.376,59.389,19.536,-31.258,-31.258,31.648,6.642,-28.132,49.231,6.642,8.987,-16.410,18.755,3.126,6.642
'[02:44:52.926 07/11/2076]',0.781,-3.516,-10.549,-0.781,17.582,-14.066,-3.907,-14.457,-68.767,59.389,27.741,11.331,-19.145,16.020,5.470,25.397,45.324,15.629,11.331,-1.172,3.516,-8.987,5.470
'[02:44:52.930 07/11/2076]',5.470,-5.079,-12.112,-3.907,13.675,-13.675,-3.907,-11.722,-62.125,56.264,37.118,26.569,-9.768,4.298,4.689,57.827,40.635,17.192,12.894,9.768,-5.861,-21.099,4.689
'[02:44:52.934 07/11/2076]',3.516,-1.172,-15.238,-7.814,9.768,-12.503,-5.861,-12.503,-48.840,50.794,17.973,-0.781,-16.020,11.722,1.172,20.708,30.867,3.907,16.020,5.470,-13.284,-12.503,1.172
'[02:44:52.938 07/11/2076]',5.470,0.781,-17.192,-8.596,8.987,-10.549,-8.987,-8.596,-35.556,47.668,-5.079,-10.549,-21.099,18.364,-0.781,-0.391,25.006,-5.079,17.973,-0.391,-19.145,-2.344,-0.781
'[02:44:52.941 07/11/2076]',14.457,-1.172,-16.410,-7.814,13.284,-8.596,-9.768,-5.861,-22.271,46.105,7.033,-3.907,-7.424,7.033,1.954,25.006,29.304,-6.642,17.192,8.205,-23.443,-10.940,1.954
'[02:44:52.945 07/11/2076]',23.443,-1.172,-14.847,-10.159,23.443,-3.907,-13.675,-8.987,-4.689,42.979,16.020,-7.033,2.344,4.298,6.642,32.821,32.821,-12.503,15.629,13.284,-24.225,-11.722,6.642
'[02:44:52.949 07/11/2076]',28.132,0.781,-20.317,-4.298,33.993,1.954,-25.397,-6.642,15.238,36.728,-10.159,9.768,5.861,11.722,4.298,30.085,32.821,-26.569,21.099,5.861,-23.443,4.298,4.298
'[02:44:52.953 07/11/2076]',32.430,0.000,-23.443,-1.172,46.105,6.252,-37.118,-7.814,35.946,26.960,-28.523,17.192,12.112,10.940,1.954,25.788,32.821,-37.900,24.225,3.907,-21.490,12.894,1.954
'[02:44:52.957 07/11/2076]',35.946,0.391,-23.053,-5.079,60.171,10.940,-44.151,-18.755,55.873,14.847,-24.225,-16.410,17.192,7.424,0.391,4.689,33.602,-53.919,23.834,2.344,-12.112,9.768,0.391
'[02:44:52.961 07/11/2076]',38.681,0.391,-24.225,-3.126,74.237,17.582,-52.357,-27.741,73.846,1.172,-29.695,-27.350,19.536,0.391,-2.344,0.391,33.993,-73.065,25.006,-1.172,-8.987,12.503,-2.344
'[02:44:52.965 07/11/2076]',41.416,-5.470,-25.006,1.563,88.694,17.582,-60.952,-32.430,85.568,-12.503,-39.072,-1.954,25.006,-16.020,-5.470,27.741,31.258,-86.349,25.788,1.172,-6.642,8.205,-5.470
'[02:44:52.969 07/11/2076]',41.026,-11.722,-25.788,2.735,100.415,12.503,-65.641,-41.026,90.647,-23.443,-46.105,-13.284,22.662,-27.350,-7.424,19.927,31.648,-100.024,26.569,-0.781,-1.172,5.861,-7.424
'[02:44:52.973 07/11/2076]',33.993,-14.066,-27.741,6.252,106.276,8.205,-67.595,-48.449,90.256,-32.430,-55.873,-34.383,12.112,-31.258,-9.377,-3.907,26.178,-106.276,28.523,-6.252,5.079,8.205,-9.377
'[02:44:52.977 07/11/2076]',26.960,-22.271,-28.132,12.894,107.839,-1.563,-66.422,-49.621,80.488,-41.807,-53.919,2.735,8.596,-45.714,-9.377,34.383,21.880,-105.104,28.913,-8.596,14.847,3.516,-9.377
'[02:44:52.980 07/11/2076]',18.364,-26.178,-24.225,10.940,107.839,-10.940,-61.734,-55.092,66.813,-44.151,-53.529,7.814,0.391,-50.403,-9.768,37.509,16.801,-104.322,25.006,-10.549,22.662,1.172,-9.768
'[02:44:52.984 07/11/2076]',9.377,-21.880,-23.443,0.781,108.230,-12.894,-60.171,-69.158,53.529,-44.933,-48.449,-39.072,-16.801,-45.324,-9.377,-7.033,5.470,-102.369,24.225,-12.894,18.755,1.954,-9.377
'[02:44:52.988 07/11/2076]',4.689,-23.053,-24.615,-1.172,107.839,-18.755,-59.389,-73.846,35.946,-44.933,-48.449,-55.092,-33.993,-42.979,-7.424,-26.960,-4.689,-94.945,25.397,-12.894,8.987,2.344,-7.424
'[02:44:52.992 07/11/2076]',2.344,-27.741,-23.053,-3.126,104.713,-26.960,-55.092,-73.846,15.238,-41.416,-32.430,-18.364,-37.900,-53.138,-3.907,18.364,-8.596,-75.018,23.834,-1.563,-3.907,-10.549,-3.907
'[02:44:52.996 07/11/2076]',0.000,-33.211,-23.053,-5.079,97.680,-34.774,-50.794,-74.628,-4.689,-38.681,-14.457,-0.391,-43.761,-57.827,-4.298,47.277,-14.066,-61.343,23.834,6.642,-14.847,-20.317,-4.298
'[02:44:53.000 07/11/2076]',-10.159,-36.337,-27.741,-5.079,86.740,-45.714,-50.794,-70.720,-17.192,-37.509,-24.225,-12.894,-60.952,-45.714,-8.205,22.271,-23.834,-58.217,28.523,-1.172,-19.536,-12.503,-8.205
'[02:44:53.004 07/11/2076]',-24.615,-39.072,-29.695,-3.907,73.455,-57.827,-48.059,-65.250,-27.741,-34.383,-37.900,-11.331,-73.065,-35.556,-13.284,9.768,-32.821,-50.794,30.476,-5.861,-23.443,-5.861,-13.284
'[02:44:53.008 07/11/2076]',-31.648,-40.635,-28.523,-7.033,62.125,-64.469,-41.026,-66.032,-39.463,-26.960,-14.847,-17.582,-71.111,-39.463,-12.112,23.443,-33.602,-33.993,29.304,2.735,-29.304,-17.973,-12.112
'[02:44:53.012 07/11/2076]',-36.337,-38.291,-29.304,-11.331,50.794,-63.687,-36.337,-67.595,-45.324,-22.271,3.907,-25.006,-68.767,-39.463,-8.596,28.523,-33.993,-20.317,30.085,4.298,-36.337,-24.225,-8.596
'[02:44:53.016 07/11/2076]',-41.026,-32.821,-30.476,-11.722,39.072,-58.999,-37.900,-60.171,-48.840,-15.238,-12.112,1.563,-69.939,-32.430,-8.205,36.728,-31.648,-13.284,31.258,1.172,-43.761,-20.317,-8.205
'[02:44:53.020 07/11/2076]',-40.635,-26.178,-30.476,-14.847,27.741,-48.449,-37.118,-55.092,-47.668,-7.814,-19.927,7.814,-66.032,-26.569,-7.814,32.430,-21.490,-10.549,31.258,-1.563,-47.668,-19.536,-7.814
'[02:44:53.023 07/11/2076]',-34.774,-17.582,-29.695,-19.927,23.443,-33.993,-36.337,-55.482,-41.416,-2.344,-8.596,-24.615,-60.952,-23.443,-3.126,9.377,-8.596,-11.722,30.476,-3.907,-51.575,-23.443,-3.126
'[02:44:53.027 07/11/2076]',-25.788,-12.112,-25.788,-20.708,21.880,-17.582,-36.728,-53.138,-30.867,3.516,-5.861,-21.490,-48.840,-21.880,-1.954,18.364,5.861,-18.755,26.569,-5.079,-51.966,-23.834,-1.954
'[02:44:53.031 07/11/2076]',-16.020,-8.596,-23.053,-19.145,23.443,-3.516,-37.509,-50.403,-18.755,9.377,-5.079,-0.781,-34.774,-22.271,0.781,40.244,23.053,-24.615,23.834,-6.252,-49.231,-24.225,0.781
'[02:44:53.035 07/11/2076]',-8.205,-1.563,-19.927,-21.099,27.350,12.503,-37.900,-54.310,-3.907,14.066,-2.344,-19.927,-25.397,-17.192,5.861,25.397,37.900,-30.867,20.708,-11.331,-42.979,-22.662,5.861
'[02:44:53.039 07/11/2076]',-3.907,4.689,-17.192,-19.145,30.867,26.960,-41.026,-53.919,12.503,17.973,-10.940,-32.430,-19.927,-7.814,7.033,8.205,56.654,-41.026,17.973,-19.536,-30.867,-16.801,7.033
'[02:44:53.043 07/11/2076]',2.344,11.722,-11.722,-22.271,37.509,41.807,-43.370,-56.264,30.476,19.145,-24.615,-3.516,-8.205,-4.298,7.814,26.178,72.283,-54.701,12.503,-24.615,-23.053,-8.205,7.814
'[02:44:53.047 07/11/2076]',12.894,19.927,-6.252,-26.178,47.277,59.780,-47.277,-60.562,49.621,15.238,-25.788,8.987,7.424,-10.940,9.377,43.370,83.223,-66.032,7.033,-23.053,-22.271,-7.033,9.377
'[02:44:53.051 07/11/2076]',21.099,28.132,0.391,-30.476,58.608,74.237,-49.621,-63.687,70.330,8.596,-35.556,-31.258,12.894,-7.033,6.642,-0.781,82.051,-79.707,0.391,-25.397,-20.317,2.735,6.642
'[02:44:53.055 07/11/2076]',28.913,37.509,2.735,-32.430,69.548,77.753,-48.449,-62.515,87.521,0.781,-51.575,-49.231,17.973,0.391,2.735,-33.602,76.190,-84.786,-1.954,-32.430,-15.238,16.801,2.735
'[02:44:53.059 07/11/2076]',41.416,35.556,4.298,-28.132,78.144,76.581,-43.761,-57.436,94.554,-8.596,-35.946,-17.973,35.946,-15.629,3.126,7.814,68.376,-70.720,-3.516,-21.880,-13.675,7.814,3.126
'[02:44:53.063 07/11/2076]',48.449,31.648,4.298,-23.834,82.833,69.158,-41.807,-49.231,94.554,-19.145,-22.662,-1.563,45.714,-27.350,2.344,29.695,54.701,-60.171,-3.516,-16.410,-8.596,1.172,2.344
'[02:44:53.066 07/11/2076]',44.151,32.430,0.781,-21.099,83.223,54.701,-42.979,-37.900,91.819,-29.304,-42.589,0.391,36.337,-14.457,-4.298,2.735,32.039,-61.343,0.000,-26.960,-0.391,15.238,-4.298
'[02:44:53.070 07/11/2076]',39.853,33.993,-0.781,-21.490,80.488,39.853,-42.589,-26.569,79.316,-35.165,-53.919,9.768,28.132,-9.377,-9.768,-7.814,10.159,-53.919,1.563,-34.383,1.172,21.099,-9.768
'[02:44:53.074 07/11/2076]',38.681,32.821,1.954,-23.834,75.018,26.960,-36.337,-15.629,58.608,-35.165,-30.867,7.033,26.569,-16.801,-8.987,-0.391,-7.424,-35.165,-1.172,-26.960,-0.391,4.298,-8.987
'[02:44:53.078 07/11/2076]',36.337,34.383,6.642,-29.304,67.985,15.629,-28.913,-5.861,38.681,-32.821,-13.284,5.470,21.880,-10.940,-10.159,-1.172,-23.053,-19.927,-5.861,-26.960,-2.735,-0.391,-10.159
'[02:44:53.082 07/11/2076]',33.993,37.118,5.861,-29.304,58.217,5.861,-23.053,6.642,17.192,-25.788,-16.020,42.198,16.801,-6.252,-8.987,16.020,-33.993,-3.126,-5.079,-29.695,-10.549,-0.391,-8.987
'[02:44:53.086 07/11/2076]',32.430,35.556,8.205,-29.695,49.231,0.391,-17.973,16.410,0.391,-18.755,-7.033,53.919,13.675,-3.126,-2.344,20.708,-41.807,16.020,-7.424,-26.569,-21.490,-4.689,-2.344
'[02:44:53.090 07/11/2076]',27.350,36.337,9.377,-28.523,37.900,-3.126,-13.675,23.443,-10.940,-12.894,3.516,34.383,4.298,7.424,4.298,-3.126,-48.059,30.085,-8.596,-27.350,-29.695,-3.907,4.298
'[02:44:53.094 07/11/2076]',19.927,37.509,9.768,-23.834,25.788,-7.814,-4.689,30.476,-20.317,-4.689,10.940,49.231,1.172,15.629,10.940,5.861,-51.184,43.761,-8.987,-31.648,-33.211,-1.954,10.940
'[02:44:53.098 07/11/2076]',14.847,33.602,13.675,-18.364,14.066,-9.377,3.907,35.556,-27.350,2.735,21.490,71.502,1.954,18.755,16.801,30.085,-50.794,56.654,-12.894,-29.695,-35.165,-5.079,16.801
'[02:44:53.102 07/11/2076]',5.470,33.602,13.284,-12.112,0.781,-9.768,10.549,39.853,-27.741,12.503,15.629,47.668,-5.861,33.993,20.708,-1.172,-48.840,60.171,-12.503,-36.337,-31.648,-1.172,20.708
'[02:44:53.105 07/11/2076]',0.391,35.946,16.801,-13.675,-7.424,-6.642,20.317,33.602,-23.443,19.927,21.490,32.821,-5.861,43.761,23.053,-9.768,-39.853,61.734,-16.020,-41.026,-28.523,0.000,23.053
'[02:44:53.109 07/11/2076]',5.861,36.337,19.927,-14.066,-8.987,8.205,24.225,26.569,-12.503,25.006,32.039,71.502,8.205,34.383,28.132,44.933,-24.225,67.985,-19.145,-34.383,-39.072,-6.252,28.132
'[02:44:53.113 07/11/2076]',11.722,37.900,23.443,-7.424,-8.987,25.397,26.178,23.053,-0.781,26.569,43.761,91.038,19.536,25.397,32.430,82.442,-10.549,69.158,-22.662,-28.132,-52.357,-10.549,32.430
'[02:44:53.117 07/11/2076]',13.284,46.105,28.913,-8.596,-8.987,41.807,29.695,17.582,16.410,25.788,40.635,56.264,18.755,32.430,33.993,53.138,-1.172,63.297,-28.132,-34.774,-54.701,-3.516,33.993
'[02:44:53.121 07/11/2076]',16.020,55.092,32.039,-7.424,-7.033,55.482,32.430,13.675,33.211,25.397,29.304,34.383,18.755,37.900,34.774,30.476,7.424,62.125,-31.258,-42.589,-57.436,5.861,34.774
'[02:44:53.125 07/11/2076]',22.662,53.138,36.728,0.000,-3.126,62.515,38.291,14.847,41.416,25.788,41.416,50.012,30.476,22.271,38.681,66.813,17.192,69.158,-35.946,-32.430,-58.999,-3.516,38.681
'[02:44:53.129 07/11/2076]',28.523,51.966,39.463,0.391,2.344,65.641,42.198,10.159,51.184,23.053,52.747,46.105,38.291,11.331,41.807,81.661,21.880,69.158,-38.681,-29.695,-54.701,-8.987,41.807
'[02:44:53.133 07/11/2076]',28.523,52.357,38.681,0.391,7.033,67.204,40.635,5.470,62.125,16.801,32.430,41.807,32.430,14.847,38.681,67.204,19.927,60.171,-37.900,-35.165,-50.403,1.563,38.681
'[02:44:53.137 07/11/2076]',27.741,48.449,37.509,4.689,8.205,66.422,39.463,4.689,68.767,7.033,17.192,44.151,29.695,10.159,35.556,61.734,14.457,59.389,-36.728,-36.728,-48.059,8.596,35.556
'[02:44:53.141 07/11/2076]',26.569,44.151,37.900,8.205,7.424,64.469,42.589,2.735,69.158,-2.344,33.602,22.271,27.741,-0.781,34.774,60.562,8.987,66.422,-37.118,-29.695,-40.244,0.781,34.774
'[02:44:53.145 07/11/2076]',23.443,41.026,39.072,7.033,5.079,60.562,46.886,0.000,69.939,-13.675,43.370,11.331,27.741,-8.987,33.602,58.999,-1.563,72.283,-38.291,-28.132,-30.476,-0.391,33.602
'[02:44:53.148 07/11/2076]',19.145,36.337,32.039,12.894,0.000,53.529,44.933,3.907,64.860,-26.960,33.993,41.807,25.788,-21.099,29.304,78.926,-16.801,80.879,-31.258,-22.662,-29.695,2.735,29.304
'[02:44:53.152 07/11/2076]',14.457,29.695,25.006,17.582,-2.735,39.072,41.026,12.503,52.357,-39.463,26.569,46.496,18.755,-30.476,25.006,72.674,-38.291,84.786,-24.225,-17.582,-24.225,1.954,25.006
'[02:44:53.156 07/11/2076]',6.642,25.788,16.020,17.973,-10.159,18.364,39.463,19.927,35.165,-50.794,18.755,28.523,3.907,-29.304,19.145,37.900,-59.389,85.177,-15.238,-18.755,-11.722,4.298,19.145
'[02:44:53.160 07/11/2076]',-1.563,19.927,7.424,19.145,-19.927,-1.172,37.509,31.258,13.284,-58.999,9.768,51.184,-4.298,-32.039,11.331,40.635,-77.363,87.521,-6.642,-14.847,-3.126,4.689,11.331
'[02:44:53.164 07/11/2076]',-8.205,10.159,1.563,25.397,-30.476,-24.225,35.946,49.621,-15.629,-60.952,4.298,72.674,-14.066,-31.648,2.344,43.370,-91.429,86.349,-0.781,-12.894,8.987,3.516,2.344
'[02:44:53.168 07/11/2076]',-12.112,7.424,0.781,21.490,-38.681,-36.728,38.681,54.701,-38.681,-55.092,13.284,42.198,-21.099,-22.662,-0.781,7.033,-96.117,90.256,0.000,-11.722,17.973,1.563,-0.781
'[02:44:53.172 07/11/2076]',-12.894,7.814,-2.735,16.020,-43.761,-39.853,36.337,55.873,-53.529,-46.105,13.675,23.053,-23.443,-13.675,-3.516,-21.880,-94.554,92.991,3.516,-8.987,14.457,1.563,-3.516
'[02:44:53.176 07/11/2076]',-2.735,1.172,-8.596,20.708,-42.979,-39.463,28.132,65.250,-67.595,-37.900,25.006,69.158,-9.768,-23.834,-3.907,26.960,-85.568,96.508,9.377,5.470,-0.391,-10.159,-3.907
'[02:44:53.180 07/11/2076]',5.470,-3.126,-11.722,22.662,-42.198,-37.118,21.880,71.502,-76.190,-28.132,38.681,89.084,0.781,-27.350,-2.344,51.184,-72.283,92.210,12.503,14.457,-8.596,-19.536,-2.344
'[02:44:53.184 07/11/2076]',6.642,0.391,-18.364,19.536,-43.761,-32.039,12.503,71.893,-74.237,-18.364,24.225,63.297,1.172,-10.940,-7.033,11.331,-62.515,71.893,19.145,9.377,-12.894,-13.284,-7.033
'[02:44:53.188 07/11/2076]',8.596,2.735,-21.490,19.536,-44.151,-25.788,5.861,75.409,-68.767,-8.596,8.205,52.357,3.126,4.689,-12.503,-12.112,-47.668,57.827,22.271,4.689,-15.238,-5.470,-12.503
'[02:44:53.191 07/11/2076]',17.192,2.344,-19.145,20.708,-43.761,-15.629,6.252,75.409,-63.297,5.470,26.569,60.952,20.708,3.907,-9.768,14.847,-22.662,55.092,19.927,10.940,-15.629,-16.410,-9.768
'[02:44:53.195 07/11/2076]',26.569,7.424,-15.238,16.020,-38.291,-1.563,7.033,67.985,-50.012,19.145,39.853,53.138,35.946,10.940,-10.159,25.006,-3.907,51.575,16.020,14.457,-18.364,-19.145,-10.159
'[02:44:53.199 07/11/2076]',32.039,12.894,-16.020,14.457,-32.430,12.503,1.172,62.125,-31.258,28.913,17.582,62.906,40.244,26.569,-10.159,20.708,12.112,39.463,16.801,7.033,-23.053,-5.861,-10.159
'[02:44:53.203 07/11/2076]',39.072,16.020,-15.629,13.284,-22.662,21.880,-2.735,57.827,-12.894,34.774,4.298,67.595,45.324,35.556,-6.252,18.364,28.913,28.913,16.410,0.391,-26.178,1.954,-6.252
'[02:44:53.207 07/11/2076]',46.105,22.271,-11.331,5.079,-9.768,31.258,-0.781,42.198,5.861,38.681,16.020,30.867,53.138,37.900,-0.781,0.781,41.807,19.145,12.112,-2.735,-26.960,0.391,-0.781
'[02:44:53.211 07/11/2076]',52.357,27.350,-6.252,-2.735,4.689,41.416,-1.954,26.178,28.132,36.337,18.364,16.020,58.608,37.118,4.298,-1.172,50.794,8.596,7.033,-5.861,-30.476,1.563,4.298
'[02:44:53.215 07/11/2076]',60.171,27.350,-2.735,-1.954,17.973,47.668,-2.344,19.927,47.668,29.695,14.847,37.900,67.595,28.523,6.642,28.132,55.092,4.298,3.516,-8.205,-33.993,3.126,6.642
'[02:44:53.219 07/11/2076]',62.906,29.695,2.344,-1.954,26.960,49.621,1.954,13.675,66.422,21.099,12.112,24.615,70.720,23.834,7.814,22.271,51.966,5.861,-1.563,-13.675,-28.523,5.470,7.814
'[02:44:53.223 07/11/2076]',62.515,33.993,4.298,-2.735,35.165,49.621,3.907,8.596,85.958,12.112,1.172,-2.735,66.422,28.132,6.252,-3.126,43.761,8.596,-3.516,-22.662,-20.317,13.675,6.252
'[02:44:53.227 07/11/2076]',62.515,32.039,3.907,1.172,39.463,41.807,8.205,10.940,101.587,0.391,-1.563,25.788,71.111,22.662,3.516,28.132,33.211,16.410,-3.126,-28.913,-9.768,20.317,3.516
'[02:44:53.230 07/11/2076]',61.343,32.039,5.470,0.781,43.761,33.993,11.722,10.549,114.481,-10.940,-4.298,27.350,74.628,18.364,4.689,27.741,19.145,22.271,-4.689,-32.039,0.000,25.006,4.689
'[02:44:53.234 07/11/2076]',61.343,36.337,5.079,-10.159,50.794,30.476,11.331,0.000,130.891,-27.741,-6.252,-22.662,71.111,19.145,3.907,-21.099,-0.391,26.960,-4.298,-33.993,2.344,31.648,3.907
'[02:44:53.238 07/11/2076]',62.125,37.118,3.516,-13.675,58.999,21.880,9.377,-1.954,144.176,-44.933,-15.238,-42.979,68.376,14.457,1.954,-45.714,-22.662,33.602,-2.735,-34.774,3.516,39.072,1.954
'[02:44:53.242 07/11/2076]',64.469,32.430,4.298,-14.457,64.078,13.675,12.112,-3.126,148.864,-60.562,-7.033,-11.331,79.707,-8.596,3.126,-5.470,-39.853,49.621,-3.516,-24.615,4.689,31.258,3.126
'[02:44:53.246 07/11/2076]',63.297,28.523,6.252,-17.192,65.250,5.470,15.238,-5.079,148.474,-76.972,1.172,-0.391,83.614,-25.006,-0.781,14.066,-59.389,62.125,-5.470,-18.755,11.331,26.178,-0.781
'[02:44:53.250 07/11/2076]',53.529,27.350,3.516,-19.927,62.125,-6.642,12.503,-3.907,145.739,-91.038,-19.145,-21.880,67.595,-20.317,-10.549,-23.053,-83.223,60.562,-2.735,-27.350,21.490,39.463,-10.549
'[02:44:53.254 07/11/2076]',40.635,23.834,0.781,-24.225,54.701,-21.490,12.503,-3.907,135.580,-98.462,-39.463,-33.602,50.012,-16.410,-18.755,-51.184,-103.932,60.952,0.000,-33.211,28.523,49.231,-18.755
'[02:44:53.258 07/11/2076]',33.211,16.020,0.000,-28.913,46.105,-30.476,13.284,-7.814,117.998,-102.369,-22.271,-41.416,41.807,-27.350,-21.490,-41.026,-115.653,69.939,0.781,-21.880,29.304,35.165,-21.490
'[02:44:53.262 07/11/2076]',25.006,9.377,-1.954,-33.211,36.728,-39.072,13.284,-11.722,101.197,-104.713,-7.814,-48.840,28.523,-31.258,-21.490,-35.946,-123.858,70.330,2.735,-14.847,26.569,27.350,-21.490
'[02:44:53.266 07/11/2076]',10.940,3.126,-7.033,-29.304,23.834,-46.105,8.596,-9.377,83.223,-100.024,-25.788,-23.834,8.987,-23.053,-25.788,-26.569,-127.766,62.125,7.814,-14.457,20.708,30.867,-25.788
'[02:44:53.270 07/11/2076]',0.391,-3.126,-10.549,-28.132,13.675,-50.012,5.861,-11.331,67.595,-94.164,-31.648,-16.801,-6.642,-14.457,-27.741,-26.569,-125.031,55.873,11.331,-11.722,12.894,31.648,-27.741
'[02:44:53.273 07/11/2076]',-8.596,-6.642,-14.457,-30.085,5.861,-54.310,3.516,-16.020,55.092,-89.084,-15.629,-47.277,-20.317,-6.642,-26.178,-43.761,-121.123,47.277,15.238,-5.079,3.126,25.788,-26.178
'[02:44:53.277 07/11/2076]',-14.457,-14.457,-17.192,-30.867,-0.391,-60.952,-0.781,-15.238,45.714,-83.223,-11.331,-43.761,-28.523,1.954,-28.523,-37.509,-118.779,35.946,17.973,2.344,-5.861,23.053,-28.523
'[02:44:53.281 07/11/2076]',-17.192,-23.443,-19.536,-29.304,-5.079,-68.767,-5.079,-10.549,35.556,-76.190,-11.331,-21.490,-30.085,6.252,-31.258,-17.582,-117.216,31.258,20.317,8.987,-12.503,18.364,-31.258
'[02:44:53.285 07/11/2076]',-19.927,-27.741,-22.662,-29.695,-9.377,-76.190,-8.205,-5.861,27.350,-69.548,-6.642,-36.337,-33.602,14.066,-33.993,-32.039,-114.481,26.178,23.443,12.503,-14.066,14.066,-33.993
'[02:44:53.289 07/11/2076]',-23.834,-32.821,-23.834,-24.225,-13.675,-85.958,-8.596,2.735,18.755,-60.171,-16.020,-37.900,-36.728,25.788,-41.416,-42.589,-112.918,23.053,24.615,10.940,-8.987,14.847,-41.416
'[02:44:53.293 07/11/2076]',-22.662,-33.993,-22.662,-22.662,-12.894,-89.084,-9.768,8.596,12.894,-50.794,-25.006,-9.768,-34.774,30.867,-45.324,-23.834,-107.448,19.536,23.443,9.768,-7.424,14.847,-45.324
'[02:44:53.297 07/11/2076]',-17.582,-35.946,-21.490,-21.490,-9.377,-85.177,-12.894,10.549,9.377,-45.714,-17.582,5.079,-29.304,27.741,-44.542,-1.954,-100.806,13.675,22.271,17.192,-11.331,7.424,-44.542
'[02:44:53.301 07/11/2076]',-15.238,-33.993,-22.271,-22.662,-5.079,-81.270,-19.145,9.768,10.549,-43.370,-22.271,-28.523,-32.821,33.602,-45.714,-37.900,-100.415,1.172,23.053,17.582,-14.066,8.987,-45.714
'[02:44:53.305 07/11/2076]',-12.894,-33.602,-24.225,-21.490,-2.735,-77.753,-25.397,12.503,12.112,-41.807,-32.821,-48.059,-35.946,39.853,-47.277,-66.813,-100.806,-4.689,25.006,17.192,-13.675,14.457,-47.277
'[02:44:53.309 07/11/2076]',-6.252,-39.072,-25.006,-16.020,-1.563,-76.972,-25.788,17.192,8.596,-39.853,-16.410,-16.410,-21.880,25.006,-44.542,-21.880,-95.726,0.391,25.788,28.523,-12.894,1.954,-44.542
'[02:44:53.313 07/11/2076]',-1.172,-42.979,-25.788,-12.112,-0.391,-77.753,-25.788,20.708,7.814,-40.244,-3.516,-0.781,-9.768,14.066,-44.542,3.516,-94.554,5.861,26.569,34.774,-8.987,-4.298,-44.542
'[02:44:53.316 07/11/2076]',-2.344,-41.026,-28.913,-12.894,-1.172,-79.707,-29.304,23.443,10.159,-41.026,-25.006,-12.503,-10.549,20.708,-51.184,-27.741,-104.322,3.126,29.695,25.006,-3.516,8.596,-51.184
'[02:44:53.320 07/11/2076]',-1.172,-37.900,-31.648,-16.410,-1.563,-79.707,-30.867,23.053,12.503,-42.589,-40.635,-16.410,-7.033,19.145,-53.529,-44.542,-111.746,5.470,32.430,17.582,-0.391,15.629,-53.529
'[02:44:53.324 07/11/2076]',4.689,-39.072,-32.039,-20.708,-1.172,-78.535,-27.741,19.536,10.159,-45.714,-22.271,-27.741,3.516,1.563,-50.012,-40.244,-114.481,16.020,32.821,24.225,0.000,3.126,-50.012
'[02:44:53.328 07/11/2076]',6.252,-37.900,-32.821,-23.443,-3.516,-78.926,-25.397,18.364,7.814,-51.966,-11.331,-38.681,9.377,-7.033,-50.794,-44.542,-121.905,23.053,33.602,25.397,2.344,1.172,-50.794
'[02:44:53.332 07/11/2076]',7.424,-38.681,-35.165,-21.490,-6.642,-78.535,-25.788,21.880,6.642,-57.436,-23.053,-13.284,11.722,-12.112,-51.184,-33.993,-126.984,26.569,35.946,23.053,5.079,4.298,-51.184
'[02:44:53.336 07/11/2076]',8.596,-41.807,-36.337,-18.364,-8.205,-76.190,-24.225,19.536,1.954,-60.952,-25.006,-8.596,9.768,-16.801,-53.138,-32.039,-126.984,31.648,37.118,26.569,5.861,5.079,-53.138
'[02:44:53.340 07/11/2076]',5.079,-43.370,-34.774,-17.192,-11.722,-74.628,-22.662,17.973,-5.079,-63.297,-19.536,-37.900,3.516,-16.801,-55.482,-57.045,-124.249,36.728,35.556,26.569,12.503,5.470,-55.482
'[02:44:53.344 07/11/2076]',1.172,-41.807,-30.867,-17.582,-16.801,-69.548,-17.192,13.675,-15.629,-58.217,-19.145,-31.258,-0.391,-16.410,-54.310,-53.138,-116.435,41.416,31.648,22.271,23.053,5.861,-54.310
'[02:44:53.348 07/11/2076]',0.000,-42.198,-24.615,-14.847,-21.880,-61.734,-9.377,10.159,-30.867,-51.966,-8.596,-14.066,-0.781,-21.490,-50.403,-33.211,-102.759,50.794,25.397,21.490,31.258,1.172,-50.403
'[02:44:53.352 07/11/2076]',-7.814,-37.118,-17.973,-10.549,-29.304,-57.045,0.391,10.940,-46.105,-43.370,-9.377,-35.165,-8.205,-16.020,-46.496,-64.078,-88.694,60.952,18.755,12.894,44.542,2.735,-46.496
'[02:44:53.355 07/11/2076]',-12.112,-28.913,-11.331,-12.894,-33.602,-48.840,10.159,5.079,-55.873,-32.821,1.563,-52.747,-9.768,-10.549,-40.244,-78.926,-71.111,68.767,12.112,5.079,55.482,1.954,-40.244
'[02:44:53.359 07/11/2076]',-4.689,-27.350,-7.033,-10.159,-30.476,-34.383,12.503,1.172,-62.125,-23.053,12.503,-12.112,0.781,-21.880,-32.039,-32.039,-49.231,78.144,7.814,12.112,47.668,-3.907,-32.039
'[02:44:53.363 07/11/2076]',0.000,-27.350,-4.298,-3.516,-28.132,-23.053,12.894,1.954,-67.595,-14.066,26.178,11.722,8.596,-32.039,-25.006,5.470,-32.039,82.051,5.079,18.755,38.291,-10.549,-25.006
'[02:44:53.367 07/11/2076]',3.516,-21.490,-1.172,-5.470,-24.225,-14.457,13.675,-0.391,-67.595,-4.298,24.615,-17.582,2.344,-21.880,-18.755,-26.178,-20.317,75.018,1.954,13.284,33.993,-7.814,-18.755
'[02:44:53.371 07/11/2076]',8.596,-14.847,-2.735,-4.298,-19.536,-8.987,14.457,0.391,-65.641,4.298,14.847,-28.913,-3.907,-10.159,-12.503,-47.668,-10.549,70.330,3.516,4.689,27.350,-2.735,-12.503
'[02:44:53.375 07/11/2076]',16.801,-16.020,-0.391,0.781,-14.457,-8.596,19.536,5.079,-68.376,14.066,32.821,-2.735,5.470,-17.192,-5.470,-5.470,2.735,75.409,1.172,12.112,19.145,-14.847,-5.470
'[02:44:53.379 07/11/2076]',25.397,-16.020,0.781,1.172,-8.987,-9.768,25.397,5.079,-67.985,21.490,50.403,5.861,9.377,-16.020,1.172,14.457,11.331,75.018,0.000,15.238,11.331,-21.490,1.172
'[02:44:53.383 07/11/2076]',26.178,-10.940,-1.563,-0.391,-6.642,-10.549,22.662,7.033,-62.515,28.523,32.430,8.205,3.516,-0.391,3.516,0.391,11.722,62.515,2.344,6.252,2.735,-8.596,3.516
'[02:44:53.387 07/11/2076]',25.788,-10.159,-1.954,0.391,-4.298,-14.066,20.317,11.722,-58.999,37.118,17.973,16.410,0.391,9.377,6.252,-3.516,10.159,55.873,2.735,1.172,-7.424,3.516,6.252
'[02:44:53.391 07/11/2076]',25.788,-8.987,1.563,-2.735,-1.563,-17.973,23.443,10.940,-57.436,44.933,34.774,0.391,2.735,8.205,13.675,-3.126,8.205,57.436,-0.781,4.689,-12.112,-3.126,13.675
'[02:44:53.395 07/11/2076]',26.178,-6.642,6.642,-8.596,0.391,-19.536,25.397,9.377,-51.184,48.059,45.714,-11.331,5.470,11.722,18.755,-5.079,5.079,55.873,-5.861,3.126,-13.675,-3.516,18.755
'[02:44:53.398 07/11/2076]',25.397,-7.033,6.252,-8.205,3.516,-22.662,22.662,10.159,-45.324,48.840,35.556,17.582,10.159,11.331,19.927,14.457,-0.391,55.873,-5.470,2.344,-18.755,0.781,19.927
'[02:44:53.402 07/11/2076]',22.662,-10.549,7.424,-6.642,6.252,-27.741,22.271,10.549,-40.635,46.496,28.913,19.927,10.159,11.331,21.099,11.331,-5.470,53.919,-6.642,3.126,-21.490,2.735,21.099
'[02:44:53.406 07/11/2076]',15.238,-12.503,6.642,-4.298,5.079,-32.821,22.662,8.987,-34.383,41.416,28.132,-4.298,1.954,19.927,21.880,-13.675,-11.722,48.059,-5.861,0.391,-21.099,8.596,21.880
'[02:44:53.410 07/11/2076]',7.814,-14.066,5.079,-1.563,5.079,-39.853,20.708,9.768,-31.258,38.291,23.053,10.940,-0.391,24.225,19.145,-1.563,-17.973,40.635,-4.298,-3.907,-19.536,15.238,19.145
'[02:44:53.414 07/11/2076]',-1.172,-20.317,3.907,3.907,3.516,-49.231,17.192,13.675,-32.430,31.258,18.364,27.741,-8.596,26.569,17.192,9.377,-26.569,32.821,-3.126,-7.424,-14.066,19.145,17.192
'[02:44:53.418 07/11/2076]',-10.940,-19.145,3.907,-0.781,1.563,-53.529,17.582,5.861,-33.993,25.006,28.523,-5.079,-17.973,30.085,16.801,-14.457,-34.774,29.695,-3.126,-10.159,-7.033,17.973,16.801
'[02:44:53.422 07/11/2076]',-19.145,-17.582,2.344,-11.331,2.344,-58.217,14.457,-5.470,-32.821,14.066,23.834,-33.211,-30.476,33.211,11.722,-43.370,-47.668,27.350,-1.563,-12.112,-5.861,19.536,11.722
'[02:44:53.426 07/11/2076]',-22.271,-24.225,-0.781,-12.503,1.954,-63.297,9.377,-9.377,-37.900,-1.172,25.006,8.205,-32.039,14.066,9.377,2.344,-60.562,30.476,1.563,0.000,-13.675,10.940,9.377
