'Time and date','FP1-F7','F7-T7','T7-P7','P7-O1','FP1-F3','F3-C3','C3-P3','P3-O1','FP2-F4','F4-C4','C4-P4','P4-O2','FP2-F8','F8-T8','T8-P8','P8-O2','FZ-CZ','CZ-PZ','P7-T7','T7-FT9','FT9-FT10','FT10-T8','T8-P8'
'hh:mm:ss.mmm dd/mm/yyyy','uV','uV','uV','uV','uV','uV','uV','uV','uV','uV','uV','uV','uV','uV','uV','uV','uV','uV','uV','uV','uV','uV','uV'
'[07:33:46.000 07/11/2076]',-50.403,-27.741,-6.642,-14.847,1.172,-74.628,-2.735,-23.443,42.198,-54.310,-3.126,-46.105,-75.409,77.753,-26.178,-37.509,-55.092,-59.780,7.424,-61.734,39.463,79.316,-26.178
'[07:33:46.004 07/11/2076]',0.391,0.391,0.391,0.391,0.391,0.391,0.391,0.391,0.391,0.391,0.391,0.391,0.391,0.391,0.391,0.391,0.391,0.391,0.391,0.391,0.391,0.391,0.391
'[07:33:46.008 07/11/2076]',0.391,0.391,0.391,0.391,0.391,0.391,0.391,0.391,0.391,0.391,0.391,0.391,0.391,0.391,0.391,0.391,0.391,0.000,0.391,0.000,0.391,0.391,0.391
'[07:33:46.012 07/11/2076]',0.000,0.781,0.391,0.391,0.391,0.391,0.391,0.391,0.781,0.391,0.391,-0.391,-1.172,2.735,0.391,-0.781,-0.391,-1.563,0.391,-1.563,1.172,1.954,0.391
'[07:33:46.016 07/11/2076]',0.391,0.391,0.391,0.391,0.391,0.391,0.391,0.391,0.391,0.391,0.391,0.391,0.391,0.000,0.391,0.391,0.781,1.563,0.391,0.781,0.391,0.000,0.391
'[07:33:46.020 07/11/2076]',2.344,-2.344,1.563,0.391,0.781,0.391,0.391,0.391,-1.563,1.172,1.172,4.298,7.814,-9.768,1.563,5.470,4.298,8.987,-0.781,10.549,-4.298,-7.424,1.563
'[07:33:46.023 07/11/2076]',2.735,-1.954,1.563,0.781,1.172,1.172,0.000,0.391,-1.172,0.391,1.563,4.298,7.814,-8.987,1.172,5.470,1.954,3.907,-0.781,8.205,-3.126,-5.470,1.172
'[07:33:46.027 07/11/2076]',-1.954,2.735,-0.781,0.391,-0.391,0.391,-0.391,1.172,1.954,-1.563,-0.391,-3.126,-6.642,10.159,-2.344,-4.689,-5.470,-11.331,1.563,-10.940,5.861,10.159,-2.344
'[07:33:46.031 07/11/2076]',-3.907,4.298,-1.563,-0.391,-1.172,-1.563,0.391,0.391,3.126,-1.172,-2.735,-6.252,-11.722,15.238,-2.735,-7.814,-4.298,-6.252,2.344,-12.894,7.033,11.331,-2.735
'[07:33:46.035 07/11/2076]',2.735,-1.563,2.344,-0.391,1.172,0.391,2.344,-0.781,-1.954,2.344,0.781,3.516,7.814,-10.549,2.735,5.079,6.642,16.801,-1.563,14.066,-5.470,-11.331,2.735
'[07:33:46.039 07/11/2076]',9.377,-9.377,5.470,0.781,3.126,1.954,0.781,0.391,-7.033,3.516,5.079,14.847,28.523,-37.118,5.470,18.755,12.503,27.741,-4.689,36.337,-15.629,-28.132,5.470
'[07:33:46.043 07/11/2076]',14.066,-23.053,9.377,3.907,4.298,-0.781,1.172,0.000,-15.238,2.344,6.642,30.085,52.747,-73.065,6.252,37.900,22.662,53.138,-8.596,68.376,-29.695,-50.012,6.252
'[07:33:46.047 07/11/2076]',19.145,-28.913,14.457,4.689,6.252,1.563,0.000,0.781,-19.927,1.563,10.159,39.853,73.065,-97.680,5.079,50.794,24.615,64.860,-13.675,88.694,-35.946,-64.860,5.079
'[07:33:46.051 07/11/2076]',11.331,-21.490,11.331,3.516,4.298,-0.391,-1.563,2.735,-14.457,-5.079,3.126,26.178,55.092,-72.283,-7.424,34.383,7.033,39.463,-10.549,62.125,-18.364,-39.853,-7.424
'[07:33:46.055 07/11/2076]',3.126,-13.675,9.377,0.391,1.563,-4.689,-0.391,3.516,-9.377,-10.940,-4.298,12.503,34.774,-45.714,-17.582,16.020,-7.424,33.211,-8.596,38.681,-3.907,-18.364,-17.582
'[07:33:46.059 07/11/2076]',7.033,-10.549,14.066,-5.079,1.563,-1.954,3.516,2.735,-10.549,-9.377,-4.689,11.722,41.416,-53.919,-17.192,16.020,-7.033,54.310,-13.284,51.966,-7.033,-33.993,-17.192
'[07:33:46.063 07/11/2076]',13.284,-9.377,19.145,-7.814,1.954,1.563,8.596,1.954,-14.847,-6.252,-0.781,12.503,52.747,-64.860,-15.238,17.582,-8.596,64.469,-18.364,64.860,-12.503,-45.714,-15.238
'[07:33:46.066 07/11/2076]',13.284,-8.987,22.271,-5.861,-1.563,3.907,13.284,4.689,-15.238,-7.424,0.391,15.629,55.873,-65.250,-16.020,18.364,-9.768,68.376,-21.490,61.343,-11.331,-41.026,-16.020
'[07:33:46.070 07/11/2076]',11.722,-5.470,25.006,-2.735,-5.861,6.642,19.927,7.424,-14.847,-6.642,2.735,17.582,55.482,-61.734,-16.020,20.317,-8.205,75.409,-24.225,55.482,-8.205,-37.900,-16.020
'[07:33:46.074 07/11/2076]',8.987,1.563,27.350,0.000,-8.205,10.549,26.178,8.596,-11.722,-5.861,5.079,14.847,52.747,-51.966,-17.973,18.364,-3.907,78.926,-26.569,50.794,-5.861,-30.476,-17.973
'[07:33:46.078 07/11/2076]',10.549,3.516,28.913,1.954,-6.642,13.284,28.132,9.768,-6.642,-7.424,5.470,14.066,53.919,-46.105,-19.145,17.192,-1.563,78.535,-28.132,46.496,-4.689,-24.225,-19.145
'[07:33:46.082 07/11/2076]',14.457,2.735,27.350,6.252,-3.126,14.457,24.225,15.629,-6.642,-8.205,9.377,19.145,55.873,-48.059,-19.536,24.225,-2.735,74.628,-26.569,49.231,-10.940,-25.788,-19.536
'[07:33:46.086 07/11/2076]',17.192,3.126,27.741,5.079,2.735,10.549,23.834,16.020,-8.987,-8.596,10.549,16.801,49.231,-41.416,-20.708,22.662,-6.642,67.985,-26.960,47.668,-12.894,-25.006,-20.708
'[07:33:46.090 07/11/2076]',17.582,1.954,26.178,7.033,8.205,2.344,22.271,19.145,-10.159,-9.768,7.424,16.410,39.072,-30.867,-24.615,19.536,-9.768,60.952,-25.397,41.026,-9.768,-20.317,-24.615
'[07:33:46.094 07/11/2076]',22.271,-3.126,24.615,13.675,13.675,-0.781,18.364,26.178,-15.629,-9.768,4.689,28.132,42.589,-39.853,-25.788,30.867,-8.596,63.297,-23.834,48.059,-14.066,-26.569,-25.788
'[07:33:46.098 07/11/2076]',25.788,-8.205,25.397,18.755,17.973,-2.344,16.020,29.304,-22.662,-10.940,7.033,37.509,44.542,-50.403,-28.523,43.761,-8.987,61.734,-24.615,57.436,-19.145,-34.383,-28.523
'[07:33:46.102 07/11/2076]',22.662,-5.861,21.880,19.145,19.927,-3.907,14.066,26.960,-23.053,-14.847,4.689,31.648,30.867,-39.072,-32.039,38.681,-15.238,45.324,-21.099,46.496,-10.940,-26.960,-32.039
'[07:33:46.105 07/11/2076]',20.708,-5.470,17.192,20.708,20.317,-7.033,10.549,28.913,-23.443,-16.801,1.954,30.476,20.317,-29.304,-34.383,35.165,-17.192,36.728,-16.410,33.993,-2.344,-19.927,-34.383
'[07:33:46.109 07/11/2076]',25.006,-8.987,15.629,23.834,22.271,-8.987,10.940,30.867,-28.132,-13.284,4.689,39.072,28.132,-39.853,-30.085,43.761,-11.331,44.933,-14.847,44.542,-7.033,-30.085,-30.085
'[07:33:46.113 07/11/2076]',24.225,-10.549,16.801,24.225,20.317,-15.238,14.457,35.165,-31.648,-10.159,5.079,41.416,29.304,-38.681,-25.788,40.244,-10.159,47.668,-16.020,41.807,0.781,-32.430,-25.788
'[07:33:46.117 07/11/2076]',18.755,-7.814,13.284,26.569,16.020,-20.317,12.503,42.198,-30.085,-12.112,0.391,45.324,16.410,-19.536,-30.085,35.946,-14.847,33.211,-12.503,20.708,10.159,-15.238,-30.085
'[07:33:46.121 07/11/2076]',21.880,-7.424,12.894,23.053,14.847,-13.284,9.768,38.681,-31.258,-8.205,6.252,44.933,23.053,-26.178,-29.304,42.979,-8.987,36.728,-12.112,27.350,-0.391,-17.973,-29.304
'[07:33:46.125 07/11/2076]',22.271,-6.642,12.112,18.755,12.503,-5.079,8.205,30.867,-35.165,-3.907,8.987,45.714,28.523,-33.993,-27.741,49.231,0.000,42.589,-11.331,38.291,-6.642,-30.085,-27.741
'[07:33:46.129 07/11/2076]',23.834,-7.033,10.549,13.675,13.284,1.563,3.907,21.880,-36.728,0.000,12.112,42.589,30.867,-36.337,-28.913,51.966,3.907,41.807,-9.768,42.589,-8.987,-35.165,-28.913
'[07:33:46.133 07/11/2076]',25.006,-8.987,8.596,15.629,13.284,6.642,1.172,18.755,-41.416,5.079,14.457,46.496,34.774,-38.291,-28.913,57.827,10.940,41.416,-7.814,45.324,-11.331,-35.556,-28.913
'[07:33:46.137 07/11/2076]',21.880,-7.424,7.033,18.364,12.112,5.470,2.344,19.536,-46.886,10.549,14.066,48.449,32.039,-35.165,-27.741,57.045,15.238,42.589,-6.252,43.370,-8.596,-35.165,-27.741
'[07:33:46.141 07/11/2076]',17.973,-4.298,7.814,16.020,10.940,3.516,2.735,20.708,-49.621,14.066,10.940,46.105,24.615,-23.443,-29.304,51.575,17.973,40.244,-7.033,35.165,-2.735,-28.132,-29.304
'[07:33:46.145 07/11/2076]',18.755,-0.391,7.814,13.675,10.159,5.079,3.516,19.927,-51.966,20.317,10.940,46.496,26.178,-21.099,-28.913,50.794,25.397,38.291,-7.033,35.165,-5.861,-26.960,-28.913
'[07:33:46.148 07/11/2076]',20.708,0.781,7.424,11.331,8.205,8.987,3.126,19.536,-52.747,23.443,12.894,46.886,32.039,-25.397,-27.350,51.966,31.258,36.337,-6.642,41.026,-12.894,-30.867,-27.350
'[07:33:46.152 07/11/2076]',18.364,5.861,4.298,7.033,4.689,10.940,3.126,16.801,-52.357,25.788,9.768,41.807,26.569,-17.192,-28.132,45.324,29.695,26.178,-3.516,36.728,-12.894,-28.523,-28.132
'[07:33:46.156 07/11/2076]',17.582,10.159,0.391,3.126,3.516,8.987,2.735,14.457,-51.575,29.695,5.470,37.900,19.536,-5.861,-31.648,39.853,28.913,21.490,0.391,27.741,-9.768,-22.662,-31.648
'[07:33:46.160 07/11/2076]',19.927,8.987,-0.781,4.689,1.563,8.596,4.689,17.582,-55.092,36.337,1.172,46.886,27.741,-10.549,-30.476,43.761,34.383,31.258,1.563,30.867,-10.159,-26.178,-30.476
'[07:33:46.164 07/11/2076]',20.708,8.205,-1.172,9.377,0.000,6.642,3.516,25.788,-59.780,38.681,-3.126,54.701,29.304,-9.377,-33.211,44.542,31.648,31.258,1.954,25.397,-3.516,-23.834,-33.211
'[07:33:46.168 07/11/2076]',18.364,16.020,-1.954,2.344,0.781,8.596,4.689,19.536,-57.045,41.416,-1.954,41.416,19.536,7.033,-35.165,32.430,27.741,24.615,2.735,12.894,1.563,-15.629,-35.165
'[07:33:46.172 07/11/2076]',20.317,22.271,-1.172,-0.391,3.126,11.722,5.470,17.582,-55.482,46.886,0.391,32.821,14.066,18.755,-33.993,26.569,29.304,23.053,1.954,3.516,3.126,-8.987,-33.993
'[07:33:46.176 07/11/2076]',29.695,23.053,-0.781,0.000,9.768,22.271,1.172,17.192,-55.873,48.840,7.033,39.072,24.615,3.126,-29.304,41.416,36.337,35.165,1.563,23.834,-17.973,-23.834,-29.304
'[07:33:46.180 07/11/2076]',35.556,25.788,0.391,-3.516,14.066,31.648,-1.172,13.284,-51.966,51.184,10.549,38.291,28.132,-0.391,-25.397,46.496,40.635,34.774,0.391,31.258,-28.913,-31.258,-25.397
'[07:33:46.184 07/11/2076]',36.337,27.741,-1.172,-1.563,15.238,35.165,-3.907,14.066,-46.886,51.184,9.377,38.291,24.225,6.642,-25.788,47.668,42.979,26.569,1.954,21.099,-28.913,-21.880,-25.788
'[07:33:46.188 07/11/2076]',35.946,27.741,-3.516,1.563,13.675,38.681,-7.033,16.020,-40.635,50.403,5.470,36.728,23.443,8.987,-24.615,44.151,45.714,23.053,4.298,15.629,-31.258,-13.675,-24.615
'[07:33:46.191 07/11/2076]',36.728,28.132,-1.563,-1.563,12.503,42.198,-4.689,11.331,-33.211,50.794,3.126,27.741,26.569,8.205,-21.490,35.946,47.668,22.662,2.344,14.847,-28.132,-16.410,-21.490
'[07:33:46.195 07/11/2076]',37.509,28.913,-1.172,-5.079,11.331,44.151,-3.516,7.424,-28.132,51.966,2.344,19.927,29.304,8.205,-20.317,30.476,46.105,21.490,1.954,13.284,-25.788,-16.801,-20.317
'[07:33:46.199 07/11/2076]',38.291,26.960,-0.781,-3.516,7.033,47.277,-3.516,10.159,-26.960,53.919,-0.391,23.834,36.728,0.391,-18.755,32.039,41.807,26.569,1.563,16.410,-28.132,-17.973,-18.755
'[07:33:46.203 07/11/2076]',35.165,28.523,1.954,-3.516,1.563,48.059,0.781,11.331,-23.834,51.966,-1.172,25.006,40.635,-2.344,-19.145,32.430,33.993,33.993,-1.172,17.582,-24.615,-21.490,-19.145
'[07:33:46.207 07/11/2076]',28.913,30.476,3.516,-2.735,-5.470,48.449,5.470,11.722,-20.317,50.794,-2.735,22.662,36.728,4.298,-20.317,28.913,28.132,41.807,-2.735,13.675,-17.192,-19.145,-20.317
'[07:33:46.211 07/11/2076]',25.006,28.913,4.298,2.735,-12.112,51.184,8.205,14.066,-17.973,51.575,-3.516,23.053,40.244,1.172,-18.364,28.913,26.178,50.794,-3.516,16.801,-17.582,-16.801,-18.364
'[07:33:46.215 07/11/2076]',21.880,25.397,5.470,9.768,-16.020,51.575,9.377,18.364,-13.675,48.059,-4.689,26.178,46.105,-3.907,-17.192,31.258,21.099,51.575,-4.689,23.053,-17.973,-19.536,-17.192
'[07:33:46.219 07/11/2076]',14.847,26.960,5.079,9.377,-21.880,50.403,11.331,17.582,-8.596,46.105,-7.424,16.801,37.118,6.252,-17.973,21.490,14.847,41.416,-4.298,17.192,-11.722,-13.675,-17.973
'[07:33:46.223 07/11/2076]',9.377,29.304,5.079,7.424,-25.397,48.840,11.331,16.020,-6.252,47.668,-14.066,8.205,28.523,18.755,-21.490,10.549,13.284,32.821,-4.298,8.205,-5.470,-3.516,-21.490
'[07:33:46.227 07/11/2076]',10.159,23.834,6.252,11.331,-28.913,47.668,11.331,22.662,-9.377,52.357,-19.536,19.927,39.853,8.987,-22.662,16.801,22.271,40.635,-5.470,16.020,-2.735,-9.768,-22.662
'[07:33:46.230 07/11/2076]',11.722,26.178,8.987,2.735,-28.913,51.575,12.503,15.238,-8.205,55.092,-14.847,13.284,44.933,9.768,-22.271,13.284,25.397,40.635,-8.205,16.020,0.391,-10.940,-22.271
'[07:33:46.234 07/11/2076]',12.894,30.085,5.470,-1.563,-25.397,56.264,7.424,8.205,-1.563,53.919,-15.629,2.344,36.337,24.225,-25.397,3.126,26.569,23.053,-4.689,3.126,5.470,1.563,-25.397
'[07:33:46.238 07/11/2076]',17.973,29.695,2.735,-0.391,-20.317,59.389,3.907,6.252,1.563,53.919,-14.066,0.391,34.774,26.569,-22.662,3.907,27.350,18.364,-1.954,-0.391,2.344,7.033,-22.662
'[07:33:46.242 07/11/2076]',25.006,28.132,3.907,0.391,-16.410,65.250,3.516,5.079,1.954,53.138,-9.768,3.126,43.370,13.675,-17.582,9.768,33.602,24.615,-3.126,12.894,-3.907,-6.252,-17.582
'[07:33:46.246 07/11/2076]',30.476,27.350,7.424,-0.391,-11.331,67.595,4.689,3.907,3.516,50.012,-6.252,1.954,46.496,7.814,-14.457,10.159,34.383,25.006,-6.642,18.364,-7.424,-11.722,-14.457
'[07:33:46.250 07/11/2076]',31.648,26.569,8.205,5.861,-11.722,66.422,4.689,13.284,3.516,46.886,-5.861,8.596,46.496,8.987,-13.675,12.894,31.648,22.271,-7.424,13.284,-2.735,-7.033,-13.675
'[07:33:46.254 07/11/2076]',29.695,25.006,9.377,8.205,-14.847,65.250,5.470,16.801,3.126,43.761,-4.298,10.940,44.933,11.722,-14.457,11.722,30.476,23.834,-8.596,11.722,1.563,-5.861,-14.457
'[07:33:46.258 07/11/2076]',27.741,24.615,11.331,2.735,-15.238,64.469,5.861,11.331,3.907,42.979,-3.126,5.079,41.416,15.629,-14.457,6.252,30.476,23.443,-10.549,12.112,5.470,-6.252,-14.457
'[07:33:46.262 07/11/2076]',26.569,22.662,10.159,1.172,-15.629,63.297,5.470,8.205,4.689,42.589,-2.344,4.689,41.416,17.973,-12.503,3.907,30.085,21.490,-9.377,11.722,7.424,-5.079,-12.503
'[07:33:46.266 07/11/2076]',25.788,17.973,9.768,5.079,-16.801,62.515,4.298,9.768,2.735,45.324,-2.735,7.424,42.589,15.629,-10.549,5.861,32.039,19.927,-8.987,16.020,3.907,-5.079,-10.549
'[07:33:46.270 07/11/2076]',24.615,16.410,10.940,7.033,-16.020,62.125,6.642,7.814,3.516,44.933,0.391,2.735,38.291,18.364,-8.205,4.298,32.821,23.053,-10.159,15.238,4.298,-4.689,-8.205
'[07:33:46.273 07/11/2076]',23.053,17.192,9.377,10.940,-12.112,58.217,8.205,7.814,7.424,42.979,2.344,-0.391,35.165,23.053,-7.424,2.344,32.430,24.225,-8.596,11.722,4.689,0.781,-7.424
'[07:33:46.277 07/11/2076]',26.569,12.112,10.940,19.145,-7.814,55.873,8.205,13.284,7.424,42.589,2.735,8.596,41.807,13.675,-6.252,13.284,35.165,33.211,-10.159,16.801,2.735,0.000,-6.252
'[07:33:46.281 07/11/2076]',27.741,8.205,12.503,22.271,-6.252,51.575,10.159,15.238,7.424,39.072,5.079,15.629,48.449,5.470,-7.033,21.880,33.211,37.509,-11.722,20.317,5.861,-4.298,-7.033
'[07:33:46.285 07/11/2076]',21.099,10.940,11.722,18.364,-7.033,44.933,13.675,12.503,8.205,36.337,2.344,7.033,38.291,16.801,-8.596,8.987,22.662,30.476,-10.940,10.940,16.410,1.172,-8.596
'[07:33:46.289 07/11/2076]',13.284,11.722,10.159,19.927,-12.112,36.337,16.410,14.066,5.861,40.635,-6.252,5.470,29.304,26.960,-10.159,0.781,21.099,32.430,-9.377,2.735,28.913,5.079,-10.159
'[07:33:46.293 07/11/2076]',11.331,9.377,10.159,17.973,-15.629,38.291,17.192,10.940,1.563,47.668,-4.689,2.344,34.774,18.364,-6.642,0.391,27.741,37.900,-9.377,10.159,25.788,-2.344,-6.642
'[07:33:46.297 07/11/2076]',9.377,8.987,12.503,11.722,-17.582,40.244,17.192,2.735,0.781,50.794,-0.391,-6.252,37.118,15.238,-2.735,-4.689,32.430,38.291,-11.722,16.020,22.271,-6.252,-2.735
'[07:33:46.301 07/11/2076]',5.470,9.377,8.596,8.205,-17.192,41.026,10.549,-1.563,3.907,50.012,-0.391,-11.722,27.741,23.834,-3.516,-5.861,29.695,23.443,-7.814,5.470,19.145,5.470,-3.516
'[07:33:46.305 07/11/2076]',4.689,8.987,9.768,4.298,-18.364,41.416,8.596,-3.516,4.689,48.449,0.391,-12.112,21.880,26.178,-2.735,-3.126,28.132,19.145,-8.987,0.000,16.020,12.894,-2.735
'[07:33:46.309 07/11/2076]',8.205,7.814,13.675,3.126,-17.582,42.589,11.722,-3.516,3.907,48.059,2.344,-6.252,25.006,18.364,1.172,3.516,29.695,29.695,-12.894,12.112,7.033,3.126,1.172
'[07:33:46.313 07/11/2076]',10.549,6.642,17.973,2.735,-16.020,40.244,14.847,0.391,4.298,46.886,1.954,-2.735,26.178,16.020,4.298,3.516,26.960,30.085,-17.192,15.238,2.735,0.391,4.298
'[07:33:46.316 07/11/2076]',12.503,8.205,18.755,7.814,-14.457,39.463,14.457,7.814,3.907,44.151,-0.781,1.954,26.178,17.192,3.516,2.735,25.788,25.788,-17.973,10.159,3.907,4.689,3.516
'[07:33:46.320 07/11/2076]',14.066,12.112,19.536,9.377,-13.284,42.979,15.629,10.549,7.033,39.853,-2.344,0.000,28.132,15.238,4.298,-2.735,25.006,24.615,-18.755,6.642,4.689,5.470,4.298
'[07:33:46.324 07/11/2076]',13.284,17.973,19.536,4.689,-11.722,45.714,14.066,8.205,10.940,33.993,-3.907,-8.987,25.788,16.410,3.516,-12.894,21.099,22.662,-18.755,0.781,7.424,7.814,3.516
'[07:33:46.328 07/11/2076]',12.894,20.317,18.755,0.391,-10.549,48.059,11.331,4.689,11.331,31.258,-6.642,-15.629,25.006,14.457,2.344,-21.099,21.099,17.192,-17.973,-3.516,12.894,10.940,2.344
'[07:33:46.332 07/11/2076]',12.894,20.317,19.536,-4.689,-10.940,51.966,10.159,-2.344,10.940,30.867,-5.470,-21.099,29.695,4.689,5.079,-23.834,21.880,12.503,-18.755,0.391,14.066,5.079,5.079
'[07:33:46.336 07/11/2076]',12.112,21.490,19.145,-14.066,-7.424,53.138,7.033,-13.675,12.503,30.867,-4.298,-33.211,25.788,2.735,7.033,-30.085,23.834,2.344,-18.364,0.391,12.503,4.298,7.033
'[07:33:46.340 07/11/2076]',10.549,21.099,15.629,-19.536,-2.344,46.886,3.907,-19.536,13.284,31.258,-10.159,-39.463,16.020,7.033,7.424,-35.165,24.615,-7.033,-14.847,-5.470,11.722,8.987,7.424
'[07:33:46.344 07/11/2076]',12.112,17.192,14.847,-18.755,1.954,41.416,1.563,-19.145,11.722,33.602,-14.847,-33.211,18.755,-0.391,6.642,-26.960,30.085,-6.252,-14.066,-2.735,9.377,6.252,6.642
'[07:33:46.348 07/11/2076]',12.112,16.020,15.629,-19.927,3.907,38.681,-0.391,-16.801,12.112,32.821,-17.192,-33.211,21.490,-4.689,5.079,-26.569,30.867,-8.987,-14.847,-3.516,11.331,5.470,5.079
'[07:33:46.352 07/11/2076]',3.516,18.755,14.457,-19.145,1.172,28.913,0.000,-10.940,12.894,29.304,-25.397,-40.635,2.344,14.457,0.391,-40.244,23.053,-26.569,-13.675,-25.006,27.741,20.708,0.391
'[07:33:46.355 07/11/2076]',-1.954,20.708,16.410,-22.271,0.391,24.225,1.563,-12.503,16.020,28.523,-27.350,-50.012,0.000,21.880,-4.689,-48.449,24.225,-30.867,-15.629,-30.476,37.509,25.006,-4.689
'[07:33:46.359 07/11/2076]',0.391,17.973,17.973,-23.443,0.391,26.569,2.344,-15.238,17.582,27.350,-24.615,-48.840,15.238,1.954,-5.470,-39.853,28.523,-19.145,-17.192,-12.112,28.523,10.159,-5.470
'[07:33:46.363 07/11/2076]',7.033,14.457,16.410,-22.271,5.079,27.741,0.000,-17.973,19.145,22.271,-24.225,-43.370,22.271,-12.503,-8.596,-25.788,25.397,-17.192,-15.629,-1.172,14.066,2.735,-8.596
'[07:33:46.367 07/11/2076]',6.642,14.847,10.549,-16.801,7.814,26.178,-0.781,-17.582,23.053,17.973,-27.350,-39.463,16.020,-10.159,-14.457,-16.020,19.145,-24.225,-9.768,-7.424,10.159,6.642,-14.457
'[07:33:46.371 07/11/2076]',6.642,14.457,6.642,-10.940,8.987,25.006,-1.172,-15.629,23.443,14.847,-26.960,-35.165,13.675,-12.894,-16.801,-6.252,15.629,-26.178,-5.861,-13.675,5.470,11.722,-16.801
'[07:33:46.375 07/11/2076]',8.596,12.503,5.470,-10.159,11.331,24.615,-1.563,-18.364,19.927,14.066,-25.397,-31.258,10.940,-19.145,-13.284,0.000,17.582,-22.271,-4.689,-7.814,-0.781,3.907,-13.284
'[07:33:46.379 07/11/2076]',6.252,13.284,4.298,-12.503,12.503,23.834,-1.172,-23.443,17.192,15.238,-22.271,-32.821,7.033,-19.145,-9.768,0.391,17.192,-23.443,-3.516,-9.768,-1.954,1.563,-9.768
'[07:33:46.383 07/11/2076]',4.689,11.331,1.954,-12.894,12.894,23.053,-3.907,-25.788,14.066,18.364,-20.708,-30.476,7.424,-22.662,-7.033,3.907,16.801,-22.662,-1.172,-8.987,-6.642,2.344,-7.033
'[07:33:46.387 07/11/2076]',2.735,7.033,0.000,-12.112,11.331,20.708,-8.596,-26.960,10.549,17.973,-20.708,-26.960,3.126,-23.053,-4.298,5.079,13.284,-19.536,0.781,-7.033,-10.159,1.563,-4.298
'[07:33:46.391 07/11/2076]',-3.126,5.470,-4.298,-9.768,8.205,16.410,-10.549,-26.569,7.033,18.755,-22.662,-26.569,-7.424,-16.801,-1.954,4.298,9.377,-19.145,5.079,-10.940,-7.033,2.735,-1.954
'[07:33:46.395 07/11/2076]',-6.252,3.907,-7.424,-8.987,7.814,12.894,-12.503,-26.960,3.907,20.317,-22.271,-24.225,-8.596,-16.020,-1.563,4.298,9.377,-17.192,8.205,-9.377,-4.689,3.126,-1.563
'[07:33:46.398 07/11/2076]',-7.033,0.391,-9.377,-6.642,7.814,9.768,-14.457,-26.960,1.954,16.801,-16.410,-23.053,-5.079,-21.880,0.781,5.861,6.642,-17.192,10.159,-3.516,-5.861,0.391,0.781
'[07:33:46.402 07/11/2076]',-7.814,0.391,-12.894,-6.642,10.159,5.861,-16.410,-28.132,2.735,13.675,-16.020,-25.788,-11.331,-16.410,0.391,1.954,1.172,-25.397,13.675,-7.424,-3.907,3.516,0.391
'[07:33:46.406 07/11/2076]',-10.549,0.781,-16.801,-7.814,11.331,1.172,-16.801,-30.085,4.689,12.112,-19.536,-29.304,-17.192,-7.814,-1.954,-4.689,0.781,-31.648,17.582,-16.410,0.781,10.159,-1.954
'[07:33:46.410 07/11/2076]',-7.033,-5.079,-16.801,-4.298,12.112,-3.907,-16.410,-25.788,3.907,12.503,-21.099,-21.490,-7.424,-14.457,-0.781,-2.344,5.861,-22.662,17.582,-10.549,-1.172,7.033,-0.781
'[07:33:46.414 07/11/2076]',-8.987,-11.331,-16.801,5.079,7.033,-9.377,-15.629,-13.675,0.000,10.549,-21.880,-8.987,-6.642,-16.801,1.172,2.344,1.563,-21.099,17.582,-13.675,3.516,7.424,1.172
'[07:33:46.418 07/11/2076]',-12.503,-6.642,-15.629,0.781,3.516,-8.987,-10.549,-18.364,1.172,11.722,-18.755,-19.145,-14.457,-3.907,3.907,-8.987,-1.172,-23.053,16.410,-22.662,8.596,12.894,3.907
'[07:33:46.422 07/11/2076]',-10.940,-0.391,-14.457,-3.126,4.298,-6.252,-5.079,-21.490,4.298,15.238,-12.503,-30.085,-15.238,2.735,7.424,-17.192,-0.781,-17.192,15.238,-29.304,7.814,18.364,7.424
'[07:33:46.426 07/11/2076]',0.781,0.391,-13.675,-1.172,9.377,4.298,-7.424,-21.099,3.907,19.145,-2.344,-25.006,-1.563,-15.629,16.410,-1.563,5.470,1.172,14.457,-8.596,-12.503,3.126,16.410
'[07:33:46.430 07/11/2076]',9.377,2.735,-12.894,-6.252,16.020,11.722,-8.596,-27.350,6.642,22.662,3.516,-30.476,4.298,-20.317,20.708,-1.563,11.722,5.861,13.675,-0.781,-21.099,-1.172,20.708
'[07:33:46.434 07/11/2076]',9.377,7.814,-15.238,-5.079,17.192,13.284,-9.768,-25.397,10.549,23.443,1.172,-30.476,1.172,-10.940,17.192,-1.954,12.894,-0.391,16.020,-10.940,-15.238,8.205,17.192
'[07:33:46.438 07/11/2076]',6.642,10.940,-15.629,0.391,16.020,13.284,-8.205,-20.317,12.112,21.490,0.391,-26.960,-1.172,-5.861,14.847,-0.391,16.020,-3.516,16.410,-18.755,-8.987,14.066,14.847
'[07:33:46.441 07/11/2076]',3.126,11.722,-12.503,-1.563,14.847,12.112,-4.298,-23.443,10.940,21.099,0.391,-28.913,-1.954,-4.298,15.629,-4.298,17.582,-3.516,13.284,-16.410,-0.781,7.814,15.629
'[07:33:46.445 07/11/2076]',1.172,10.549,-10.159,-3.516,14.457,11.722,-2.735,-26.569,10.940,21.490,-0.781,-31.648,-1.172,-4.298,14.066,-7.424,18.364,-10.549,10.940,-14.847,3.516,4.689,14.066
'[07:33:46.449 07/11/2076]',3.126,6.252,-10.159,-1.172,14.847,11.722,-5.079,-24.225,7.814,20.317,-1.563,-25.788,3.126,-12.112,15.238,-4.298,15.629,-10.549,10.940,-7.424,-1.172,0.391,15.238
'[07:33:46.453 07/11/2076]',2.735,1.954,-8.987,-4.298,12.503,10.940,-8.205,-25.788,7.033,19.536,-1.954,-23.834,1.563,-14.457,17.973,-4.298,16.410,-12.894,9.768,-0.781,-5.079,-2.735,17.973
'[07:33:46.457 07/11/2076]',0.391,2.735,-7.424,-9.768,9.377,11.331,-6.642,-28.913,9.768,18.755,-3.907,-26.569,-4.298,-7.424,18.364,-8.596,14.066,-13.284,8.205,-1.172,-6.252,1.563,18.364
'[07:33:46.461 07/11/2076]',0.391,5.861,-4.298,-10.159,7.814,15.238,-3.907,-28.132,12.503,18.364,-1.563,-21.880,-0.781,-8.596,21.099,-4.298,16.801,-9.768,5.079,0.000,-10.940,3.907,21.099
'[07:33:46.465 07/11/2076]',0.391,7.424,1.172,-6.642,5.079,19.145,-0.391,-21.880,13.284,18.364,1.172,-11.331,4.689,-15.238,25.006,6.642,19.927,-7.424,-0.391,3.907,-13.675,1.954,25.006
'[07:33:46.469 07/11/2076]',-3.516,12.112,7.814,-5.079,2.735,21.099,4.689,-19.145,15.238,19.145,2.344,-12.503,-0.781,-4.298,25.397,4.298,17.192,-12.503,-7.033,-3.516,-5.079,7.033,25.397
'[07:33:46.473 07/11/2076]',-9.377,16.801,11.331,-0.781,3.126,21.099,8.596,-15.238,16.410,21.490,3.907,-11.722,-6.252,4.689,26.960,4.298,20.317,-13.675,-10.549,-14.847,4.298,14.457,26.960
'[07:33:46.477 07/11/2076]',-9.377,9.768,15.629,8.987,1.954,17.582,12.112,-6.642,9.377,26.569,3.516,8.596,5.470,-7.814,32.039,19.536,31.648,-1.172,-14.847,-6.642,6.642,5.079,32.039
'[07:33:46.480 07/11/2076]',-12.894,7.424,18.364,7.033,0.391,17.192,14.066,-10.940,7.424,26.960,9.377,7.814,3.516,-4.689,34.774,19.145,34.774,-0.781,-17.582,-6.642,11.722,5.470,34.774
'[07:33:46.484 07/11/2076]',-18.755,10.549,16.020,1.563,-0.781,16.020,14.457,-18.755,6.642,23.443,14.066,-0.781,-11.331,10.940,36.728,8.205,29.695,-12.112,-15.238,-20.317,16.410,18.364,36.728
'[07:33:46.488 07/11/2076]',-19.536,9.377,11.331,0.781,-3.907,16.020,12.894,-22.662,4.689,20.708,17.973,1.563,-18.364,13.284,39.853,11.722,26.569,-10.940,-10.549,-22.662,10.940,25.006,39.853
'[07:33:46.492 07/11/2076]',-19.145,3.907,11.331,0.391,-7.814,17.973,11.331,-25.006,0.000,20.317,21.099,7.424,-15.629,2.735,44.542,18.364,26.178,1.563,-10.549,-3.907,3.126,10.549,44.542
'[07:33:46.496 07/11/2076]',-18.364,3.126,10.159,-0.391,-8.596,17.192,11.722,-25.006,-2.735,17.973,23.834,12.112,-13.675,-3.907,47.277,22.271,23.443,5.079,-9.377,2.735,-1.172,4.689,47.277
'[07:33:46.500 07/11/2076]',-22.271,-0.781,6.252,5.079,-12.112,10.549,8.596,-17.973,-3.516,12.503,19.145,21.099,-16.410,-3.516,41.416,28.132,16.410,2.344,-5.470,0.391,0.781,8.987,41.416
'[07:33:46.504 07/11/2076]',-28.523,-3.126,3.907,5.861,-16.410,3.907,6.252,-14.457,-3.907,8.596,11.722,21.099,-19.536,-3.516,33.993,28.132,10.549,0.000,-3.126,0.000,5.861,9.377,33.993
'[07:33:46.508 07/11/2076]',-31.258,-2.735,4.298,2.344,-17.192,0.391,6.252,-17.192,-3.516,4.298,10.159,13.675,-22.271,-3.516,28.132,23.053,5.861,-1.954,-3.516,-0.781,8.596,8.596,28.132
'[07:33:46.512 07/11/2076]',-32.821,-2.735,3.516,0.000,-17.973,-2.344,5.079,-16.801,-2.344,3.907,5.079,8.596,-21.490,-4.298,22.662,19.536,1.954,-6.252,-2.735,-3.516,13.284,10.549,22.662
'[07:33:46.516 07/11/2076]',-32.821,-5.861,2.344,0.781,-19.536,-4.298,1.954,-12.894,-6.252,5.079,3.126,4.689,-17.582,-10.549,18.755,17.973,0.391,-10.549,-1.563,0.781,15.629,7.424,18.755
'[07:33:46.520 07/11/2076]',-34.383,-5.470,0.391,-0.391,-19.927,-2.344,-2.344,-13.675,-7.424,6.252,3.907,-4.689,-16.801,-10.940,14.066,11.722,0.781,-15.629,0.391,3.516,18.364,5.079,14.066
'[07:33:46.523 07/11/2076]',-33.993,-4.689,-4.298,-1.563,-17.973,-3.516,-9.768,-12.894,-7.033,6.252,-0.391,-12.503,-19.145,-8.987,9.377,5.861,0.781,-21.880,5.079,2.735,19.536,7.033,9.377
'[07:33:46.527 07/11/2076]',-32.039,-9.377,-9.768,0.391,-17.192,-5.079,-17.192,-10.159,-8.596,6.252,-4.689,-10.549,-12.503,-16.801,3.516,7.814,3.907,-21.490,10.549,8.987,17.192,2.344,3.516
'[07:33:46.531 07/11/2076]',-29.695,-12.894,-12.503,1.563,-14.847,-7.033,-22.271,-8.987,-9.768,5.079,-7.033,-6.642,-5.861,-26.178,0.391,12.894,6.642,-25.006,13.284,12.894,16.410,-2.735,0.391
'[07:33:46.535 07/11/2076]',-30.476,-10.940,-14.066,-1.954,-13.284,-7.814,-23.053,-12.894,-8.596,4.689,-10.549,-12.112,-13.284,-16.020,-1.954,4.298,5.079,-35.946,14.847,1.954,21.880,1.954,-1.954
'[07:33:46.539 07/11/2076]',-32.821,-10.940,-16.801,0.391,-12.503,-15.629,-21.490,-9.377,-10.159,5.861,-20.708,-10.159,-21.490,-6.252,-3.516,-2.735,7.814,-37.900,17.582,-10.549,30.476,7.814,-3.516
'[07:33:46.543 07/11/2076]',-28.132,-12.503,-16.020,0.391,-9.377,-12.894,-21.490,-11.722,-12.112,9.768,-17.973,-8.987,-12.112,-14.847,-1.172,-0.391,16.020,-30.085,16.801,-3.907,25.788,1.954,-1.172
'[07:33:46.547 07/11/2076]',-21.099,-12.894,-14.457,-0.391,-3.126,-8.205,-25.006,-12.503,-8.596,8.205,-14.457,-12.112,-7.033,-21.490,0.781,0.781,18.364,-25.397,15.238,2.735,19.145,-3.126,0.781
'[07:33:46.551 07/11/2076]',-20.317,-8.987,-19.536,1.172,0.391,-6.252,-32.430,-10.159,-3.907,1.172,-14.066,-16.801,-17.192,-14.847,-2.344,0.781,10.549,-38.291,20.317,-6.642,13.284,7.424,-2.344
'[07:33:46.555 07/11/2076]',-21.099,-8.987,-22.662,1.563,0.391,-4.298,-37.118,-9.377,-1.954,-4.298,-14.066,-18.755,-21.880,-16.410,-5.470,4.298,6.252,-40.635,23.443,-12.503,10.549,12.894,-5.470
'[07:33:46.559 07/11/2076]',-18.755,-12.894,-21.490,0.391,-0.391,-3.126,-38.291,-9.768,-4.689,-7.424,-12.503,-15.238,-16.410,-29.695,-6.252,12.894,6.252,-30.867,22.271,1.563,3.907,-0.781,-6.252
'[07:33:46.563 07/11/2076]',-19.145,-15.629,-18.364,-1.563,-3.907,-3.907,-36.728,-10.549,-6.252,-10.159,-12.503,-11.331,-14.066,-36.337,-4.298,13.675,1.172,-25.397,19.145,6.642,2.735,-5.079,-4.298
'[07:33:46.566 07/11/2076]',-19.536,-21.099,-19.536,3.516,-5.861,-8.596,-35.165,-5.861,-7.814,-12.112,-14.066,-5.470,-12.894,-38.681,-3.516,14.457,-4.298,-21.490,20.317,5.079,5.079,-1.954,-3.516
'[07:33:46.570 07/11/2076]',-19.536,-25.397,-17.192,7.033,-6.642,-13.284,-33.211,-1.563,-8.596,-16.020,-11.722,-0.391,-11.331,-40.635,0.391,15.238,-7.424,-15.238,17.973,8.596,7.424,-4.689,0.391
'[07:33:46.574 07/11/2076]',-20.317,-27.741,-14.457,10.159,-6.252,-16.801,-30.867,1.563,-7.424,-17.973,-10.549,0.391,-16.801,-35.556,2.735,12.894,-10.940,-11.331,15.238,8.987,8.205,-2.735,2.735
'[07:33:46.578 07/11/2076]',-22.271,-30.085,-14.457,15.238,-7.424,-21.099,-27.741,5.470,-8.987,-22.271,-6.642,5.079,-19.927,-32.821,5.470,13.675,-12.503,-13.284,15.238,8.205,9.768,0.391,5.470
'[07:33:46.582 07/11/2076]',-22.662,-35.165,-12.894,18.755,-10.940,-22.662,-26.178,8.596,-11.331,-24.225,-4.298,12.503,-14.847,-39.853,6.642,19.536,-14.847,-11.331,13.675,17.582,7.424,-5.861,6.642
'[07:33:46.586 07/11/2076]',-26.569,-36.337,-11.722,16.410,-15.238,-25.788,-24.615,7.424,-10.549,-27.741,0.000,10.159,-16.801,-38.291,7.424,17.582,-23.053,-9.768,12.503,23.053,4.298,-7.424,7.424
'[07:33:46.590 07/11/2076]',-32.039,-36.337,-16.020,19.145,-17.973,-33.602,-23.834,10.549,-11.722,-32.821,-3.516,13.675,-25.397,-32.821,6.642,14.457,-31.258,-11.331,16.801,20.317,5.861,-4.298,6.642
'[07:33:46.594 07/11/2076]',-31.648,-42.198,-16.410,26.178,-19.536,-40.635,-22.271,18.364,-14.457,-34.383,-4.298,24.225,-18.364,-39.463,7.814,19.536,-32.039,-2.344,17.192,27.741,4.298,-7.424,7.814
'[07:33:46.598 07/11/2076]',-32.039,-46.886,-13.284,30.476,-22.271,-45.714,-19.927,25.788,-17.582,-35.165,-2.735,30.867,-14.847,-41.416,10.159,19.536,-32.821,2.735,14.066,30.476,6.252,-9.377,10.159
'[07:33:46.602 07/11/2076]',-40.635,-44.151,-14.066,34.383,-28.132,-53.529,-15.238,32.821,-20.317,-36.728,-9.768,30.867,-35.165,-14.457,6.252,5.470,-37.900,-11.722,14.847,10.940,23.053,5.470,6.252
'[07:33:46.605 07/11/2076]',-40.635,-44.151,-10.940,33.993,-30.085,-54.310,-10.159,33.602,-21.490,-33.993,-9.377,27.741,-37.900,-3.126,4.689,-1.954,-36.728,-9.377,11.722,6.252,28.913,12.112,4.689
'[07:33:46.609 07/11/2076]',-34.383,-48.449,-7.814,32.430,-29.304,-50.403,-9.377,30.867,-25.397,-28.523,-7.033,31.648,-24.225,-17.582,7.033,3.907,-27.741,5.861,8.596,27.350,15.629,-2.344,7.033
'[07:33:46.613 07/11/2076]',-31.258,-51.184,-8.987,32.430,-27.741,-46.886,-14.847,30.476,-28.913,-31.648,-5.470,37.509,-22.662,-27.350,5.861,14.066,-30.867,6.642,9.768,40.244,0.391,-9.377,5.861
'[07:33:46.617 07/11/2076]',-32.039,-50.012,-11.722,34.383,-26.569,-46.105,-19.145,32.821,-29.695,-33.993,-6.642,37.118,-28.523,-22.662,1.563,15.238,-37.118,-3.126,12.503,33.993,-2.344,-3.516,1.563
'[07:33:46.621 07/11/2076]',-34.774,-49.621,-11.722,38.291,-28.132,-46.105,-19.536,36.728,-29.695,-35.556,-5.861,37.118,-32.039,-21.490,0.391,18.364,-38.291,-7.814,12.503,29.304,-3.126,0.000,0.391
'[07:33:46.625 07/11/2076]',-33.993,-50.794,-7.033,36.728,-28.523,-45.324,-18.364,37.509,-34.383,-35.946,-2.344,38.291,-32.821,-25.788,1.563,21.490,-36.337,-3.907,7.814,35.556,-3.907,-10.940,1.563
'[07:33:46.629 07/11/2076]',-33.211,-50.012,-3.907,30.476,-27.350,-46.105,-15.238,32.821,-38.291,-33.993,-0.391,36.337,-32.039,-26.178,0.781,19.536,-37.118,-7.424,4.689,35.165,0.000,-16.410,0.781
'[07:33:46.633 07/11/2076]',-30.085,-50.794,-2.344,30.085,-25.788,-45.714,-15.238,33.993,-39.853,-33.602,0.391,39.072,-28.523,-29.695,-0.781,23.053,-34.383,-9.377,3.126,36.337,-1.954,-17.582,-0.781
'[07:33:46.637 07/11/2076]',-28.132,-48.059,-3.516,27.741,-24.225,-47.668,-15.238,34.774,-42.589,-33.602,-1.172,42.979,-26.178,-31.648,-3.907,26.178,-35.556,-8.596,4.298,35.165,-4.298,-21.099,-3.907
'[07:33:46.641 07/11/2076]',-27.350,-43.370,-3.516,23.053,-23.443,-47.277,-14.457,33.993,-43.761,-33.211,-5.079,42.979,-29.695,-25.006,-9.768,24.615,-38.681,-10.549,4.298,30.867,-5.470,-21.099,-9.768
'[07:33:46.645 07/11/2076]',-23.053,-39.072,-4.298,21.099,-19.927,-45.714,-12.112,33.211,-42.589,-34.383,-5.470,43.370,-25.397,-26.569,-13.284,25.006,-39.853,-8.987,5.079,28.913,-8.596,-23.053,-13.284
'[07:33:46.648 07/11/2076]',-18.364,-38.291,-2.344,19.145,-17.973,-41.807,-12.112,32.430,-43.370,-35.946,-5.079,44.933,-21.490,-33.993,-13.675,30.085,-41.807,-8.205,3.126,33.211,-16.410,-30.085,-13.675
'[07:33:46.652 07/11/2076]',-17.192,-37.118,-1.954,14.457,-15.629,-41.026,-12.894,28.523,-41.026,-38.681,-7.424,39.463,-27.741,-31.258,-14.457,25.397,-46.105,-17.973,2.735,29.695,-17.973,-30.476,-14.457
'[07:33:46.656 07/11/2076]',-17.192,-34.774,-5.079,10.940,-11.722,-45.324,-14.066,25.788,-35.946,-40.635,-13.675,32.430,-38.681,-26.178,-15.629,21.490,-49.621,-23.834,5.861,20.708,-16.801,-27.350,-15.629
'[07:33:46.660 07/11/2076]',-13.675,-36.728,-5.861,12.894,-7.424,-48.840,-14.457,28.523,-32.821,-39.853,-19.145,38.291,-32.821,-34.774,-14.066,28.132,-46.886,-16.020,6.642,23.443,-20.317,-31.258,-14.066
'[07:33:46.664 07/11/2076]',-14.066,-38.291,-7.424,18.364,-6.642,-57.436,-13.675,36.728,-30.476,-43.761,-27.350,48.840,-32.039,-38.291,-16.410,32.821,-51.966,-18.755,8.205,17.973,-15.238,-32.039,-16.410
'[07:33:46.668 07/11/2076]',-16.410,-30.867,-6.642,8.596,-6.252,-59.389,-9.377,29.695,-20.708,-48.840,-26.960,32.821,-39.853,-25.006,-19.145,19.536,-59.780,-27.741,7.424,4.298,-8.987,-24.225,-19.145
'[07:33:46.672 07/11/2076]',-16.020,-25.788,-7.033,2.735,-5.079,-56.654,-7.424,23.053,-11.722,-52.747,-26.178,24.225,-40.635,-19.145,-20.708,13.284,-63.687,-29.304,7.814,-2.735,-8.596,-20.708,-20.708
'[07:33:46.676 07/11/2076]',-8.596,-28.913,-7.033,3.907,-0.781,-51.184,-11.331,22.271,-6.642,-56.264,-21.880,30.085,-22.271,-39.853,-17.973,24.615,-60.171,-19.145,7.814,18.755,-24.225,-35.946,-17.973
'[07:33:46.680 07/11/2076]',-3.907,-28.913,-5.079,0.781,3.516,-46.496,-13.675,19.536,-0.391,-58.217,-18.364,28.132,-13.675,-45.324,-13.284,23.053,-62.906,-17.192,5.861,26.178,-28.523,-40.635,-13.284
'[07:33:46.684 07/11/2076]',-5.470,-25.788,-8.987,7.424,7.424,-45.714,-18.364,22.662,8.987,-62.125,-20.708,29.304,-16.020,-36.728,-12.503,21.099,-70.330,-21.099,9.768,16.020,-24.615,-27.350,-12.503
'[07:33:46.688 07/11/2076]',-7.424,-23.834,-11.331,15.629,10.940,-46.105,-19.145,26.960,17.973,-67.204,-21.880,34.383,-16.801,-33.993,-8.205,22.662,-73.846,-18.364,12.112,10.159,-23.443,-17.192,-8.205
'[07:33:46.691 07/11/2076]',-8.987,-20.317,-7.814,17.973,12.112,-44.542,-13.284,26.178,25.397,-69.939,-19.536,33.211,-19.536,-32.039,-1.954,22.271,-76.972,-9.377,8.596,8.596,-19.927,-17.192,-1.954
'[07:33:46.695 07/11/2076]',-8.987,-16.410,-4.689,18.364,14.847,-41.026,-8.987,23.053,37.509,-75.409,-17.973,28.913,-20.708,-31.648,0.781,23.834,-80.488,-5.470,5.470,5.079,-20.708,-15.629,0.781
'[07:33:46.699 07/11/2076]',-7.814,-17.192,-3.126,23.834,15.629,-38.291,-8.205,26.569,43.761,-82.442,-18.755,33.993,-18.364,-39.463,0.781,32.039,-83.614,-0.391,3.907,7.033,-24.615,-15.238,0.781
'[07:33:46.703 07/11/2076]',-6.252,-17.582,-0.781,25.788,16.801,-39.463,-5.079,28.913,46.496,-87.131,-20.708,34.383,-21.880,-39.072,0.391,33.602,-87.912,5.079,1.563,6.252,-24.615,-14.847,0.391
'[07:33:46.707 07/11/2076]',-7.814,-13.284,-0.391,24.225,17.582,-40.244,-2.344,28.132,51.966,-90.647,-23.834,28.523,-28.913,-30.085,-2.344,27.741,-91.819,9.377,1.172,-0.781,-21.099,-8.205,-2.344
'[07:33:46.711 07/11/2076]',-6.252,-11.722,-1.172,23.834,18.364,-39.072,-2.735,27.350,55.482,-92.601,-23.443,28.523,-25.006,-31.648,-1.563,26.569,-92.210,10.940,1.954,0.000,-22.271,-5.079,-1.563
'[07:33:46.715 07/11/2076]',-5.470,-12.503,-0.781,27.350,16.410,-38.291,0.000,30.085,54.310,-93.382,-21.099,33.602,-20.708,-37.509,-0.781,32.039,-93.773,13.675,1.563,3.907,-23.053,-7.033,-0.781
'[07:33:46.719 07/11/2076]',-9.768,-6.642,1.172,25.006,13.284,-36.728,4.298,26.569,55.873,-94.945,-17.973,28.132,-27.350,-27.741,0.781,25.397,-98.462,10.159,-0.391,-2.735,-15.238,-2.344,0.781
'[07:33:46.723 07/11/2076]',-13.675,-2.344,1.172,25.788,12.112,-37.900,8.987,26.178,57.436,-93.773,-16.410,23.834,-32.039,-19.145,0.781,21.099,-97.680,9.768,-0.391,-11.722,-7.814,3.516,0.781
'[07:33:46.727 07/11/2076]',-12.894,-7.424,3.516,33.993,7.814,-39.463,12.894,34.774,48.840,-89.866,-15.629,38.681,-21.490,-31.648,3.126,32.821,-85.568,25.006,-2.735,-2.735,-8.596,-3.907,3.126
'[07:33:46.730 07/11/2076]',-13.675,-6.642,7.033,28.132,7.424,-39.463,16.020,29.695,46.105,-88.303,-7.814,32.430,-20.708,-30.085,3.907,28.913,-80.488,28.523,-6.252,-1.172,-7.424,-5.470,3.907
'[07:33:46.734 07/11/2076]',-14.847,-1.563,3.516,18.755,10.549,-38.681,11.722,21.490,46.496,-90.647,-4.689,17.582,-32.430,-17.192,0.781,18.755,-77.753,10.159,-2.735,-12.112,-8.205,3.516,0.781
'[07:33:46.738 07/11/2076]',-15.629,-1.954,-0.391,15.238,12.112,-38.681,4.298,17.973,41.416,-92.991,-3.126,13.284,-41.026,-17.582,-1.563,17.973,-77.753,0.391,1.172,-14.457,-16.020,6.642,-1.563
'[07:33:46.742 07/11/2076]',-11.722,-4.298,-1.172,9.768,15.629,-35.556,1.172,9.768,36.728,-88.303,-1.172,10.159,-34.383,-27.741,-0.781,20.317,-71.111,5.079,1.954,2.344,-26.960,-5.861,-0.781
'[07:33:46.746 07/11/2076]',-7.814,-4.298,-1.172,4.298,20.708,-32.821,-1.172,3.126,36.337,-84.396,0.391,3.907,-29.304,-31.258,0.000,17.192,-67.595,2.344,1.954,6.642,-30.085,-10.549,0.000
'[07:33:46.750 07/11/2076]',-9.768,-2.344,-2.735,7.033,20.317,-34.774,-1.563,5.861,37.118,-80.098,-1.954,3.126,-27.741,-25.788,-1.954,14.457,-69.939,-1.954,3.516,0.391,-25.006,-3.907,-1.954
'[07:33:46.754 07/11/2076]',-12.894,0.781,-1.563,7.033,18.364,-34.774,-0.781,10.159,38.291,-76.190,-3.126,1.563,-25.397,-18.755,-4.298,9.768,-67.985,-2.735,2.344,-3.907,-17.973,-0.781,-4.298
'[07:33:46.758 07/11/2076]',-14.457,5.861,0.391,0.781,17.973,-34.383,0.000,7.424,37.118,-73.455,-0.781,-5.079,-25.788,-12.894,-5.861,2.735,-63.687,-4.298,0.391,-5.079,-12.503,-1.954,-5.861
'[07:33:46.762 07/11/2076]',-16.020,8.596,0.000,-2.344,15.629,-35.556,0.391,7.424,32.821,-74.628,-0.781,-5.079,-25.788,-13.284,-8.596,0.391,-62.515,-8.205,0.781,-5.079,-9.768,-5.079,-8.596
'[07:33:46.766 07/11/2076]',-15.238,7.033,0.781,-3.516,11.722,-34.774,0.781,9.377,23.053,-71.893,-0.391,1.172,-22.271,-17.973,-10.159,3.516,-60.952,-7.424,0.000,1.172,-10.549,-9.768,-10.159
'[07:33:46.770 07/11/2076]',-13.675,7.424,1.563,-7.814,8.596,-34.383,3.516,7.033,17.192,-69.548,1.954,0.391,-23.443,-16.020,-10.549,0.781,-61.343,-3.907,-0.781,2.735,-10.159,-10.549,-10.549
'[07:33:46.773 07/11/2076]',-12.112,7.814,1.172,-11.331,6.252,-33.211,5.079,4.298,14.457,-66.813,1.172,-1.563,-27.350,-12.503,-11.331,-0.781,-63.687,0.391,-0.391,1.172,-10.159,-8.987,-11.331
'[07:33:46.777 07/11/2076]',-9.377,5.079,1.172,-11.722,3.516,-30.867,4.298,6.642,8.596,-62.515,0.000,5.079,-20.708,-18.755,-11.331,4.298,-60.952,9.768,-0.391,6.252,-12.894,-12.112,-11.331
'[07:33:46.781 07/11/2076]',-8.596,1.563,3.126,-10.549,-0.391,-29.695,2.735,10.549,4.298,-59.780,3.126,9.768,-15.629,-24.615,-12.112,10.159,-60.171,12.112,-2.344,10.940,-14.847,-16.410,-12.112
'[07:33:46.785 07/11/2076]',-12.894,2.344,3.126,-14.457,-4.689,-31.648,5.079,9.377,0.391,-58.217,0.781,4.689,-24.225,-14.066,-13.675,2.344,-64.860,5.861,-2.344,2.344,-6.642,-14.066,-13.675
'[07:33:46.789 07/11/2076]',-20.708,1.954,3.907,-12.503,-11.722,-39.853,8.596,14.457,-7.424,-53.919,-5.470,9.377,-34.383,-3.516,-16.410,-1.954,-67.985,11.331,-3.126,-5.470,4.298,-11.331,-16.410
'[07:33:46.793 07/11/2076]',-19.145,-0.781,8.205,-13.284,-14.847,-37.900,11.722,14.457,-13.284,-47.277,0.000,13.675,-25.397,-8.987,-12.503,1.563,-66.032,22.271,-7.424,3.126,1.563,-17.582,-12.503
'[07:33:46.797 07/11/2076]',-16.801,-1.172,12.894,-14.847,-15.238,-33.993,13.675,14.066,-15.629,-42.198,4.689,13.675,-21.490,-8.987,-9.768,1.563,-66.422,28.523,-12.112,8.205,-1.563,-18.364,-9.768
'[07:33:46.801 07/11/2076]',-14.847,2.344,11.722,-17.192,-13.284,-26.960,9.377,11.722,-11.722,-41.416,4.689,7.033,-29.695,3.126,-10.159,-3.126,-71.111,19.536,-10.940,0.000,-5.470,-4.689,-10.159
'[07:33:46.805 07/11/2076]',-14.066,3.907,12.894,-18.364,-12.503,-23.053,7.033,11.722,-7.814,-39.853,6.642,3.516,-32.821,9.377,-8.596,-4.689,-71.111,12.503,-12.112,-5.470,-8.596,1.954,-8.596
'[07:33:46.809 07/11/2076]',-10.159,4.689,16.020,-20.317,-10.940,-17.582,6.642,11.331,-8.205,-31.648,7.424,5.470,-24.225,1.954,-2.344,-2.735,-63.687,19.536,-15.238,7.424,-17.582,-8.205,-2.344
'[07:33:46.813 07/11/2076]',-7.814,6.642,19.536,-21.490,-10.940,-13.675,9.768,11.722,-10.159,-25.397,8.987,6.642,-21.490,0.391,4.298,-3.907,-59.780,23.053,-18.755,10.549,-21.099,-12.894,4.298
'[07:33:46.816 07/11/2076]',-10.549,11.331,22.271,-17.192,-16.020,-11.331,12.894,19.927,-11.331,-19.927,7.424,14.457,-19.927,3.907,8.596,-2.735,-55.873,23.834,-21.490,7.424,-19.536,-9.768,8.596
'[07:33:46.820 07/11/2076]',-8.987,16.410,25.788,-13.284,-17.582,-6.642,15.629,27.741,-10.159,-12.112,8.596,16.801,-14.847,7.033,14.457,-4.298,-48.840,28.132,-25.006,5.079,-18.755,-7.424,14.457
'[07:33:46.824 07/11/2076]',-6.642,23.053,28.913,-10.940,-15.629,-3.516,19.927,33.211,-5.079,-8.205,8.987,14.457,-13.675,13.284,19.145,-8.596,-41.026,28.132,-28.132,2.735,-17.192,-3.126,19.145
'[07:33:46.828 07/11/2076]',-1.172,27.350,32.430,-8.987,-9.377,-2.735,22.271,39.072,1.172,-4.689,7.424,17.582,-6.642,15.238,23.053,-9.768,-34.383,23.443,-31.648,0.000,-14.457,0.000,23.053
'[07:33:46.832 07/11/2076]',5.470,28.523,35.946,-8.987,-1.563,-3.126,22.271,42.589,6.642,-1.954,8.987,19.536,4.689,10.159,26.569,-8.596,-28.523,19.145,-35.165,1.563,-13.675,-2.344,26.569
'[07:33:46.836 07/11/2076]',10.549,31.648,37.509,-11.722,5.861,-1.563,22.271,40.244,12.503,0.391,8.987,17.192,8.987,10.940,30.476,-10.549,-26.960,17.192,-36.728,3.516,-16.801,-3.126,30.476
'[07:33:46.840 07/11/2076]',10.940,33.211,36.728,-10.549,9.768,-3.126,21.880,40.635,17.582,3.516,5.079,18.364,5.470,19.145,32.039,-12.112,-24.225,12.894,-35.946,-0.781,-15.629,1.172,32.039
'[07:33:46.844 07/11/2076]',14.457,28.132,35.946,-7.033,12.503,-4.298,19.536,42.979,21.099,5.861,3.126,23.053,12.894,15.629,34.383,-8.596,-15.238,15.238,-35.165,3.907,-15.629,-1.563,34.383
'[07:33:46.848 07/11/2076]',16.801,21.880,33.993,-3.907,13.675,-5.861,17.192,43.761,23.834,6.252,2.344,23.053,18.755,12.503,34.774,-8.987,-8.205,12.503,-33.211,8.205,-12.894,-3.907,34.774
'[07:33:46.852 07/11/2076]',10.159,23.053,29.695,-1.172,12.112,-12.503,17.192,44.933,28.132,4.689,-4.298,14.847,3.126,32.821,30.476,-22.662,-8.987,-8.205,-28.913,-9.768,4.298,8.205,30.476
'[07:33:46.855 07/11/2076]',11.722,24.225,30.476,-8.205,13.284,-12.503,19.145,36.728,32.821,4.689,-3.126,0.391,0.000,40.244,29.304,-34.774,-1.172,-14.457,-29.695,-15.238,12.112,11.722,29.304
'[07:33:46.859 07/11/2076]',19.927,20.317,28.913,-10.940,16.801,-5.079,16.410,29.304,31.648,7.814,-0.781,1.563,14.066,20.708,32.821,-26.960,10.549,-3.516,-28.132,2.735,0.000,-3.126,32.821
'[07:33:46.863 07/11/2076]',25.006,17.582,28.132,-10.549,22.271,-0.391,11.331,24.615,28.913,12.112,1.563,2.344,18.364,11.722,35.165,-19.536,14.457,-1.172,-27.350,15.238,-11.331,-10.159,35.165
'[07:33:46.867 07/11/2076]',22.271,19.145,23.443,-10.159,23.834,1.563,7.424,19.536,27.350,13.675,1.172,-3.516,8.596,20.708,32.039,-21.099,14.457,-15.629,-22.662,7.424,-9.768,-0.781,32.039
'[07:33:46.871 07/11/2076]',19.927,16.410,17.192,-8.596,24.615,1.172,2.735,15.238,23.053,15.629,0.391,-5.470,1.563,24.615,27.741,-19.145,17.582,-23.834,-16.410,2.735,-11.331,4.298,27.741
'[07:33:46.875 07/11/2076]',17.192,15.238,14.066,-9.768,26.178,1.172,0.000,8.205,17.973,19.536,1.172,-10.940,0.391,21.099,23.834,-16.410,22.662,-23.443,-13.284,7.814,-10.159,-2.735,23.834
'[07:33:46.879 07/11/2076]',16.410,15.238,12.503,-15.238,26.569,1.563,0.391,0.391,15.629,20.708,3.126,-19.536,-3.126,22.271,20.708,-19.536,26.569,-30.867,-11.722,5.470,-8.987,-4.689,20.708
'[07:33:46.883 07/11/2076]',18.364,14.457,10.159,-16.020,25.397,5.079,-0.391,-3.907,12.894,22.271,4.689,-20.708,-0.391,17.582,17.582,-14.457,29.695,-30.476,-9.377,3.907,-10.940,-5.079,17.582
'[07:33:46.887 07/11/2076]',17.582,13.675,8.205,-14.847,24.615,5.861,-1.172,-5.079,10.159,27.350,4.689,-23.443,-1.172,16.801,16.020,-12.112,32.821,-30.476,-7.424,2.735,-12.112,-6.252,16.020
'[07:33:46.891 07/11/2076]',14.066,16.020,6.642,-15.629,21.490,5.861,0.781,-7.814,7.424,31.648,4.689,-28.913,-8.596,24.615,15.238,-16.020,35.165,-31.648,-5.861,-3.126,-7.814,-3.516,15.238
'[07:33:46.895 07/11/2076]',12.894,17.973,5.079,-16.020,19.536,8.205,1.954,-9.768,7.814,34.383,4.689,-28.913,-6.252,25.397,13.675,-13.284,39.463,-33.993,-4.298,-5.470,-6.252,-3.126,13.675
'[07:33:46.898 07/11/2076]',13.675,18.755,3.126,-17.192,17.192,12.503,1.563,-12.503,9.768,34.774,7.033,-26.569,-0.391,20.317,13.284,-7.424,42.979,-35.165,-2.344,-0.391,-11.331,-8.596,13.284
'[07:33:46.902 07/11/2076]',11.722,21.099,1.563,-21.099,14.847,14.457,0.781,-16.020,12.503,33.602,6.252,-29.304,-5.079,26.178,10.549,-8.205,41.026,-42.979,-0.781,-5.079,-11.331,-6.642,10.549
'[07:33:46.906 07/11/2076]',10.940,22.662,1.563,-22.662,12.112,12.503,3.516,-17.192,14.457,33.602,5.470,-29.304,-10.549,36.337,8.205,-8.205,43.761,-44.933,-0.781,-12.112,-9.377,-1.563,8.205
'[07:33:46.910 07/11/2076]',15.629,19.536,3.126,-17.973,10.940,10.549,8.987,-11.331,10.159,40.244,6.642,-18.755,-3.516,32.039,8.596,0.391,54.310,-33.602,-2.344,-7.033,-13.284,-5.079,8.596
'[07:33:46.914 07/11/2076]',13.675,16.410,6.252,-11.722,7.814,4.689,13.284,-2.735,3.516,44.151,6.252,-8.205,-4.689,37.509,7.814,5.470,55.092,-32.821,-5.470,-12.894,-7.814,-1.172,7.814
'[07:33:46.918 07/11/2076]',10.940,22.271,9.768,-17.973,6.642,4.298,20.708,-7.424,4.298,46.105,9.377,-17.582,-11.722,50.403,8.987,-3.907,53.138,-32.430,-8.987,-22.662,-2.344,3.126,8.987
'[07:33:46.922 07/11/2076]',13.284,29.695,10.940,-23.443,8.205,6.252,26.569,-10.549,5.861,48.449,14.066,-23.443,-12.503,57.436,10.549,-9.377,50.794,-24.615,-10.159,-30.476,-1.172,8.205,10.549
'[07:33:46.926 07/11/2076]',22.662,30.085,10.940,-24.615,13.675,14.847,23.834,-12.894,2.735,50.794,18.755,-13.675,5.861,34.774,13.675,4.689,51.575,-1.954,-10.159,-9.768,-18.364,-7.033,13.675
'[07:33:46.930 07/11/2076]',29.695,30.867,13.675,-27.741,17.192,19.145,24.225,-15.629,0.781,52.357,25.006,-11.331,14.066,26.960,17.192,8.596,48.059,9.377,-12.894,0.000,-25.788,-14.066,17.192
'[07:33:46.934 07/11/2076]',30.085,32.430,13.675,-24.615,15.238,20.708,25.006,-9.768,-0.391,53.138,25.788,-7.424,9.768,33.602,17.192,9.377,44.933,10.940,-12.894,-7.424,-25.006,-3.907,17.192
'[07:33:46.938 07/11/2076]',27.741,33.211,14.847,-19.927,10.549,20.317,26.178,-2.344,-3.907,54.701,25.006,-3.516,4.689,40.635,16.801,10.159,43.761,14.066,-14.066,-12.503,-23.834,3.516,16.801
'[07:33:46.941 07/11/2076]',24.615,33.602,21.880,-22.662,3.126,23.834,30.867,-1.563,-5.861,58.608,25.788,-6.642,1.563,44.151,19.927,5.861,45.324,18.755,-21.099,-8.987,-19.536,-0.391,19.927
'[07:33:46.945 07/11/2076]',24.615,34.383,24.225,-26.178,0.391,26.960,32.430,-2.735,-4.689,60.171,26.569,-14.066,1.954,44.151,21.490,0.000,44.151,17.973,-23.443,-9.377,-17.973,-0.781,21.490
'[07:33:46.949 07/11/2076]',25.397,31.258,22.271,-21.099,0.391,28.132,27.741,0.781,-6.642,61.734,25.006,-12.112,6.642,37.509,20.317,2.344,42.979,17.582,-21.490,-5.470,-19.145,-1.563,20.317
'[07:33:46.953 07/11/2076]',25.006,27.741,20.317,-17.582,3.516,25.397,24.615,1.172,-7.424,64.469,21.880,-14.066,6.252,35.946,19.145,2.344,41.807,16.801,-19.536,-2.735,-17.973,0.391,19.145
'[07:33:46.957 07/11/2076]',24.615,28.132,18.755,-17.192,7.814,25.006,22.271,-0.781,-4.298,68.376,18.755,-21.880,2.735,41.807,20.317,-3.907,43.370,14.847,-17.973,-7.424,-16.020,7.424,20.317
'[07:33:46.961 07/11/2076]',27.350,28.523,17.192,-15.238,12.112,27.741,20.317,-2.735,-1.172,73.065,17.973,-23.443,10.159,38.681,19.145,-2.344,50.403,17.192,-16.410,-8.205,-16.410,11.722,19.145
'[07:33:46.965 07/11/2076]',28.132,26.569,19.536,-11.722,10.549,32.039,19.145,-0.391,0.391,76.190,19.145,-21.099,20.708,32.039,20.317,1.954,56.654,16.410,-18.755,-3.516,-16.801,10.159,20.317
'[07:33:46.969 07/11/2076]',27.350,28.913,21.099,-14.066,7.424,35.946,23.053,-3.126,4.298,77.753,17.582,-26.960,22.271,38.681,17.582,-5.861,57.827,10.159,-20.317,-10.549,-6.642,14.457,17.582
'[07:33:46.973 07/11/2076]',23.834,28.913,21.099,-12.112,4.689,33.993,27.350,-3.907,6.642,78.144,14.457,-32.039,21.880,44.151,14.066,-12.503,61.343,6.252,-20.317,-17.582,5.861,19.536,14.066
'[07:33:46.977 07/11/2076]',23.834,20.708,21.490,-1.172,0.391,30.867,30.476,2.344,1.954,77.363,12.112,-17.582,35.165,28.523,11.722,-2.344,68.376,19.927,-20.708,-6.642,12.894,10.940,11.722
'[07:33:46.980 07/11/2076]',24.225,18.364,20.708,-0.781,2.344,30.085,32.039,-1.563,5.470,72.283,14.066,-20.317,39.463,27.350,9.377,-3.907,69.158,21.880,-19.927,-5.861,20.708,11.331,9.377
'[07:33:46.984 07/11/2076]',19.145,24.225,17.973,-3.516,4.298,31.648,29.695,-8.205,13.675,66.422,14.066,-33.602,31.258,39.072,4.689,-14.066,62.515,9.377,-17.192,-19.927,31.648,23.443,4.689
'[07:33:46.988 07/11/2076]',18.755,24.225,14.847,-1.954,8.987,33.211,23.053,-9.768,20.708,61.343,14.457,-35.946,30.085,39.853,2.344,-10.549,56.654,9.377,-14.066,-23.053,29.695,29.304,2.344
'[07:33:46.992 07/11/2076]',20.708,18.755,16.801,0.781,10.549,34.383,21.099,-8.596,22.662,60.952,17.192,-30.476,40.635,24.225,6.252,-0.391,57.045,21.490,-16.020,-5.470,21.099,16.020,6.252
'[07:33:46.996 07/11/2076]',22.662,15.629,20.708,1.172,14.457,33.211,21.880,-9.377,24.615,60.171,20.317,-28.913,48.059,14.847,9.768,3.126,55.482,26.569,-19.927,1.563,19.536,8.987,9.768
'[07:33:47.000 07/11/2076]',21.880,11.331,17.192,11.722,14.066,29.695,21.099,-2.344,24.615,56.654,18.755,-22.662,47.277,13.284,8.987,7.424,48.059,29.695,-16.410,-3.516,22.271,13.284,8.987
'[07:33:47.004 07/11/2076]',19.927,8.205,14.066,20.708,14.066,25.788,21.490,1.563,27.350,52.747,18.364,-20.708,47.277,12.112,11.331,7.033,44.542,33.211,-13.284,-4.298,25.006,16.410,11.331
'[07:33:47.008 07/11/2076]',19.927,8.987,12.112,21.880,19.145,24.225,21.490,-1.563,32.039,50.012,19.145,-27.350,47.277,11.722,14.066,0.391,42.589,32.821,-11.331,-4.298,26.960,15.629,14.066
'[07:33:47.012 07/11/2076]',20.708,7.424,10.549,25.006,23.053,24.225,18.755,-1.954,34.774,48.449,17.192,-28.132,48.059,11.722,15.238,-1.954,41.416,29.304,-9.768,-2.735,29.304,15.629,15.238
'[07:33:47.016 07/11/2076]',21.880,3.126,9.768,30.085,23.834,23.834,15.629,0.391,34.774,44.933,17.192,-23.443,53.138,6.642,14.066,0.000,39.463,23.834,-8.987,3.126,27.741,13.675,14.066
'[07:33:47.020 07/11/2076]',21.880,1.563,10.159,29.304,23.053,26.569,13.284,0.391,35.165,40.635,16.801,-24.225,50.794,7.814,13.284,-3.126,39.072,16.410,-9.377,4.298,28.132,13.284,13.284
'[07:33:47.023 07/11/2076]',21.880,1.563,10.159,29.695,25.006,26.569,12.894,-0.781,36.728,37.900,15.238,-25.006,46.496,11.722,10.940,-3.907,37.900,12.503,-9.377,0.391,31.258,16.801,10.940
'[07:33:47.027 07/11/2076]',25.006,-4.298,10.549,35.946,27.350,25.397,10.159,3.516,33.602,36.337,14.066,-16.020,50.794,3.126,12.112,1.954,38.681,13.675,-9.768,8.596,28.132,14.066,12.112
'[07:33:47.031 07/11/2076]',23.053,-8.596,11.722,45.324,29.304,22.271,8.987,10.159,32.821,34.383,12.503,-7.814,57.436,-7.033,15.629,6.642,37.900,14.066,-10.940,12.503,33.993,9.377,15.629
'[07:33:47.035 07/11/2076]',16.020,-8.596,15.238,48.059,30.867,14.457,10.940,13.675,32.039,33.602,10.549,-9.377,50.403,1.563,16.801,-0.781,32.430,5.079,-14.457,5.470,46.105,14.847,16.801
'[07:33:47.039 07/11/2076]',6.642,-8.987,15.629,55.092,25.397,3.126,16.410,22.271,27.350,35.556,5.079,-6.252,44.933,9.377,15.238,-7.033,30.867,8.205,-14.847,0.781,58.999,17.582,15.238
'[07:33:47.043 07/11/2076]',7.814,-7.814,14.847,57.045,24.225,2.735,15.238,27.741,27.741,34.383,5.079,-0.391,55.482,2.344,13.675,-4.298,34.774,15.629,-14.066,5.861,56.264,14.457,13.675
'[07:33:47.047 07/11/2076]',10.549,-8.205,11.722,53.138,23.834,1.172,15.629,25.006,26.960,32.821,8.205,-4.298,58.217,1.172,12.503,-6.252,33.993,15.629,-10.940,8.987,50.794,13.675,12.503
'[07:33:47.051 07/11/2076]',10.549,-3.907,0.000,47.668,24.615,0.781,8.205,18.364,33.211,26.960,5.470,-9.768,50.794,9.768,3.907,-8.205,26.178,-2.735,0.781,0.391,42.979,23.834,3.907
'[07:33:47.055 07/11/2076]',9.768,-4.689,-9.377,42.979,23.053,-0.391,1.172,12.112,36.337,23.834,2.344,-14.847,47.668,12.112,-1.172,-9.377,23.834,-14.457,10.159,-5.470,39.072,28.913,-1.172
'[07:33:47.059 07/11/2076]',9.768,-9.377,-14.847,36.337,21.490,-1.954,-0.391,2.735,33.602,23.834,0.391,-14.457,53.529,-0.391,-3.126,-5.079,26.569,-14.457,15.629,8.205,32.039,14.066,-3.126
'[07:33:47.063 07/11/2076]',9.377,-11.722,-16.801,30.085,19.927,-3.126,-1.954,-3.907,31.648,23.834,-1.954,-17.973,58.608,-5.861,-8.987,-6.642,28.523,-18.755,17.582,12.894,30.085,8.987,-8.987
'[07:33:47.066 07/11/2076]',8.596,-10.940,-20.708,28.523,17.582,-3.516,-4.298,-4.298,28.913,24.615,-5.861,-18.755,58.608,-4.298,-16.410,-7.033,30.867,-21.099,21.490,8.596,31.648,13.675,-16.410
'[07:33:47.070 07/11/2076]',9.768,-8.596,-22.271,28.132,17.582,-1.172,-4.298,-4.689,28.913,27.741,-6.642,-22.271,58.217,0.000,-19.927,-9.377,34.383,-17.582,23.053,5.079,30.867,17.582,-19.927
'[07:33:47.074 07/11/2076]',12.503,-3.907,-22.662,25.006,21.490,-0.781,-1.172,-7.814,28.913,32.821,-7.424,-28.132,54.310,8.596,-22.662,-13.284,38.681,-15.629,23.443,-0.781,31.648,23.053,-22.662
'[07:33:47.078 07/11/2076]',15.238,-1.563,-22.662,22.662,24.615,-1.954,0.391,-9.768,26.569,39.072,-7.814,-26.960,51.966,13.675,-21.880,-12.503,43.761,-16.801,23.443,-5.861,31.648,24.615,-21.880
'[07:33:47.082 07/11/2076]',18.755,-0.781,-22.662,18.364,24.615,1.954,1.172,-15.238,21.490,45.324,-6.252,-23.443,54.310,10.940,-18.755,-8.205,47.277,-16.020,23.443,-0.781,25.788,16.801,-18.755
'[07:33:47.086 07/11/2076]',21.490,1.954,-25.397,11.331,25.788,5.861,0.781,-22.662,14.847,47.668,-4.298,-26.178,48.059,12.503,-19.927,-7.424,49.621,-18.364,26.178,1.954,19.536,10.549,-19.927
'[07:33:47.090 07/11/2076]',21.099,3.516,-30.867,7.424,23.834,4.298,-1.172,-25.397,8.205,45.714,-6.252,-26.960,35.165,18.755,-25.006,-6.642,50.012,-22.271,31.648,0.000,14.066,10.159,-25.006
'[07:33:47.094 07/11/2076]',23.053,2.735,-33.602,7.424,19.145,7.033,-3.516,-23.053,0.000,45.714,-8.596,-19.145,33.993,10.159,-25.397,-1.172,52.747,-16.020,34.383,5.079,4.689,3.907,-25.397
'[07:33:47.098 07/11/2076]',23.834,2.344,-32.039,9.768,14.066,8.205,-1.172,-17.973,-5.470,44.151,-6.642,-14.066,34.383,3.907,-23.443,3.126,54.701,-14.066,32.821,7.424,-0.391,0.391,-23.443
'[07:33:47.102 07/11/2076]',16.020,5.470,-28.913,12.112,7.814,1.563,4.689,-9.377,-6.642,40.244,-9.768,-14.457,15.629,22.271,-21.099,-7.814,49.231,-27.350,29.695,-14.457,11.331,15.629,-21.099
'[07:33:47.105 07/11/2076]',13.675,12.894,-22.271,7.424,5.861,6.252,9.377,-10.940,-5.470,46.105,-10.940,-18.755,15.629,28.132,-15.238,-16.410,52.357,-26.178,23.053,-19.536,14.066,18.364,-15.238
'[07:33:47.109 07/11/2076]',19.927,14.847,-13.284,4.689,7.033,15.238,14.457,-12.112,-3.516,54.310,-2.735,-14.847,35.556,12.894,-6.252,-8.596,65.250,-10.159,14.066,-3.126,4.689,5.470,-6.252
'[07:33:47.113 07/11/2076]',27.350,17.192,-8.205,4.689,14.457,23.443,12.112,-8.596,0.000,57.045,0.781,-7.033,44.933,6.642,-2.735,2.735,68.376,-5.470,8.987,5.861,-4.298,0.000,-2.735
'[07:33:47.117 07/11/2076]',28.913,23.834,-6.252,7.424,16.801,28.523,12.112,-5.079,5.861,58.217,1.172,-5.861,41.026,17.582,-2.735,5.079,66.813,-12.503,7.033,-3.516,-2.344,9.377,-2.735
'[07:33:47.121 07/11/2076]',28.523,26.569,-5.470,14.066,17.192,31.258,12.503,2.344,12.894,55.092,2.735,-0.781,39.853,22.662,-1.954,10.940,66.422,-10.549,6.252,-11.722,0.000,16.410,-1.954
'[07:33:47.125 07/11/2076]',32.039,25.788,-4.689,17.582,17.582,33.993,14.066,3.907,17.192,51.184,3.907,3.126,40.635,18.755,-0.391,17.582,70.330,-3.516,5.470,-4.689,-1.954,8.596,-0.391
'[07:33:47.129 07/11/2076]',32.821,22.662,-5.861,17.973,17.582,34.383,14.847,0.391,20.317,47.668,3.126,0.391,41.416,14.847,-1.172,18.364,67.985,-3.126,6.642,-2.735,0.391,5.861,-1.172
'[07:33:47.133 07/11/2076]',30.867,18.364,-9.768,19.927,13.284,33.602,11.722,0.000,22.662,43.370,-0.391,0.391,45.714,5.861,-5.079,21.099,67.595,-3.516,10.549,-0.391,-0.391,4.689,-5.079
'[07:33:47.137 07/11/2076]',30.867,13.284,-12.112,20.317,10.549,31.258,8.987,0.391,21.880,39.463,-4.689,1.172,42.979,-0.781,-8.596,25.397,66.032,-6.252,12.894,1.563,-3.126,2.735,-8.596
'[07:33:47.141 07/11/2076]',25.397,13.284,-12.503,20.317,9.377,27.741,7.424,1.954,21.490,35.556,-9.768,0.391,35.165,-1.954,-8.987,25.006,62.906,-10.549,13.284,-2.735,-0.391,1.954,-8.987
'[07:33:47.145 07/11/2076]',25.006,12.894,-10.159,19.927,10.549,27.350,5.470,3.516,19.536,32.821,-11.331,1.954,33.602,-7.814,-6.642,25.397,64.469,-14.066,10.940,-4.689,-0.391,0.781,-6.642
'[07:33:47.148 07/11/2076]',25.788,11.331,-8.205,20.317,13.284,28.523,2.344,4.689,17.192,27.350,-8.205,6.252,35.165,-17.973,-5.079,32.430,62.125,-16.020,8.987,1.954,-3.907,-6.642,-5.079
'[07:33:47.152 07/11/2076]',22.662,10.940,-10.549,21.880,12.503,28.132,-1.563,5.861,16.410,20.708,-7.814,4.689,26.569,-16.410,-6.252,31.258,53.138,-21.099,11.331,0.391,-1.172,-7.424,-6.252
'[07:33:47.156 07/11/2076]',17.973,10.940,-11.722,22.271,10.940,22.662,-0.781,5.470,15.629,17.192,-13.284,1.563,17.582,-11.722,-12.112,28.523,47.668,-23.443,12.503,-5.861,5.861,-3.126,-12.112
'[07:33:47.160 07/11/2076]',15.238,4.689,-9.768,25.397,6.642,17.582,0.391,9.768,13.284,15.629,-16.020,5.861,21.490,-20.708,-16.020,35.556,44.933,-12.112,10.549,1.172,7.424,-8.205,-16.020
'[07:33:47.164 07/11/2076]',8.987,-1.954,-9.768,34.383,0.000,8.205,0.391,21.490,9.768,11.331,-19.927,14.066,17.582,-21.490,-18.364,38.681,35.165,-12.112,10.549,-3.126,15.629,-5.079,-18.364
'[07:33:47.168 07/11/2076]',1.954,0.781,-3.126,25.397,-1.172,3.907,5.861,14.847,10.940,10.940,-19.145,1.954,5.470,-8.596,-15.629,25.397,29.304,-18.755,3.907,-12.112,25.397,-1.563,-15.629
'[07:33:47.172 07/11/2076]',-1.172,3.516,1.563,17.192,0.000,1.563,9.377,8.987,13.284,11.331,-14.457,-6.252,-1.954,0.391,-10.159,17.192,26.178,-17.192,-0.781,-15.629,23.834,3.516,-10.159
'[07:33:47.176 07/11/2076]',4.689,-1.563,2.735,19.145,6.252,3.516,5.470,8.596,11.331,10.940,-7.424,5.079,8.987,-18.755,-1.172,32.430,26.960,-1.954,-1.954,6.252,4.298,-11.331,-1.172
'[07:33:47.180 07/11/2076]',7.424,-2.344,6.642,15.238,13.675,0.391,5.470,5.470,12.894,8.205,-1.172,7.033,13.675,-24.615,3.516,36.337,25.006,3.907,-5.861,13.675,-0.781,-16.801,3.516
'[07:33:47.184 07/11/2076]',3.516,-1.563,6.642,16.801,15.238,-3.126,5.861,7.033,16.410,2.735,-1.172,5.470,8.596,-16.801,-0.781,33.602,18.755,0.000,-5.861,4.689,2.735,-5.079,-0.781
'[07:33:47.188 07/11/2076]',0.781,-3.907,5.861,20.708,16.410,-8.205,5.079,9.377,17.582,-3.126,-2.735,3.907,6.252,-16.410,-5.079,31.648,13.675,-0.781,-5.079,-2.344,8.205,1.563,-5.079
'[07:33:47.191 07/11/2076]',-1.563,-5.079,8.205,17.973,14.847,-9.768,8.596,4.689,17.973,-4.298,-1.954,-2.735,7.424,-18.364,-4.298,24.225,10.159,4.689,-7.424,1.563,13.284,-4.298,-4.298
'[07:33:47.195 07/11/2076]',-3.516,-6.252,10.549,12.894,13.675,-9.377,12.112,-2.735,19.927,-3.126,-3.126,-11.722,7.033,-19.927,-2.344,17.973,8.596,3.907,-9.768,3.516,14.066,-4.689,-2.344
'[07:33:47.199 07/11/2076]',-4.298,-10.940,9.377,16.020,12.503,-10.549,9.768,-1.954,20.317,0.000,-7.814,-10.549,9.377,-27.741,0.391,20.708,3.126,6.642,-8.596,7.424,9.768,-5.470,0.391
'[07:33:47.203 07/11/2076]',-5.861,-12.894,7.033,16.801,11.722,-12.894,7.814,-1.563,25.397,0.391,-12.503,-10.549,8.987,-30.085,2.735,20.708,-2.735,8.596,-6.252,9.377,7.033,-5.470,2.735
'[07:33:47.207 07/11/2076]',-8.205,-11.722,2.735,14.066,11.722,-16.410,6.642,-5.861,31.648,0.000,-18.364,-17.192,2.344,-22.662,0.391,16.020,-7.033,8.596,-1.954,2.344,7.033,3.126,0.391
'[07:33:47.211 07/11/2076]',-7.424,-10.940,0.391,15.238,13.284,-16.410,5.861,-5.470,35.946,-1.954,-20.317,-14.457,4.298,-22.271,-1.954,18.364,-9.377,13.675,0.391,1.563,7.424,7.424,-1.954
'[07:33:47.215 07/11/2076]',-5.861,-10.940,-1.954,18.364,12.503,-16.410,4.689,-1.172,36.728,-5.470,-20.708,-7.814,10.159,-26.178,-3.907,22.271,-13.675,12.112,2.735,4.298,7.424,5.861,-3.907
'[07:33:47.219 07/11/2076]',-7.424,-6.642,-4.298,15.629,8.205,-17.973,5.861,-0.781,37.118,-9.377,-23.834,-10.159,4.689,-15.238,-7.814,11.722,-20.708,1.563,5.079,-1.172,16.020,9.768,-7.814
'[07:33:47.223 07/11/2076]',-12.894,-1.954,-5.079,13.675,5.079,-22.271,8.987,1.563,35.165,-8.205,-28.913,-9.768,-0.391,-1.954,-12.894,4.298,-21.099,-4.298,5.861,-8.987,26.960,15.238,-12.894
'[07:33:47.227 07/11/2076]',-11.722,-5.861,-3.516,20.317,-0.391,-26.569,9.377,14.847,26.178,-2.735,-33.993,4.689,10.940,-12.112,-14.847,11.331,-12.112,1.563,4.298,-1.172,30.867,3.516,-14.847
'[07:33:47.230 07/11/2076]',-10.159,-5.861,-3.126,17.973,-3.516,-25.006,10.940,15.629,22.271,0.781,-33.211,5.861,14.066,-10.549,-19.927,12.894,-7.814,0.000,3.907,-0.781,30.476,0.391,-19.927
'[07:33:47.234 07/11/2076]',-9.768,2.344,-4.298,11.722,-2.735,-21.099,11.722,11.722,23.053,3.907,-28.132,-3.126,7.424,5.861,-24.615,5.861,-7.814,-6.252,5.079,-16.410,34.774,9.768,-24.615
'[07:33:47.238 07/11/2076]',-4.689,4.298,-6.252,11.722,-0.391,-16.801,9.768,12.503,18.364,5.079,-21.490,0.391,6.252,8.987,-24.615,12.503,-5.861,-4.298,7.033,-17.582,23.834,11.722,-24.615
'[07:33:47.242 07/11/2076]',4.689,1.172,-7.814,9.377,0.391,-11.722,7.033,11.722,11.722,7.033,-14.847,8.987,16.410,-3.516,-19.536,21.099,0.000,7.424,8.596,0.000,5.079,-2.735,-19.536
'[07:33:47.246 07/11/2076]',10.159,0.000,-9.377,4.689,1.954,-10.549,5.861,7.424,4.689,5.861,-5.470,14.457,21.490,-7.814,-16.020,23.053,2.344,10.159,10.159,7.424,-3.516,-10.940,-16.020
'[07:33:47.250 07/11/2076]',11.331,-0.781,-14.847,7.033,2.344,-13.675,3.907,9.768,-2.735,5.079,-6.252,23.443,16.020,-5.079,-17.192,27.350,3.907,5.079,15.629,3.907,-10.159,-6.642,-17.192
'[07:33:47.254 07/11/2076]',13.675,-1.563,-19.145,6.252,1.172,-13.675,1.172,10.549,-7.424,5.079,-5.861,25.397,12.894,-2.344,-21.490,29.304,5.861,5.861,19.927,-0.391,-14.066,-5.470,-21.490
'[07:33:47.258 07/11/2076]',14.847,0.391,-21.099,2.735,0.781,-12.112,2.735,5.079,-12.112,6.252,-1.954,21.490,9.768,-0.781,-23.443,28.132,8.987,8.987,21.880,-1.954,-14.847,-9.377,-23.443
'[07:33:47.262 07/11/2076]',17.582,1.954,-21.880,1.172,0.391,-9.768,4.689,3.907,-16.801,8.205,0.781,21.099,9.377,0.000,-24.615,30.867,9.768,12.894,22.662,-3.126,-17.582,-11.331,-24.615
'[07:33:47.266 07/11/2076]',21.099,0.391,-23.443,3.516,-1.563,-7.033,3.907,6.252,-23.834,10.159,7.033,24.615,10.159,-3.126,-23.834,36.337,10.159,16.020,24.225,1.172,-25.006,-15.238,-23.834
'[07:33:47.270 07/11/2076]',18.364,3.516,-22.662,1.172,-7.033,-3.126,5.470,6.252,-29.695,12.503,12.503,22.662,7.033,0.391,-21.099,33.993,13.284,17.192,23.443,0.391,-26.960,-14.847,-21.099
'[07:33:47.273 07/11/2076]',15.629,7.814,-23.443,0.391,-11.331,-1.172,7.814,5.079,-31.258,15.238,15.238,21.099,1.563,6.252,-20.708,34.383,16.410,16.801,24.225,-2.735,-28.913,-11.722,-20.708
'[07:33:47.277 07/11/2076]',17.582,5.079,-23.443,3.907,-12.503,0.391,7.033,7.814,-33.211,17.192,15.629,26.960,5.079,-0.391,-18.755,42.589,23.053,21.490,24.225,2.344,-35.556,-16.020,-18.755
'[07:33:47.281 07/11/2076]',15.629,0.391,-20.708,6.252,-17.973,1.172,6.252,10.940,-32.821,14.847,16.020,33.211,10.549,-8.596,-18.364,49.231,26.569,25.788,21.490,7.424,-37.118,-19.536,-18.364
'[07:33:47.285 07/11/2076]',9.768,1.563,-19.536,3.126,-24.225,0.391,10.549,7.814,-28.523,12.503,14.457,26.960,4.298,-0.781,-19.536,43.761,22.662,21.490,20.317,0.391,-28.523,-17.192,-19.536
'[07:33:47.289 07/11/2076]',3.126,0.000,-17.582,5.079,-31.648,-2.735,14.847,10.159,-28.913,12.894,9.768,28.523,-4.689,5.079,-16.801,39.853,22.271,29.695,18.364,-4.298,-17.973,-18.364,-16.801
'[07:33:47.293 07/11/2076]',2.735,-1.172,-15.238,5.470,-34.383,1.563,16.020,7.814,-27.741,13.675,9.377,32.039,1.172,-3.126,-14.066,45.714,27.350,39.463,16.020,-0.391,-17.973,-21.490,-14.066
'[07:33:47.297 07/11/2076]',6.252,-0.391,-12.503,1.172,-29.304,7.424,17.192,-0.391,-27.350,14.847,15.629,28.132,2.735,-10.940,-8.596,49.231,32.039,40.635,13.284,4.689,-20.317,-26.960,-8.596
'[07:33:47.301 07/11/2076]',6.252,1.563,-15.238,3.126,-23.443,12.112,12.503,-4.689,-23.053,11.722,19.927,25.006,-10.159,-2.735,-3.516,51.966,28.523,26.569,16.020,-4.298,-21.880,-17.192,-3.516
'[07:33:47.305 07/11/2076]',5.079,3.516,-15.629,6.252,-18.364,14.457,12.112,-8.596,-19.536,10.549,24.615,24.225,-17.973,0.781,0.781,57.436,26.569,26.569,16.410,-11.722,-24.615,-8.987,0.781
'[07:33:47.309 07/11/2076]',9.377,2.735,-11.331,7.033,-10.159,17.582,14.457,-14.457,-19.145,11.722,32.821,26.178,-14.847,-8.596,10.940,65.641,29.695,40.244,12.112,-1.172,-32.430,-17.973,10.940
'[07:33:47.313 07/11/2076]',9.768,3.907,-8.987,9.768,-5.861,20.708,17.973,-18.364,-17.192,14.847,41.026,26.178,-14.457,-10.159,23.834,67.204,27.741,51.575,9.768,0.391,-35.946,-20.317,23.834
'[07:33:47.316 07/11/2076]',8.205,3.516,-8.205,15.629,-2.735,21.099,18.364,-17.973,-15.629,19.145,40.635,28.132,-17.582,-6.252,30.085,67.595,25.788,54.701,8.987,-6.642,-32.039,-12.112,30.085
'[07:33:47.320 07/11/2076]',7.814,3.126,-7.424,18.364,1.954,20.708,18.364,-20.317,-14.066,23.053,40.244,24.615,-21.099,-4.689,36.337,64.078,27.741,54.701,8.205,-9.768,-28.913,-7.424,36.337
'[07:33:47.324 07/11/2076]',6.642,5.079,-8.205,16.801,5.470,21.490,17.582,-24.615,-10.940,26.960,41.026,19.536,-25.788,0.391,42.198,60.171,30.867,51.966,8.987,-13.284,-25.006,-5.470,42.198
'[07:33:47.328 07/11/2076]',8.596,1.563,-7.033,16.801,10.549,17.582,16.410,-26.178,-9.768,31.258,40.244,16.801,-27.350,3.126,45.714,57.827,33.211,48.449,7.814,-15.238,-22.271,-2.344,45.714
'[07:33:47.332 07/11/2076]',10.549,0.391,-5.861,16.801,14.457,19.145,15.238,-28.523,-9.768,33.993,43.370,17.973,-21.099,-1.563,49.621,59.780,34.383,51.966,6.642,-11.331,-21.880,-5.861,49.621
'[07:33:47.336 07/11/2076]',10.940,0.000,-3.516,12.894,17.192,19.536,16.020,-33.211,-9.377,36.728,48.840,10.940,-20.317,2.344,52.357,53.529,33.602,51.966,4.298,-9.377,-22.271,-5.079,52.357
'[07:33:47.340 07/11/2076]',8.205,0.000,-3.907,14.066,16.801,17.192,14.457,-31.258,-8.987,37.509,47.668,6.252,-26.569,12.112,53.138,44.151,31.648,51.966,4.689,-14.457,-20.708,1.954,53.138
'[07:33:47.344 07/11/2076]',7.424,-1.954,-2.344,16.020,14.847,17.192,13.284,-27.741,-12.894,38.681,46.496,10.940,-22.662,10.159,53.919,43.761,35.946,54.310,3.126,-12.503,-20.708,2.735,53.919
'[07:33:47.348 07/11/2076]',5.470,-3.516,0.391,16.801,11.331,14.457,14.847,-21.880,-15.629,38.291,45.714,14.457,-21.099,10.940,51.966,41.416,37.900,50.794,0.391,-12.112,-17.582,2.344,51.966
'[07:33:47.352 07/11/2076]',-1.954,-1.172,1.563,14.847,3.516,5.861,17.192,-15.238,-15.629,33.602,38.681,10.159,-37.509,33.602,46.105,25.006,32.430,33.602,-0.781,-33.993,-1.563,16.410,46.105
'[07:33:47.355 07/11/2076]',-2.735,2.344,4.298,7.033,0.781,8.205,17.973,-16.410,-14.847,33.602,37.118,4.689,-36.728,42.589,41.026,14.457,33.602,31.258,-3.516,-36.337,1.563,16.801,41.026
'[07:33:47.359 07/11/2076]',4.298,0.000,8.596,-0.391,0.781,12.503,17.973,-19.927,-15.629,35.165,40.244,5.861,-14.847,27.741,38.291,14.066,41.416,42.589,-7.814,-16.410,-8.596,1.954,38.291
'[07:33:47.363 07/11/2076]',11.722,-1.954,6.642,-7.424,2.735,17.973,10.549,-23.053,-13.675,30.867,40.635,7.424,-2.344,19.927,33.602,13.675,39.463,39.072,-5.861,-5.861,-21.099,-4.298,33.602
'[07:33:47.367 07/11/2076]',11.722,0.391,0.000,-16.020,1.172,19.927,3.126,-27.741,-8.987,26.960,35.556,-2.344,-3.907,31.648,24.615,-0.391,32.039,23.053,0.781,-11.722,-22.662,5.079,24.615
'[07:33:47.371 07/11/2076]',11.722,0.000,-6.642,-23.834,-2.344,16.801,-2.735,-31.258,-6.642,21.099,28.132,-10.549,-4.298,36.728,12.894,-11.722,25.397,10.549,7.424,-17.973,-22.662,12.503,12.894
'[07:33:47.375 07/11/2076]',12.894,-1.563,-10.549,-34.774,-4.298,13.675,-7.814,-35.165,-6.642,18.364,19.536,-15.629,-0.391,31.258,4.689,-18.755,21.099,8.205,11.331,-9.768,-25.397,2.344,4.689
'[07:33:47.379 07/11/2076]',14.066,-3.907,-13.675,-45.324,-6.252,7.814,-13.675,-37.509,-7.814,14.066,11.722,-23.834,2.344,30.476,-8.205,-28.913,16.801,-1.563,14.457,-4.689,-25.397,-1.172,-8.205
'[07:33:47.383 07/11/2076]',13.675,-6.642,-19.536,-51.966,-6.642,0.781,-20.317,-37.900,-9.768,7.814,4.298,-25.788,7.814,23.053,-21.880,-31.648,10.940,-9.377,20.317,-2.735,-27.350,-3.126,-21.880
'[07:33:47.387 07/11/2076]',14.457,-8.596,-23.443,-55.482,-7.033,-1.954,-26.178,-36.728,-13.675,3.126,0.391,-25.006,10.549,18.364,-32.039,-33.211,7.033,-14.457,24.225,0.000,-28.523,-5.861,-32.039
'[07:33:47.391 07/11/2076]',14.066,-7.424,-27.350,-57.827,-8.205,-3.907,-27.741,-36.728,-14.066,1.172,-3.907,-26.960,9.768,22.662,-38.291,-38.291,5.079,-17.192,28.132,-3.516,-23.834,-4.689,-38.291
'[07:33:47.395 07/11/2076]',15.238,-5.470,-29.695,-58.608,-8.205,-1.172,-27.350,-40.244,-12.894,3.126,-3.516,-29.304,14.457,21.099,-39.463,-39.072,9.377,-18.755,30.476,-5.470,-21.880,-3.516,-39.463
'[07:33:47.398 07/11/2076]',20.708,-8.596,-27.350,-55.482,-5.470,3.516,-27.350,-40.244,-9.377,5.470,-1.563,-25.788,23.834,13.675,-36.728,-32.430,10.549,-19.536,28.132,1.563,-23.834,-8.987,-36.728
'[07:33:47.402 07/11/2076]',22.662,-8.987,-27.741,-48.059,-3.516,5.079,-27.350,-36.337,-2.735,6.642,-3.516,-23.834,23.053,16.801,-32.430,-30.867,11.331,-26.960,28.523,0.000,-22.271,-6.252,-32.430
'[07:33:47.406 07/11/2076]',21.099,-10.549,-29.695,-38.291,-1.172,1.954,-25.788,-30.867,4.298,6.642,-7.033,-23.443,19.145,21.880,-29.695,-28.913,15.629,-33.602,30.476,-6.252,-19.145,0.391,-29.695
'[07:33:47.410 07/11/2076]',22.271,-14.847,-27.741,-24.225,-0.391,0.781,-23.053,-22.271,11.331,8.596,-6.642,-11.331,28.132,12.503,-18.755,-19.145,24.615,-29.304,28.523,-0.781,-18.364,-2.735,-18.755
'[07:33:47.414 07/11/2076]',19.536,-18.364,-28.523,-5.079,-2.735,-1.563,-21.099,-6.252,15.629,5.079,-7.814,4.298,29.695,8.987,-8.596,-11.331,26.178,-32.430,29.304,-5.861,-10.549,0.000,-8.596
'[07:33:47.418 07/11/2076]',14.847,-12.112,-23.834,-6.252,-1.954,-0.781,-12.894,-10.549,24.225,3.516,-3.907,-3.516,20.317,16.801,2.344,-18.755,28.132,-39.463,24.615,-16.020,-2.344,4.689,2.344
'[07:33:47.422 07/11/2076]',13.675,-4.689,-19.145,-8.596,0.781,3.516,-7.424,-16.020,34.383,0.781,0.391,-9.768,16.410,20.317,13.675,-23.834,30.867,-41.026,19.927,-22.662,-1.563,8.596,13.675
'[07:33:47.426 07/11/2076]',19.145,-4.689,-18.364,-4.298,5.079,8.205,-7.814,-13.675,35.556,-3.907,3.907,3.516,27.350,-5.079,24.225,-5.861,35.556,-27.741,19.145,-4.298,-17.973,-6.252,24.225
'[07:33:47.430 07/11/2076]',21.490,-2.735,-15.238,-6.252,8.987,10.549,-6.642,-16.410,41.026,-10.549,8.205,5.861,33.993,-18.755,30.085,0.000,36.337,-22.271,16.020,1.563,-24.615,-12.503,30.085
'[07:33:47.434 07/11/2076]',16.410,0.391,-16.410,-3.126,7.814,10.549,-8.205,-12.503,47.277,-18.755,6.252,6.252,30.476,-19.536,30.476,0.391,30.085,-24.225,17.192,-8.205,-21.099,-3.516,30.476
'[07:33:47.438 07/11/2076]',12.112,-0.391,-17.192,2.344,4.689,7.033,-7.424,-6.252,50.403,-27.741,5.470,11.722,26.960,-21.880,31.258,4.298,26.960,-21.490,17.973,-14.457,-16.020,0.781,31.258
'[07:33:47.441 07/11/2076]',9.768,-3.126,-12.112,0.391,3.126,5.079,-5.470,-7.424,51.184,-33.602,8.205,9.377,24.225,-26.960,33.993,3.907,25.788,-12.112,12.894,-9.377,-13.675,-3.907,33.993
'[07:33:47.445 07/11/2076]',8.596,-6.252,-9.377,-3.126,2.344,2.344,-4.689,-10.549,52.747,-40.244,10.940,3.126,20.317,-30.476,35.165,1.563,23.443,-16.020,10.159,-5.861,-14.066,-5.861,35.165
'[07:33:47.449 07/11/2076]',4.298,-12.894,-9.377,-0.391,-0.391,-2.735,-7.424,-7.033,50.403,-49.231,12.894,4.298,18.364,-37.509,32.821,5.470,20.708,-19.145,10.159,-1.954,-15.238,-5.079,32.821
'[07:33:47.453 07/11/2076]',-0.391,-17.192,-10.549,-0.391,-3.516,-8.987,-8.596,-6.252,47.277,-58.217,12.112,2.344,14.457,-42.589,28.523,3.516,16.020,-18.755,11.331,0.781,-14.847,-5.861,28.523
'[07:33:47.457 07/11/2076]',-9.768,-16.801,-9.768,-4.689,-8.596,-16.020,-8.205,-8.596,45.324,-66.813,10.159,-4.689,8.596,-42.589,21.099,-2.344,10.549,-20.708,10.549,-1.954,-7.424,-4.689,21.099
'[07:33:47.461 07/11/2076]',-14.847,-18.364,-7.814,-5.079,-12.503,-19.145,-7.424,-5.861,41.416,-73.455,11.722,-2.735,11.722,-47.668,16.020,-1.954,6.252,-15.629,8.596,-1.172,-1.563,-6.252,16.020
'[07:33:47.465 07/11/2076]',-15.629,-21.490,-4.298,-3.126,-14.847,-23.443,-6.642,0.781,31.648,-78.926,14.457,9.768,15.629,-58.999,12.503,7.814,-1.172,-8.596,5.079,3.126,1.563,-14.847,12.503
'[07:33:47.469 07/11/2076]',-20.317,-20.317,0.391,-4.689,-19.145,-27.741,-4.298,5.470,25.397,-84.786,15.629,14.457,8.987,-53.138,9.768,6.642,-10.159,-10.159,0.391,0.391,10.549,-14.847,9.768
'[07:33:47.473 07/11/2076]',-26.960,-18.364,1.563,-5.470,-25.006,-33.602,0.391,8.987,20.317,-88.303,15.238,16.020,1.563,-45.714,6.252,1.954,-14.847,-7.424,-0.781,-7.814,23.834,-12.894,6.252
'[07:33:47.477 07/11/2076]',-26.960,-25.397,2.344,2.344,-30.085,-39.463,1.954,20.708,5.470,-89.084,10.159,37.118,10.159,-62.125,4.689,11.331,-10.549,9.377,-1.563,1.954,25.397,-23.053,4.689
'[07:33:47.480 07/11/2076]',-29.304,-25.397,4.689,-1.563,-33.993,-41.416,4.298,18.364,-0.781,-94.554,12.112,35.556,10.549,-67.204,2.735,6.642,-12.112,11.331,-3.907,5.079,28.132,-27.741,2.735
'[07:33:47.484 07/11/2076]',-34.774,-20.708,3.907,-8.596,-35.946,-42.979,5.470,13.675,-3.907,-102.369,11.722,24.615,-1.954,-57.827,-2.344,-5.470,-21.490,-1.563,-3.126,-7.033,34.774,-20.708,-2.344
'[07:33:47.488 07/11/2076]',-35.165,-18.755,1.172,-10.159,-36.337,-43.761,1.954,14.457,-10.940,-107.839,11.722,25.006,-11.331,-59.389,-7.424,-3.516,-30.085,-5.470,-0.391,-8.596,25.788,-19.927,-7.424
'[07:33:47.492 07/11/2076]',-29.695,-22.271,3.516,-14.847,-35.165,-43.370,0.781,13.284,-19.536,-107.839,14.457,28.132,-5.079,-73.846,-6.252,2.735,-31.648,1.563,-2.735,9.768,12.894,-36.337,-6.252
'[07:33:47.496 07/11/2076]',-26.569,-21.099,4.298,-20.317,-33.602,-42.979,0.781,10.549,-23.053,-110.965,17.973,30.476,-1.954,-80.488,-4.689,2.735,-34.774,2.344,-3.516,17.192,7.814,-45.324,-4.689
'[07:33:47.500 07/11/2076]',-29.304,-21.099,0.781,-19.145,-37.118,-45.714,-0.781,14.457,-28.132,-113.700,13.284,36.728,-5.079,-78.144,-9.768,2.735,-40.635,-0.781,0.000,12.503,8.205,-40.244,-9.768
'[07:33:47.504 07/11/2076]',-30.867,-20.708,-1.563,-20.317,-42.198,-45.714,-1.954,15.238,-29.304,-116.435,9.377,39.072,-5.079,-76.972,-13.284,0.391,-42.979,-0.781,2.344,10.159,10.940,-39.463,-13.284
'[07:33:47.508 07/11/2076]',-28.913,-17.582,-3.516,-26.569,-41.416,-42.589,-1.954,7.033,-28.913,-118.388,10.159,34.383,-5.079,-76.581,-15.629,-2.344,-43.761,-0.781,4.298,9.768,10.940,-42.979,-15.629
'[07:33:47.512 07/11/2076]',-26.569,-16.801,-6.642,-29.695,-42.198,-39.853,-1.563,3.907,-28.523,-119.170,7.033,35.165,-3.516,-78.535,-21.099,-0.781,-46.886,-3.126,7.424,9.768,11.722,-46.496,-21.099
'[07:33:47.516 07/11/2076]',-21.880,-18.755,-9.768,-28.913,-42.979,-39.072,-3.907,5.079,-29.304,-118.388,2.735,39.463,1.563,-84.396,-25.788,4.298,-49.231,-5.079,10.549,13.284,9.377,-51.184,-25.788
'[07:33:47.520 07/11/2076]',-19.145,-14.066,-12.112,-33.993,-40.635,-36.337,-3.516,0.781,-28.523,-117.216,1.563,34.774,1.954,-84.396,-25.788,0.391,-48.449,-9.377,12.894,13.284,10.549,-55.092,-25.788
'[07:33:47.523 07/11/2076]',-21.099,-10.159,-12.112,-37.509,-41.026,-35.556,-3.907,0.000,-28.132,-116.044,-1.954,31.258,-2.344,-78.926,-29.304,-2.735,-49.231,-12.112,12.894,11.722,11.331,-51.966,-29.304
'[07:33:47.527 07/11/2076]',-18.755,-9.768,-11.722,-35.946,-40.635,-32.821,-5.861,2.735,-32.430,-110.574,-5.079,36.337,0.391,-83.614,-31.258,2.735,-43.370,-12.894,12.503,16.020,9.768,-54.310,-31.258
'[07:33:47.531 07/11/2076]',-19.145,-10.159,-10.940,-32.430,-41.416,-30.085,-5.079,3.907,-38.291,-105.104,-3.126,37.900,2.344,-85.958,-29.695,5.470,-41.416,-14.847,11.722,18.364,9.768,-55.482,-29.695
'[07:33:47.535 07/11/2076]',-22.271,-6.252,-9.377,-32.821,-42.979,-29.304,-1.172,1.563,-42.979,-98.852,-1.172,30.085,-6.252,-71.893,-32.039,-0.391,-41.807,-22.662,10.159,10.940,16.801,-49.621,-32.039
'[07:33:47.539 07/11/2076]',-28.132,-5.861,-9.768,-29.695,-47.277,-35.165,2.735,4.298,-49.621,-89.475,-7.033,27.741,-15.238,-59.780,-34.383,-8.205,-39.463,-21.490,10.549,1.172,28.523,-44.542,-34.383
'[07:33:47.543 07/11/2076]',-27.741,-5.470,-7.424,-29.695,-47.668,-32.821,5.861,1.954,-54.701,-81.270,-3.126,26.569,-5.470,-66.422,-32.039,-7.033,-29.304,-11.722,8.205,8.205,26.960,-50.403,-32.039
'[07:33:47.547 07/11/2076]',-25.397,-4.298,-5.079,-34.774,-45.714,-27.350,6.252,-3.516,-57.436,-77.753,1.954,21.490,0.391,-71.111,-31.648,-7.424,-23.834,-9.377,5.861,14.847,24.615,-56.654,-31.648
'[07:33:47.551 07/11/2076]',-27.350,0.391,-7.424,-38.681,-44.542,-24.225,3.907,-8.205,-57.827,-77.363,0.781,14.847,-9.768,-60.952,-37.900,-8.987,-26.178,-23.053,8.205,4.689,23.834,-47.277,-37.900
'[07:33:47.555 07/11/2076]',-26.569,4.689,-9.377,-40.635,-42.589,-18.364,2.735,-12.503,-60.952,-75.018,2.735,11.722,-16.020,-54.701,-40.635,-8.596,-23.834,-27.350,10.159,-1.563,22.662,-42.198,-40.635
'[07:33:47.559 07/11/2076]',-19.145,6.252,-7.814,-41.026,-39.072,-7.814,3.126,-18.364,-66.032,-67.595,6.252,15.629,-8.205,-62.906,-39.463,0.391,-12.503,-16.801,8.596,10.940,14.847,-54.701,-39.463
'[07:33:47.563 07/11/2076]',-13.675,9.377,-5.079,-44.151,-35.556,0.781,4.689,-25.006,-69.939,-58.608,8.205,15.238,-6.642,-61.734,-37.900,2.344,-6.642,-10.549,5.861,13.675,13.284,-58.608,-37.900
'[07:33:47.566 07/11/2076]',-12.894,12.112,-5.861,-41.026,-33.993,6.642,3.126,-24.615,-71.502,-54.310,6.642,18.364,-8.987,-57.045,-37.900,3.516,-2.344,-10.940,6.642,7.033,16.410,-53.529,-37.900
'[07:33:47.570 07/11/2076]',-8.987,11.722,-7.814,-39.072,-32.039,10.549,1.563,-25.006,-69.939,-50.012,6.252,17.192,-8.205,-54.701,-36.337,3.907,0.391,-9.768,8.596,8.205,14.847,-51.966,-36.337
'[07:33:47.574 07/11/2076]',-8.205,9.377,-10.940,-40.244,-29.695,10.159,-2.344,-27.741,-67.204,-45.324,3.516,12.894,-11.722,-49.621,-36.728,2.735,1.954,-12.894,11.722,7.814,12.503,-50.794,-36.728
'[07:33:47.578 07/11/2076]',-6.252,5.861,-13.284,-36.728,-28.132,11.331,-4.689,-29.304,-61.343,-40.244,0.391,10.940,-11.331,-46.105,-35.165,3.126,6.642,-24.225,14.066,4.689,12.503,-46.886,-35.165
'[07:33:47.582 07/11/2076]',0.781,0.000,-12.503,-31.648,-20.317,14.457,-7.814,-29.695,-54.310,-34.774,0.391,12.894,-3.126,-48.840,-31.258,8.205,11.722,-28.132,13.284,11.722,7.814,-48.059,-31.258
'[07:33:47.586 07/11/2076]',4.689,-1.954,-11.331,-28.132,-14.457,19.927,-10.159,-32.430,-43.761,-29.304,0.391,8.987,-0.781,-44.933,-26.569,8.596,15.238,-30.867,12.112,13.284,3.907,-45.324,-26.569
'[07:33:47.590 07/11/2076]',6.252,0.391,-10.549,-21.880,-7.424,22.271,-10.940,-30.476,-33.993,-25.788,-1.172,5.079,-7.033,-33.602,-20.708,5.861,16.020,-31.648,11.331,3.126,7.814,-35.556,-20.708
'[07:33:47.594 07/11/2076]',8.596,0.391,-7.424,-11.722,-0.391,22.271,-8.987,-23.834,-26.960,-21.099,-1.563,9.768,-2.735,-33.993,-14.457,11.331,20.708,-24.615,8.205,2.735,7.814,-31.258,-14.457
'[07:33:47.598 07/11/2076]',7.814,1.563,-4.689,-3.907,5.079,20.708,-9.377,-16.020,-23.053,-17.192,0.391,10.940,-0.391,-34.383,-8.987,15.238,19.927,-21.490,5.470,-0.391,10.159,-28.523,-8.987
'[07:33:47.602 07/11/2076]',-0.391,4.298,-3.516,0.781,7.033,12.503,-8.987,-9.377,-15.629,-17.192,-1.563,4.298,-18.755,-10.159,-7.424,5.861,13.284,-35.165,4.298,-22.662,25.397,-11.331,-7.424
'[07:33:47.605 07/11/2076]',-1.563,7.033,-0.781,3.516,16.020,6.252,-4.689,-8.987,-8.987,-11.722,0.391,-3.126,-19.927,0.781,-2.735,-0.391,15.238,-36.337,1.563,-28.523,32.821,-5.470,-2.735
'[07:33:47.609 07/11/2076]',5.470,2.735,1.172,5.861,27.350,5.861,-6.252,-9.768,-4.689,-5.861,8.205,-0.391,-2.735,-10.549,5.470,5.470,19.927,-18.364,-0.391,-9.377,21.490,-14.847,5.470
'[07:33:47.613 07/11/2076]',12.503,-0.391,0.391,10.159,37.118,6.252,-9.377,-9.768,0.391,-5.470,15.238,4.298,5.470,-14.847,12.112,12.894,14.847,-8.205,0.391,2.735,10.159,-16.801,12.112
'[07:33:47.617 07/11/2076]',14.847,3.126,-2.344,13.675,44.542,5.861,-11.331,-9.377,6.252,-1.563,20.317,0.781,3.516,-0.391,14.457,8.596,7.424,-8.987,3.126,-5.861,8.596,-0.781,14.457
'[07:33:47.621 07/11/2076]',15.629,6.252,-1.954,16.801,46.105,8.205,-8.987,-8.205,9.377,1.954,24.615,1.954,1.172,9.377,18.755,8.987,2.344,-2.344,2.735,-13.675,6.642,11.331,18.755
'[07:33:47.625 07/11/2076]',17.582,8.205,3.907,15.629,47.668,13.284,-4.689,-8.205,8.987,7.424,30.867,5.861,3.907,10.940,26.960,12.894,4.298,11.331,-3.126,-8.596,3.907,6.642,26.960
'[07:33:47.629 07/11/2076]',19.927,15.238,10.159,13.284,50.012,17.973,1.954,-9.377,12.112,13.284,38.291,4.689,8.596,14.847,35.165,10.940,7.814,16.020,-9.377,-10.940,3.126,6.642,35.165
'[07:33:47.633 07/11/2076]',21.880,21.490,11.331,13.675,53.138,20.708,4.689,-8.205,16.020,17.973,39.853,7.424,13.675,15.629,40.244,13.284,12.894,15.629,-10.549,-14.066,-0.781,9.768,40.244
'[07:33:47.637 07/11/2076]',22.271,26.178,10.940,12.894,58.608,20.708,4.689,-8.987,21.880,19.536,41.026,8.987,16.410,17.582,44.542,14.457,16.801,14.066,-10.159,-17.582,-4.298,12.503,44.542
'[07:33:47.641 07/11/2076]',19.927,33.211,7.814,10.549,62.515,19.145,4.298,-11.722,31.648,19.145,38.291,3.907,16.410,21.099,44.542,12.503,17.582,10.549,-7.033,-24.225,-6.642,17.582,44.542
'[07:33:47.645 07/11/2076]',21.099,38.291,6.252,6.252,67.204,23.053,1.563,-19.145,39.853,20.317,33.211,-1.954,20.708,19.927,41.416,10.159,20.708,4.689,-5.470,-28.132,-7.033,21.490,41.416
'[07:33:47.648 07/11/2076]',23.443,40.635,6.642,1.563,71.502,28.913,0.000,-26.178,49.231,17.192,30.867,-5.470,29.695,10.940,39.072,14.066,20.317,-1.172,-5.861,-24.225,-11.331,17.973,39.072
'[07:33:47.652 07/11/2076]',24.225,46.496,5.470,-2.735,71.893,33.602,0.000,-30.476,58.608,15.629,24.225,-14.066,28.132,12.112,35.556,8.596,17.192,-10.549,-4.689,-28.132,-11.331,21.880,35.556
'[07:33:47.656 07/11/2076]',20.708,53.138,5.079,-4.689,70.720,35.946,1.563,-33.602,69.158,16.801,13.284,-26.569,25.397,20.708,29.695,-1.954,18.364,-19.927,-4.298,-35.165,-5.079,32.821,29.695
'[07:33:47.660 07/11/2076]',22.662,52.747,6.252,-2.735,69.939,37.509,4.298,-32.430,75.409,23.053,1.954,-25.788,33.211,16.801,26.569,-1.954,27.350,-22.271,-5.470,-31.258,-2.735,35.556,26.569
'[07:33:47.664 07/11/2076]',17.192,50.794,7.814,1.172,64.469,33.993,6.252,-25.788,79.316,24.225,-10.159,-25.788,33.211,19.536,21.099,-6.252,26.178,-30.867,-7.033,-35.165,5.861,43.761,21.099
'[07:33:47.668 07/11/2076]',9.768,56.654,10.940,-5.861,60.171,36.337,8.987,-33.602,84.396,25.788,-17.192,-43.370,23.834,33.993,15.629,-25.006,21.880,-41.416,-10.159,-42.979,17.973,51.575,15.629
'[07:33:47.672 07/11/2076]',7.033,60.562,14.847,-17.192,58.999,38.681,11.331,-43.761,84.786,26.178,-20.708,-55.873,18.364,42.979,8.987,-35.556,20.708,-46.886,-14.066,-45.324,24.225,54.701,8.987
'[07:33:47.676 07/11/2076]',10.940,56.654,14.457,-21.490,57.827,42.589,6.642,-46.105,72.674,23.443,-18.755,-50.403,26.178,21.490,2.735,-23.834,21.490,-37.118,-13.675,-21.099,8.205,34.774,2.735
'[07:33:47.680 07/11/2076]',10.940,54.310,14.847,-26.960,54.310,41.807,5.861,-48.840,54.701,21.490,-13.284,-49.231,24.225,14.847,-2.735,-22.662,16.410,-32.430,-14.066,-8.596,4.689,22.662,-2.735
'[07:33:47.684 07/11/2076]',3.907,56.654,10.549,-25.397,46.496,39.072,4.689,-45.324,33.602,21.880,-10.549,-47.277,8.987,25.006,-10.549,-25.006,12.112,-36.728,-9.768,-16.410,9.377,30.476,-10.549
'[07:33:47.688 07/11/2076]',-0.391,56.654,5.861,-21.099,35.556,35.946,4.689,-36.728,8.596,23.834,-6.252,-41.416,-4.689,32.821,-16.020,-26.178,9.377,-30.867,-5.079,-20.708,13.284,34.774,-16.020
'[07:33:47.691 07/11/2076]',-3.126,59.780,5.470,-21.490,26.569,37.118,8.987,-32.430,-16.020,30.476,1.954,-38.291,-13.284,38.291,-17.192,-29.304,9.768,-12.503,-4.689,-14.457,14.457,26.178,-17.192
'[07:33:47.695 07/11/2076]',-2.344,62.906,7.814,-24.225,18.755,41.026,14.066,-30.476,-35.556,35.946,12.112,-35.165,-17.973,44.933,-15.629,-32.821,12.894,-0.391,-7.033,-12.503,14.847,22.271,-15.629
'[07:33:47.699 07/11/2076]',0.391,62.906,7.424,-20.317,11.331,43.370,15.629,-20.708,-51.575,37.900,19.145,-22.271,-17.973,43.761,-16.801,-25.006,17.192,10.549,-6.642,-7.033,10.159,16.020,-16.801
'[07:33:47.703 07/11/2076]',2.344,63.687,7.814,-18.755,6.642,44.542,17.192,-13.284,-62.125,37.900,23.834,-14.066,-18.755,43.761,-18.364,-19.927,20.317,17.582,-7.033,-4.298,7.424,8.205,-18.364
'[07:33:47.707 07/11/2076]',4.298,66.422,8.205,-18.755,5.470,45.714,21.099,-10.940,-64.860,39.853,26.960,-12.112,-25.788,49.231,-13.675,-18.755,25.788,19.927,-7.424,-8.596,3.907,8.987,-13.675
'[07:33:47.711 07/11/2076]',11.331,66.422,7.033,-17.192,6.252,51.184,19.927,-9.768,-62.906,42.589,29.695,-9.377,-21.099,42.589,-7.814,-12.894,33.602,24.225,-6.252,-7.033,-3.126,4.689,-7.814
'[07:33:47.715 07/11/2076]',19.536,61.734,2.344,-14.066,5.470,54.310,19.145,-8.596,-58.608,44.151,28.913,-4.298,-12.894,32.039,-1.954,-5.470,35.946,23.443,-1.563,-1.172,-12.112,-2.735,-1.954
'[07:33:47.719 07/11/2076]',22.271,60.562,-1.172,-17.582,2.735,53.529,19.145,-10.940,-49.621,45.324,25.397,-8.596,-16.020,35.946,3.126,-10.549,33.211,15.629,1.954,-5.079,-14.457,-2.344,3.126
'[07:33:47.723 07/11/2076]',23.053,57.436,-5.470,-20.708,0.391,49.621,17.582,-13.284,-38.291,44.933,19.145,-14.847,-17.973,40.635,6.642,-17.582,31.648,11.722,6.252,-9.768,-13.675,0.391,6.642
'[07:33:47.727 07/11/2076]',24.615,47.277,-6.252,-14.457,-0.781,42.589,15.629,-6.642,-30.867,45.714,9.768,-0.781,-2.344,23.443,10.549,-6.252,35.556,19.145,7.033,-1.172,-13.284,-7.814,10.549
'[07:33:47.730 07/11/2076]',22.662,44.151,-4.298,-15.629,1.954,39.853,14.066,-8.987,-17.582,44.151,8.987,-6.252,1.954,20.708,14.847,-7.814,31.648,17.192,5.079,-2.344,-10.940,-5.861,14.847
'[07:33:47.734 07/11/2076]',18.364,46.886,-2.344,-19.145,11.331,41.026,9.768,-19.927,1.172,38.681,9.377,-25.397,-4.298,30.085,16.801,-16.801,22.271,6.252,3.126,-16.410,-2.735,7.033,16.801
'[07:33:47.738 07/11/2076]',18.755,46.886,-3.907,-16.020,21.880,44.933,3.516,-26.178,18.364,33.993,8.205,-34.383,-5.079,28.132,19.536,-15.238,16.410,1.563,4.689,-23.443,-0.781,16.410,19.536
'[07:33:47.742 07/11/2076]',23.443,40.635,-0.781,-13.284,32.039,48.059,0.391,-30.476,28.913,33.602,9.377,-36.337,4.298,14.847,27.350,-10.159,15.629,11.331,1.563,-8.987,-4.689,8.596,27.350
'[07:33:47.746 07/11/2076]',27.741,37.118,3.516,-14.066,40.635,50.403,-1.172,-35.556,39.463,32.039,10.940,-39.853,8.987,10.940,35.556,-12.894,14.066,12.112,-2.735,-4.689,-2.735,7.424,35.556
'[07:33:47.750 07/11/2076]',25.788,34.383,3.516,-8.987,44.542,47.668,-4.298,-32.430,45.714,31.258,7.033,-38.681,7.033,15.629,39.463,-15.238,9.768,5.470,-2.735,-13.284,3.516,19.536,39.463
'[07:33:47.754 07/11/2076]',21.099,30.867,6.642,-3.126,44.933,42.198,-2.735,-28.523,47.668,31.648,5.861,-33.993,3.516,21.099,46.496,-19.145,7.424,4.689,-5.861,-16.801,8.205,26.178,46.496
'[07:33:47.758 07/11/2076]',17.582,28.913,11.722,-2.344,44.933,40.244,1.172,-30.476,48.059,33.602,11.722,-39.072,0.781,24.615,54.701,-24.615,7.424,5.470,-10.940,-16.801,11.331,25.006,54.701
'[07:33:47.762 07/11/2076]',13.284,29.304,16.801,0.391,44.542,42.198,2.735,-30.476,46.105,35.556,14.457,-39.463,-0.391,25.397,56.264,-23.053,8.596,6.252,-16.020,-17.973,13.284,25.006,56.264
'[07:33:47.766 07/11/2076]',10.549,27.350,20.317,7.033,41.807,46.496,5.470,-27.741,42.589,38.291,16.410,-34.383,0.781,22.271,56.654,-16.410,8.596,12.894,-19.536,-15.238,12.112,21.880,56.654
'[07:33:47.770 07/11/2076]',10.549,30.476,23.443,8.596,39.463,56.654,7.424,-30.085,39.072,41.416,18.755,-38.291,-1.172,25.788,54.310,-15.629,12.112,19.145,-22.662,-16.410,11.331,21.880,54.310
'[07:33:47.773 07/11/2076]',8.596,37.118,26.569,7.814,39.072,65.641,9.768,-33.602,40.635,43.761,18.364,-45.324,-5.470,33.602,48.059,-17.192,16.410,27.350,-25.788,-22.662,11.331,27.350,48.059
'[07:33:47.777 07/11/2076]',11.722,39.463,25.397,12.894,41.026,71.893,8.987,-32.039,39.853,46.886,14.847,-39.463,0.391,30.085,42.979,-10.549,25.397,38.291,-24.615,-23.053,7.814,28.132,42.979
'[07:33:47.781 07/11/2076]',14.457,38.681,25.788,14.847,41.026,73.846,9.768,-30.085,36.728,47.668,13.675,-37.900,3.126,28.523,39.853,-9.768,30.476,40.244,-25.006,-23.053,6.642,29.304,39.853
'[07:33:47.785 07/11/2076]',11.331,42.589,26.569,11.722,39.463,71.893,12.112,-30.085,37.509,48.840,11.722,-43.761,-1.954,40.635,35.556,-18.364,31.258,33.993,-25.788,-31.648,14.457,35.946,35.556
'[07:33:47.789 07/11/2076]',7.424,44.151,23.834,16.410,34.383,66.422,14.066,-21.880,36.337,51.575,0.781,-39.072,-7.814,50.403,30.085,-21.880,32.821,36.337,-23.053,-39.853,23.443,41.026,30.085
'[07:33:47.793 07/11/2076]',9.377,41.807,24.225,15.629,30.085,67.985,14.457,-18.755,36.728,55.873,-1.172,-34.383,1.172,45.714,29.304,-19.145,40.635,38.681,-23.443,-32.039,21.880,36.728,29.304
'[07:33:47.797 07/11/2076]',12.894,42.198,25.788,14.457,29.304,73.065,11.722,-17.192,41.416,57.827,-2.344,-32.821,10.549,41.807,27.350,-14.457,43.761,34.774,-25.006,-23.443,18.364,30.867,27.350
'[07:33:47.801 07/11/2076]',12.894,45.324,22.662,12.894,30.085,74.628,5.470,-14.066,50.403,51.575,-5.861,-33.602,7.033,50.403,17.192,-11.331,37.509,19.145,-21.880,-28.132,13.284,39.853,17.192
'[07:33:47.805 07/11/2076]',13.284,44.933,21.099,10.159,27.741,73.065,0.391,-9.768,54.701,48.059,-10.159,-32.039,5.470,56.654,10.549,-10.549,35.165,7.424,-20.317,-32.039,11.722,45.324,10.549
'[07:33:47.809 07/11/2076]',19.927,39.853,21.490,4.298,30.476,71.502,-5.079,-8.987,53.919,49.621,-11.722,-26.569,17.192,46.886,5.079,-3.516,37.118,10.549,-20.708,-13.284,1.172,30.085,5.079
'[07:33:47.813 07/11/2076]',26.178,34.774,20.317,-3.126,31.258,66.813,-8.596,-9.768,50.403,47.668,-10.940,-22.271,22.271,42.979,1.563,-1.954,32.821,11.331,-19.536,-3.907,-5.470,22.271,1.563
'[07:33:47.816 07/11/2076]',26.569,29.695,14.066,-3.516,29.304,59.389,-15.629,-4.689,43.370,48.059,-13.284,-16.020,19.927,47.668,-2.344,-2.735,26.569,5.861,-13.284,-6.252,-6.642,25.006,-2.344
'[07:33:47.820 07/11/2076]',26.569,25.397,8.596,-5.861,26.960,53.138,-19.927,-3.907,35.165,50.012,-10.549,-14.066,16.410,53.919,-5.470,-3.516,22.662,5.079,-7.814,-6.252,-8.205,25.788,-5.470
'[07:33:47.824 07/11/2076]',23.443,23.443,6.642,-8.987,22.662,48.840,-19.145,-5.861,25.788,49.621,-5.079,-15.238,9.768,58.608,-8.205,-4.298,19.536,6.252,-5.861,-5.861,-11.331,25.397,-8.205
'[07:33:47.828 07/11/2076]',20.317,21.490,5.861,-11.331,18.364,45.714,-18.755,-7.033,15.238,49.621,-0.391,-12.503,6.252,62.125,-12.894,-1.563,16.020,7.033,-5.079,-7.424,-10.940,26.178,-12.894
'[07:33:47.832 07/11/2076]',17.582,17.582,6.642,-12.503,12.112,44.542,-15.629,-9.377,6.252,49.621,6.642,-8.205,9.768,57.436,-15.238,3.126,14.847,10.940,-5.861,-3.126,-14.457,21.490,-15.238
'[07:33:47.836 07/11/2076]',16.410,17.582,8.596,-16.410,8.987,44.933,-11.722,-14.066,-1.172,48.059,14.457,-8.205,9.768,55.873,-15.238,3.516,12.112,17.192,-7.814,0.391,-18.364,17.192,-15.238
'[07:33:47.840 07/11/2076]',14.066,18.364,8.596,-14.847,6.252,41.416,-8.205,-12.503,-6.642,44.151,17.973,-4.689,2.735,60.952,-16.410,3.907,7.814,23.053,-7.814,-3.907,-18.755,20.317,-16.410
'[07:33:47.844 07/11/2076]',13.675,14.457,10.940,-6.642,3.907,40.244,-4.298,-5.861,-12.894,43.761,22.662,5.079,8.205,53.138,-11.331,9.768,11.722,37.118,-10.159,-1.563,-21.880,17.192,-11.331
'[07:33:47.848 07/11/2076]',13.675,11.331,16.410,-1.172,2.735,38.681,0.391,-0.391,-17.192,38.291,28.132,14.457,11.722,46.496,-8.205,14.457,13.675,45.714,-15.629,0.391,-21.099,13.675,-8.205
'[07:33:47.852 07/11/2076]',5.079,15.238,16.801,4.298,-2.735,34.383,4.689,6.252,-18.755,29.695,24.615,14.847,-4.298,59.389,-7.424,4.298,5.861,39.463,-16.020,-19.536,-8.987,24.225,-7.424
'[07:33:47.855 07/11/2076]',3.126,17.582,19.536,1.954,-5.861,35.556,12.112,1.563,-15.238,26.178,25.006,12.112,-5.861,59.780,-3.126,-0.781,7.424,46.886,-18.755,-25.397,-6.642,25.006,-3.126
'[07:33:47.859 07/11/2076]',9.768,16.020,23.443,0.391,-7.424,42.979,16.020,-0.781,-14.066,25.788,26.960,18.755,7.814,38.681,2.344,8.205,13.675,65.641,-22.662,-9.377,-19.536,9.768,2.344
'[07:33:47.863 07/11/2076]',16.801,14.847,22.662,0.781,-7.814,51.184,13.284,0.391,-10.159,19.927,27.350,27.741,16.020,20.708,7.424,20.317,13.675,67.595,-21.880,2.344,-37.509,0.391,7.424
'[07:33:47.867 07/11/2076]',16.020,15.629,20.708,0.391,-10.159,51.575,11.722,1.563,-2.735,14.457,21.490,26.569,8.596,25.006,5.861,19.536,10.940,51.184,-19.927,-3.126,-43.370,8.205,5.861
'[07:33:47.871 07/11/2076]',17.582,14.847,21.880,1.563,-10.549,49.231,10.940,7.424,3.516,9.768,15.238,27.350,5.861,26.960,5.470,17.973,10.549,37.118,-21.099,-6.642,-45.324,14.847,5.470
'[07:33:47.875 07/11/2076]',19.536,11.722,23.443,2.344,-10.159,48.449,7.814,12.894,9.768,4.689,8.596,29.304,10.549,18.755,5.861,17.973,11.331,32.430,-22.662,4.689,-49.231,6.642,5.861
'[07:33:47.879 07/11/2076]',20.708,8.987,25.788,1.954,-8.596,43.761,7.033,17.192,16.801,0.781,3.516,25.788,11.722,16.410,8.205,12.112,8.205,25.397,-25.006,8.596,-45.714,5.861,8.205
'[07:33:47.883 07/11/2076]',21.880,5.079,25.006,7.033,-5.079,39.072,3.907,23.053,26.960,-0.781,-3.516,25.397,15.629,16.020,7.033,8.596,6.252,20.317,-24.225,8.596,-39.072,10.940,7.033
'[07:33:47.887 07/11/2076]',21.099,0.391,24.225,11.331,-3.126,35.165,-0.781,28.132,34.774,-2.344,-9.377,25.788,17.192,15.238,10.159,6.642,3.516,15.238,-23.443,9.768,-33.602,14.847,10.159
'[07:33:47.891 07/11/2076]',17.192,-3.516,23.443,15.238,-0.781,27.741,-2.344,30.085,41.807,-1.954,-14.066,21.490,11.722,21.880,10.940,1.563,3.907,5.470,-22.662,8.596,-27.741,21.490,10.940
'[07:33:47.895 07/11/2076]',16.020,-6.642,23.443,16.020,2.344,23.443,-3.516,27.350,45.714,1.172,-17.973,17.973,12.112,25.397,12.503,-3.126,6.252,-4.689,-22.662,8.205,-22.271,26.960,12.503
'[07:33:47.898 07/11/2076]',14.066,-12.503,23.834,18.755,5.079,21.099,-6.642,25.397,46.496,3.126,-16.410,14.457,14.066,22.662,14.847,-3.907,6.252,-16.410,-23.053,14.847,-19.927,25.788,14.847
'[07:33:47.902 07/11/2076]',9.768,-16.801,22.662,20.317,6.252,17.192,-8.987,23.443,46.105,5.079,-17.973,8.596,5.470,28.913,14.847,-7.814,-0.391,-24.615,-21.880,14.066,-15.238,28.913,14.847
'[07:33:47.906 07/11/2076]',7.033,-21.099,18.755,23.834,8.205,8.987,-9.768,21.880,44.542,8.205,-22.662,1.563,-5.470,38.291,14.457,-15.238,-9.377,-27.350,-17.973,8.987,-6.252,35.946,14.457
'[07:33:47.910 07/11/2076]',4.689,-29.695,17.192,28.132,9.768,0.391,-10.159,22.271,39.072,14.457,-24.225,4.689,-5.470,35.556,16.801,-11.722,-11.331,-18.364,-16.410,12.503,-0.781,34.383,16.801
'[07:33:47.914 07/11/2076]',0.781,-35.556,16.020,36.728,7.424,-7.424,-8.596,28.132,30.476,16.020,-23.443,16.020,-10.940,40.244,17.192,-7.033,-21.490,-13.675,-15.238,7.424,7.033,39.072,17.192
'[07:33:47.918 07/11/2076]',-4.298,-31.648,17.192,30.867,7.814,-11.722,-1.563,18.364,27.741,19.145,-16.020,3.907,-22.271,55.873,19.536,-16.801,-28.523,-10.940,-16.410,-2.735,15.238,44.933,19.536
'[07:33:47.922 07/11/2076]',-9.768,-25.397,16.801,25.397,8.987,-13.284,3.516,7.814,25.397,22.271,-7.033,-7.033,-29.695,64.078,21.490,-21.880,-29.695,-1.563,-16.020,-11.722,17.582,47.668,21.490
'[07:33:47.926 07/11/2076]',-7.033,-28.913,18.364,28.523,12.112,-9.377,2.344,6.252,19.145,25.006,1.172,0.391,-17.582,41.807,28.132,-4.689,-25.006,19.536,-17.582,5.079,1.954,31.258,28.132
'[07:33:47.930 07/11/2076]',-6.252,-28.913,21.490,26.569,14.457,-7.424,5.861,0.781,17.582,27.741,10.549,-1.563,-10.940,29.695,32.821,2.735,-23.053,33.211,-20.708,13.675,-5.079,21.099,32.821
'[07:33:47.934 07/11/2076]',-10.940,-26.178,20.708,29.695,14.066,-8.596,5.470,1.954,18.755,28.132,10.549,-4.689,-15.238,31.258,35.165,2.735,-23.443,33.211,-19.927,2.344,-2.344,27.350,35.165
'[07:33:47.938 07/11/2076]',-14.847,-26.960,20.317,33.602,12.112,-12.503,7.424,5.079,18.755,28.132,9.768,-0.781,-16.801,31.648,35.165,7.814,-21.490,35.556,-19.536,-4.298,-1.172,34.383,35.165
'[07:33:47.941 07/11/2076]',-17.582,-25.788,23.053,29.304,8.596,-12.503,11.331,1.954,16.410,27.741,12.503,-3.516,-14.847,25.006,37.509,6.642,-17.192,43.370,-22.271,0.391,-0.391,23.834,37.509
'[07:33:47.945 07/11/2076]',-18.364,-25.006,24.615,24.615,7.033,-14.457,14.066,-0.391,14.847,25.006,12.894,-8.205,-11.722,17.973,35.946,3.907,-17.973,44.151,-23.834,1.172,0.391,18.364,35.946
'[07:33:47.949 07/11/2076]',-17.973,-28.132,23.834,26.960,3.907,-18.364,12.112,6.642,10.549,19.145,10.159,-3.516,-7.424,5.861,32.430,7.424,-21.880,42.589,-23.053,3.907,0.781,15.238,32.430
'[07:33:47.953 07/11/2076]',-19.145,-29.304,23.443,27.741,-1.172,-22.271,11.722,14.847,6.252,10.940,7.814,-0.781,-5.861,-3.126,28.523,6.642,-27.741,42.589,-22.662,8.596,3.907,8.205,28.523
'[07:33:47.957 07/11/2076]',-21.490,-28.523,24.225,24.615,-8.596,-24.615,13.284,19.145,3.516,3.126,6.252,-5.079,-8.987,-5.861,23.834,0.391,-32.039,41.807,-23.443,6.642,8.987,7.814,23.834
'[07:33:47.961 07/11/2076]',-21.099,-29.695,24.225,23.834,-14.847,-25.006,12.894,24.225,0.000,-3.126,4.298,-3.126,-7.033,-14.457,22.662,-1.954,-33.602,41.026,-23.443,9.768,10.159,5.470,22.662
'[07:33:47.965 07/11/2076]',-19.145,-37.509,23.834,24.615,-19.927,-29.695,11.722,31.258,-7.424,-12.503,5.079,1.954,-5.079,-26.569,19.145,-0.781,-42.589,39.853,-23.053,19.536,9.768,-2.344,19.145
'[07:33:47.969 07/11/2076]',-19.927,-40.244,21.099,23.443,-24.615,-37.509,11.722,34.383,-14.847,-21.099,2.344,0.391,-14.066,-25.006,15.238,-9.377,-57.045,33.993,-20.317,18.364,16.020,-4.298,15.238
'[07:33:47.973 07/11/2076]',-23.443,-46.105,18.755,25.397,-25.397,-52.747,12.112,41.026,-21.099,-27.741,-4.689,0.391,-25.788,-19.927,9.377,-17.192,-69.548,28.132,-17.973,15.629,25.788,-3.126,9.377
'[07:33:47.977 07/11/2076]',-20.708,-58.999,17.582,36.728,-25.397,-67.985,8.987,58.217,-30.476,-33.602,-10.940,17.973,-20.708,-34.383,7.033,-8.205,-75.800,34.774,-16.801,28.523,27.350,-16.020,7.033
'[07:33:47.980 07/11/2076]',-23.053,-64.078,15.629,38.291,-24.225,-76.190,5.079,62.906,-35.165,-40.635,-10.159,19.927,-25.788,-36.728,4.689,-8.987,-84.786,30.085,-14.847,31.648,29.695,-20.708,4.689
'[07:33:47.984 07/11/2076]',-32.039,-61.734,13.284,33.211,-25.788,-82.833,2.735,58.999,-33.993,-48.449,-8.987,7.424,-41.026,-25.006,1.563,-18.364,-100.806,18.755,-12.503,24.225,34.383,-14.847,1.563
'[07:33:47.988 07/11/2076]',-35.946,-61.343,8.205,32.430,-24.615,-85.958,-1.954,57.436,-34.383,-55.092,-10.159,4.298,-53.529,-21.490,-1.954,-17.973,-115.653,16.020,-7.424,23.053,29.304,-12.503,-1.954
'[07:33:47.992 07/11/2076]',-35.556,-65.250,5.470,32.039,-22.662,-89.084,-3.126,52.747,-37.509,-56.264,-8.205,7.424,-48.449,-33.602,-2.344,-9.377,-119.560,26.960,-4.689,39.853,17.973,-23.834,-2.344
'[07:33:47.996 07/11/2076]',-36.337,-66.032,6.642,29.695,-19.145,-91.819,-2.344,48.059,-35.556,-57.436,-8.596,7.424,-44.151,-39.072,-5.470,-5.470,-124.249,32.039,-5.861,48.449,14.457,-29.695,-5.470
'[07:33:48.000 07/11/2076]',-37.900,-64.860,1.563,33.211,-16.020,-96.899,-4.298,51.184,-30.085,-61.343,-15.629,9.768,-49.231,-32.430,-12.112,-3.126,-129.328,22.662,-0.781,40.244,12.894,-19.536,-12.112
'[07:33:48.004 07/11/2076]',-40.244,-62.515,-1.563,34.383,-14.066,-101.197,-5.861,51.966,-24.615,-66.032,-19.145,9.768,-51.966,-27.350,-17.582,-3.907,-128.938,18.364,2.344,33.993,12.112,-11.722,-17.582
'[07:33:48.008 07/11/2076]',-43.761,-58.217,-2.735,28.132,-12.112,-101.587,-5.861,44.151,-17.582,-72.283,-19.536,3.516,-54.701,-27.741,-16.801,-6.642,-130.110,17.582,3.516,34.383,10.549,-15.629,-16.801
'[07:33:48.012 07/11/2076]',-44.933,-53.919,-5.079,21.880,-8.596,-101.978,-8.205,37.900,-12.894,-77.753,-19.927,-1.172,-57.827,-29.695,-14.847,-9.377,-131.282,11.722,5.861,33.211,6.252,-17.582,-14.847
'[07:33:48.016 07/11/2076]',-45.324,-54.701,-7.814,20.317,-5.470,-104.713,-8.596,31.648,-8.987,-84.005,-21.490,-1.563,-57.436,-36.337,-11.722,-10.549,-133.236,10.549,8.596,33.211,4.689,-19.536,-11.722
'[07:33:48.020 07/11/2076]',-48.059,-52.747,-10.159,16.410,-2.735,-105.885,-9.377,24.225,-2.735,-89.866,-24.615,-6.252,-58.217,-40.635,-10.940,-12.894,-132.845,8.596,10.940,32.039,3.126,-20.708,-10.940
'[07:33:48.023 07/11/2076]',-49.621,-49.621,-13.284,12.112,-1.563,-105.885,-10.159,17.192,7.814,-96.508,-30.476,-12.894,-62.906,-40.635,-13.675,-14.457,-131.282,2.344,14.066,27.350,0.781,-17.192,-13.675
'[07:33:48.027 07/11/2076]',-50.012,-51.575,-17.973,14.066,-1.172,-108.230,-11.722,15.629,19.536,-106.667,-38.291,-9.768,-57.827,-48.840,-20.317,-7.424,-126.593,0.391,18.755,27.741,-1.954,-15.629,-20.317
'[07:33:48.031 07/11/2076]',-52.747,-54.310,-19.927,15.629,-4.689,-109.011,-13.284,15.629,30.085,-118.388,-44.933,-7.424,-55.873,-55.873,-27.350,0.000,-123.858,-9.377,20.708,26.960,-1.954,-15.629,-27.350
'[07:33:48.035 07/11/2076]',-58.217,-51.966,-22.271,10.159,-11.331,-108.620,-12.894,10.159,42.198,-128.938,-51.575,-16.801,-64.078,-46.496,-35.946,-6.642,-125.421,-25.788,23.053,17.582,3.907,-10.159,-35.946
'[07:33:48.039 07/11/2076]',-65.250,-52.357,-26.960,10.940,-17.582,-113.700,-12.503,10.549,48.059,-132.845,-63.687,-19.536,-72.674,-37.900,-42.979,-13.284,-123.077,-32.039,27.741,8.205,12.112,-3.907,-42.979
'[07:33:48.043 07/11/2076]',-62.906,-57.045,-28.132,7.814,-20.708,-110.965,-11.722,5.079,48.449,-130.110,-64.469,-21.490,-65.641,-40.635,-46.886,-12.894,-114.090,-30.867,28.913,12.894,11.331,-7.033,-46.886
'[07:33:48.047 07/11/2076]',-58.608,-61.343,-32.039,2.344,-23.443,-104.322,-16.410,-3.516,43.370,-125.031,-62.125,-25.006,-61.343,-45.324,-50.012,-10.549,-107.839,-34.774,32.821,24.225,0.391,-11.722,-50.012
'[07:33:48.051 07/11/2076]',-61.343,-63.297,-39.072,0.781,-28.132,-101.978,-22.662,-8.596,34.383,-120.342,-60.171,-31.258,-77.363,-32.430,-55.482,-11.722,-109.402,-52.357,39.853,16.410,-5.079,-2.344,-55.482
'[07:33:48.055 07/11/2076]',-64.078,-68.376,-42.198,0.391,-32.430,-102.369,-25.788,-12.894,21.490,-110.183,-56.264,-35.946,-88.694,-21.880,-57.827,-11.331,-105.495,-59.780,42.979,12.503,-11.722,5.079,-57.827
'[07:33:48.059 07/11/2076]',-61.343,-76.972,-42.589,1.954,-35.556,-101.197,-26.960,-14.847,1.172,-95.336,-48.840,-29.304,-87.912,-29.304,-52.747,-0.391,-95.726,-49.621,43.370,30.476,-26.178,-9.377,-52.747
'[07:33:48.063 07/11/2076]',-62.515,-81.661,-39.463,1.172,-38.291,-101.978,-25.006,-16.020,-15.629,-81.661,-40.635,-23.834,-92.210,-29.695,-44.933,4.298,-87.521,-46.105,40.244,36.337,-34.774,-16.410,-44.933
'[07:33:48.066 07/11/2076]',-64.078,-83.223,-37.900,5.079,-39.463,-104.713,-24.615,-10.159,-31.648,-68.767,-35.946,-14.066,-97.289,-22.271,-40.635,9.768,-80.488,-47.277,38.681,30.867,-35.556,-14.457,-40.635
'[07:33:48.070 07/11/2076]',-63.297,-83.223,-32.430,6.642,-40.244,-103.150,-21.490,-5.861,-47.277,-56.654,-28.523,-3.907,-98.852,-20.317,-35.556,17.192,-69.158,-43.761,33.211,29.695,-36.728,-16.410,-35.556
'[07:33:48.074 07/11/2076]',-64.078,-78.144,-27.350,6.642,-41.416,-98.462,-17.582,-3.907,-60.562,-48.059,-21.880,0.000,-103.541,-18.755,-29.695,20.317,-59.780,-41.026,28.132,27.741,-38.681,-19.536,-29.695
'[07:33:48.078 07/11/2076]',-65.250,-73.065,-21.099,9.377,-42.979,-92.991,-12.112,0.391,-71.111,-39.853,-16.020,4.298,-102.759,-18.364,-25.788,24.225,-50.403,-35.165,21.880,23.834,-35.946,-19.927,-25.788
'[07:33:48.082 07/11/2076]',-63.297,-70.720,-14.847,14.457,-46.496,-84.786,-5.470,3.516,-77.363,-35.946,-6.252,11.722,-92.991,-28.132,-18.364,32.821,-44.542,-23.053,15.629,28.523,-37.900,-24.225,-18.364
'[07:33:48.086 07/11/2076]',-61.734,-63.297,-10.549,15.629,-48.840,-73.065,0.000,2.735,-76.190,-36.337,2.735,14.847,-86.740,-32.821,-10.159,35.556,-38.681,-12.112,11.331,30.867,-40.635,-27.741,-10.159
'[07:33:48.090 07/11/2076]',-60.171,-55.092,-7.814,18.364,-51.966,-62.515,4.298,5.861,-70.720,-41.026,8.205,19.927,-84.786,-29.304,-7.814,37.509,-32.039,-3.126,8.596,24.615,-36.337,-24.225,-7.814
'[07:33:48.094 07/11/2076]',-54.310,-52.747,-5.079,25.006,-54.310,-54.701,7.424,13.675,-66.422,-48.059,10.549,33.211,-70.720,-38.291,-5.470,44.542,-21.490,7.424,5.861,27.741,-32.821,-26.960,-5.470
'[07:33:48.098 07/11/2076]',-46.886,-51.966,-3.907,31.648,-56.264,-50.403,10.159,24.615,-60.562,-57.827,9.377,43.761,-59.780,-45.714,-5.470,45.714,-17.192,9.377,4.689,29.695,-25.397,-29.304,-5.470
'[07:33:48.102 07/11/2076]',-47.277,-48.840,-5.861,38.291,-60.952,-52.357,11.722,36.337,-53.919,-70.330,2.344,42.589,-68.376,-30.085,-11.331,30.867,-20.317,-1.172,6.642,13.675,-4.689,-17.192,-11.331
'[07:33:48.105 07/11/2076]',-40.635,-49.231,-9.377,37.900,-58.217,-55.092,12.503,38.681,-46.886,-78.926,-0.781,39.463,-62.515,-31.258,-11.722,18.364,-21.880,0.391,10.159,14.066,6.252,-17.973,-11.722
'[07:33:48.109 07/11/2076]',-25.788,-56.654,-11.722,39.072,-52.747,-54.701,9.377,42.198,-43.370,-87.131,-0.391,47.668,-42.589,-51.184,-10.940,21.099,-21.880,11.722,12.503,30.867,1.954,-29.695,-10.940
'[07:33:48.113 07/11/2076]',-10.549,-59.780,-18.364,36.337,-39.853,-51.184,-1.563,41.416,-39.072,-102.369,1.563,53.919,-28.913,-68.376,-13.284,24.615,-26.178,12.503,19.145,44.542,-7.424,-37.900,-13.284
'[07:33:48.117 07/11/2076]',-5.079,-59.780,-27.741,32.821,-31.258,-55.873,-12.503,41.416,-32.821,-119.170,-1.954,51.966,-31.648,-65.641,-21.880,16.410,-37.509,-3.907,28.523,37.509,-3.126,-30.476,-21.880
'[07:33:48.121 07/11/2076]',-1.172,-63.297,-35.946,33.993,-23.834,-66.422,-20.708,46.105,-29.304,-135.189,-7.033,51.966,-34.383,-63.687,-31.258,9.377,-48.059,-17.973,36.728,32.430,0.781,-21.490,-31.258
'[07:33:48.125 07/11/2076]',1.954,-68.767,-41.416,34.774,-16.410,-79.316,-25.788,48.840,-29.695,-146.129,-11.722,53.138,-30.476,-71.111,-36.337,3.516,-54.701,-19.145,42.198,43.761,3.516,-28.523,-36.337
'[07:33:48.129 07/11/2076]',2.735,-77.363,-46.105,35.165,-8.205,-96.508,-30.085,50.403,-29.304,-153.162,-15.629,49.621,-26.569,-74.237,-40.635,-6.252,-67.985,-25.397,46.886,48.840,15.629,-31.258,-40.635
'[07:33:48.133 07/11/2076]',5.079,-87.521,-53.529,41.416,-1.563,-112.137,-34.774,55.092,-26.569,-157.851,-20.708,51.966,-20.317,-78.926,-44.151,-9.768,-80.488,-28.913,54.310,50.403,24.225,-29.304,-44.151
'[07:33:48.137 07/11/2076]',6.252,-96.117,-59.389,47.277,5.861,-125.812,-39.463,58.217,-22.662,-160.977,-25.397,53.529,-16.410,-82.051,-46.496,-10.549,-89.866,-31.648,60.171,51.575,32.821,-27.350,-46.496
'[07:33:48.141 07/11/2076]',2.735,-101.587,-60.952,49.231,10.159,-134.799,-40.635,55.092,-17.973,-162.540,-28.913,49.231,-16.410,-80.488,-47.668,-15.238,-98.071,-33.211,61.734,51.184,41.807,-24.225,-47.668
'[07:33:48.145 07/11/2076]',0.000,-101.978,-60.171,50.012,12.894,-136.752,-38.291,50.403,-12.503,-161.368,-28.913,44.542,-11.331,-82.051,-48.059,-16.801,-100.024,-34.774,60.952,49.621,49.231,-22.662,-48.059
'[07:33:48.148 07/11/2076]',-2.735,-105.104,-54.701,52.357,14.066,-134.799,-36.728,47.277,-10.159,-162.540,-24.615,46.496,-5.079,-88.303,-46.886,-11.331,-104.713,-32.039,55.482,54.701,50.403,-23.834,-46.886
'[07:33:48.152 07/11/2076]',-12.112,-103.932,-48.449,55.873,12.503,-136.361,-31.648,46.105,-10.549,-164.884,-21.490,46.496,-7.033,-87.131,-45.714,-10.159,-114.090,-31.648,49.231,51.575,59.780,-23.834,-45.714
'[07:33:48.156 07/11/2076]',-20.317,-101.978,-43.370,60.171,10.159,-138.706,-23.443,46.496,-10.159,-163.321,-22.271,49.621,-10.549,-81.661,-45.714,-8.205,-121.123,-25.006,44.151,42.198,71.502,-19.927,-45.714
'[07:33:48.160 07/11/2076]',-20.708,-105.104,-36.728,67.595,8.596,-138.706,-15.629,50.012,-10.940,-160.195,-21.490,60.952,0.000,-90.256,-43.370,1.563,-119.951,-8.205,37.509,43.370,75.018,-21.490,-43.370
'[07:33:48.164 07/11/2076]',-25.397,-106.276,-29.304,76.190,4.689,-141.050,-4.689,56.264,-12.112,-159.023,-21.880,75.018,3.516,-90.647,-41.416,10.549,-123.077,-2.735,30.085,35.946,82.051,-17.192,-41.416
'[07:33:48.168 07/11/2076]',-30.085,-94.554,-19.145,65.641,0.391,-134.408,8.987,45.714,-8.205,-153.162,-17.192,64.860,2.344,-78.144,-38.291,1.172,-121.514,0.391,19.927,23.834,88.694,-12.112,-38.291
'[07:33:48.172 07/11/2076]',-30.085,-82.051,-12.503,55.092,0.391,-122.686,16.020,35.556,-3.516,-147.302,-12.112,57.827,3.516,-69.939,-35.946,-1.954,-116.825,6.252,13.284,15.238,84.396,-7.424,-35.946
'[07:33:48.176 07/11/2076]',-23.443,-77.753,-5.861,51.184,0.391,-109.011,17.582,33.602,-7.814,-136.752,-5.470,71.111,18.364,-87.912,-26.569,16.020,-108.620,22.271,6.642,30.867,61.734,-21.880,-26.569
'[07:33:48.180 07/11/2076]',-18.364,-68.767,-1.954,43.761,0.000,-96.899,19.536,29.695,-14.457,-124.249,2.735,76.190,26.960,-93.382,-18.755,25.006,-100.024,30.085,2.735,35.556,48.840,-32.821,-18.755
'[07:33:48.184 07/11/2076]',-17.582,-59.389,-4.689,41.026,-1.172,-91.819,18.755,32.821,-19.927,-112.918,4.298,79.707,19.927,-81.270,-16.801,28.523,-96.117,21.880,5.470,20.708,42.198,-24.225,-16.801
'[07:33:48.188 07/11/2076]',-15.629,-52.747,-8.205,41.807,-5.079,-87.521,19.927,37.900,-28.132,-99.634,7.814,83.614,15.238,-71.502,-11.722,31.258,-88.303,17.973,8.987,9.377,36.728,-20.317,-11.722
'[07:33:48.191 07/11/2076]',-9.377,-44.542,-6.252,36.728,-7.814,-78.926,23.443,38.681,-36.728,-84.786,15.238,84.786,17.192,-65.641,-4.298,31.648,-74.628,23.053,7.033,10.940,30.085,-28.913,-4.298
'[07:33:48.195 07/11/2076]',-1.954,-37.118,-4.689,32.039,-7.424,-68.376,25.788,38.681,-41.026,-73.455,21.490,84.396,20.317,-58.999,-1.563,30.867,-64.078,25.006,5.470,10.940,25.006,-33.211,-1.563
'[07:33:48.199 07/11/2076]',5.861,-35.165,-5.079,36.337,-8.596,-60.562,25.397,45.714,-44.151,-64.078,23.443,93.773,25.788,-55.482,0.781,37.118,-54.310,24.615,5.861,11.331,17.582,-32.039,0.781
'[07:33:48.203 07/11/2076]',11.722,-32.039,-5.470,37.900,-12.112,-51.966,24.225,51.184,-47.668,-55.873,24.225,100.415,27.741,-48.059,1.172,39.463,-46.105,26.569,6.252,11.331,15.238,-31.258,1.172
'[07:33:48.207 07/11/2076]',14.066,-26.569,-6.642,35.556,-14.847,-45.324,26.569,49.231,-46.886,-49.621,25.788,97.680,24.225,-35.556,0.391,36.728,-39.463,28.913,7.424,6.642,16.801,-28.132,0.391
'[07:33:48.211 07/11/2076]',19.536,-26.178,-9.377,34.383,-14.457,-38.681,24.615,46.886,-44.151,-44.542,26.960,97.289,29.695,-34.774,1.172,38.291,-31.258,26.569,10.159,7.424,13.675,-27.350,1.172
'[07:33:48.215 07/11/2076]',23.443,-27.741,-11.722,35.946,-14.457,-33.602,20.708,47.277,-44.542,-40.635,29.304,101.587,34.774,-40.244,4.298,45.714,-29.304,25.006,12.503,12.503,8.205,-31.258,4.298
'[07:33:48.219 07/11/2076]',23.834,-27.350,-14.847,35.165,-12.112,-32.039,17.973,42.979,-41.807,-39.072,31.648,95.726,30.476,-34.383,5.470,43.370,-31.258,21.490,15.629,9.377,9.377,-29.304,5.470
'[07:33:48.223 07/11/2076]',23.834,-28.132,-16.801,34.774,-7.424,-35.556,15.238,41.416,-36.728,-36.728,29.695,90.647,26.569,-28.132,5.079,41.416,-30.867,19.927,17.582,5.861,10.549,-24.225,5.079
'[07:33:48.227 07/11/2076]',25.006,-35.946,-17.192,41.807,-5.079,-41.807,10.940,49.231,-39.072,-32.430,24.615,103.150,35.946,-37.900,2.735,53.138,-25.006,33.211,17.973,15.629,7.033,-30.085,2.735
'[07:33:48.230 07/11/2076]',23.834,-36.728,-12.503,38.291,-2.735,-43.761,11.331,46.886,-37.509,-31.648,26.569,95.726,34.774,-35.165,-0.391,52.357,-25.397,35.165,13.284,17.973,7.814,-29.304,-0.391
'[07:33:48.234 07/11/2076]',19.145,-27.741,-9.377,25.006,-1.563,-41.807,14.457,35.946,-34.383,-30.476,29.695,76.972,21.880,-19.927,-4.689,43.761,-30.085,24.615,10.159,7.033,8.205,-20.317,-4.689
'[07:33:48.238 07/11/2076]',14.847,-21.099,-5.861,20.317,-3.516,-35.946,15.238,32.430,-34.774,-30.085,32.430,70.330,13.675,-14.847,-7.033,45.714,-34.383,25.397,6.642,4.689,-0.781,-14.847,-7.033
'[07:33:48.242 07/11/2076]',14.847,-19.536,-0.781,18.364,-11.331,-25.397,19.927,29.695,-43.761,-23.834,39.463,73.846,16.020,-25.788,-3.126,57.827,-31.258,43.370,1.563,19.927,-14.457,-28.132,-3.126
'[07:33:48.246 07/11/2076]',16.020,-14.457,3.126,15.629,-20.708,-11.331,25.006,27.741,-50.794,-16.020,46.886,73.846,17.973,-27.741,1.563,60.952,-27.741,54.310,-2.344,26.569,-22.271,-33.993,1.563
'[07:33:48.250 07/11/2076]',12.112,-7.424,2.735,19.145,-34.774,0.391,27.350,33.993,-55.482,-7.033,44.542,75.409,13.675,-14.066,-1.563,58.999,-22.271,56.264,-1.954,18.755,-21.099,-23.834,-1.563
'[07:33:48.254 07/11/2076]',11.722,-1.172,3.126,18.364,-49.621,12.112,30.085,38.291,-58.217,2.735,42.979,74.628,14.066,-1.954,-5.861,55.482,-10.159,57.436,-2.344,14.066,-18.364,-17.582,-5.861
'[07:33:48.258 07/11/2076]',14.457,8.596,4.298,9.377,-58.217,27.350,33.993,34.774,-58.999,15.238,43.761,66.813,19.927,5.861,-5.079,46.496,5.861,55.873,-3.516,16.410,-17.582,-20.317,-5.079
'[07:33:48.262 07/11/2076]',20.708,16.801,4.689,1.172,-62.125,39.463,34.383,33.211,-55.873,25.788,41.807,61.734,28.132,12.503,-6.252,38.681,19.927,47.668,-3.907,18.755,-19.536,-20.708,-6.252
'[07:33:48.266 07/11/2076]',30.476,17.973,4.298,0.000,-64.078,45.324,33.211,39.072,-51.966,33.993,35.165,64.078,39.072,14.066,-8.596,37.509,28.913,41.416,-3.516,23.443,-21.490,-21.099,-8.596
'[07:33:48.270 07/11/2076]',39.463,19.927,3.516,-3.126,-60.562,49.621,28.913,41.026,-42.979,40.635,28.913,55.092,46.496,17.192,-10.159,28.132,35.946,32.039,-2.735,26.569,-22.662,-20.317,-10.159
'[07:33:48.273 07/11/2076]',47.668,22.271,-0.391,-5.470,-50.012,49.621,21.880,41.807,-27.741,42.589,16.801,43.370,50.012,22.662,-16.020,19.145,40.635,19.927,1.172,24.615,-22.271,-14.066,-16.020
'[07:33:48.277 07/11/2076]',55.482,19.536,-6.252,-3.516,-36.337,46.105,11.331,43.370,-11.331,42.589,3.907,36.728,61.343,18.364,-22.662,15.238,48.449,10.159,7.033,25.788,-21.880,-10.159,-22.662
'[07:33:48.281 07/11/2076]',60.562,17.582,-11.722,-4.298,-20.317,41.026,1.954,39.463,5.079,33.602,-0.391,26.960,71.111,10.940,-27.350,10.549,51.966,-7.033,12.503,24.615,-16.410,-7.814,-27.350
'[07:33:48.285 07/11/2076]',60.562,22.662,-17.192,-11.331,-2.735,36.728,-6.642,27.741,21.880,24.225,-5.470,7.424,67.595,16.020,-29.304,-5.470,50.794,-30.867,17.973,13.284,-4.689,-1.954,-29.304
'[07:33:48.289 07/11/2076]',57.827,22.662,-21.880,-12.112,10.159,25.397,-12.894,23.053,37.900,16.801,-21.099,-1.954,60.952,22.271,-33.211,-17.973,48.059,-43.761,22.662,0.781,10.940,6.252,-33.211
'[07:33:48.293 07/11/2076]',60.562,18.364,-23.443,-17.582,24.225,19.927,-19.536,12.112,48.449,11.331,-24.615,-14.457,68.376,13.284,-36.728,-23.443,48.059,-48.059,24.225,3.516,16.801,5.861,-36.728
'[07:33:48.297 07/11/2076]',62.906,12.894,-26.569,-21.880,38.681,18.755,-32.821,0.781,57.436,3.126,-27.741,-25.006,70.330,1.563,-38.291,-25.788,41.026,-57.045,27.350,10.549,14.847,3.126,-38.291
'[07:33:48.301 07/11/2076]',55.873,9.377,-33.993,-23.834,49.621,12.503,-46.886,-8.205,62.906,-2.344,-33.993,-38.681,52.357,8.987,-46.105,-28.523,26.178,-78.926,34.774,0.391,16.801,15.629,-46.105
'[07:33:48.305 07/11/2076]',46.496,7.424,-38.291,-26.569,57.045,6.252,-53.919,-19.927,60.952,-4.689,-32.039,-51.575,35.946,16.020,-48.059,-32.821,16.020,-86.349,39.072,-9.768,17.582,27.350,-48.059
'[07:33:48.309 07/11/2076]',41.026,6.252,-35.946,-28.913,60.171,7.033,-53.919,-31.258,50.012,-1.563,-22.662,-51.184,30.867,5.861,-38.291,-25.397,12.503,-71.502,36.728,0.391,8.205,15.238,-38.291
'[07:33:48.313 07/11/2076]',31.648,12.503,-26.569,-30.867,58.608,10.940,-45.714,-37.118,34.774,7.814,-8.987,-49.621,19.927,9.377,-23.834,-21.099,11.331,-55.873,27.350,-1.563,1.563,12.894,-23.834
'[07:33:48.316 07/11/2076]',18.755,19.927,-17.192,-28.523,48.449,17.192,-35.556,-37.509,17.192,21.099,4.298,-42.198,6.252,21.880,-11.331,-16.410,8.596,-38.291,17.973,-14.457,0.781,20.708,-11.331
'[07:33:48.320 07/11/2076]',7.424,29.304,-6.252,-27.741,33.602,30.085,-23.443,-39.072,0.000,35.946,20.708,-34.774,-2.344,33.993,2.344,-11.722,12.894,-15.629,7.033,-21.099,0.000,23.443,2.344
'[07:33:48.324 07/11/2076]',-1.172,39.463,4.689,-30.085,20.317,43.370,-9.768,-41.807,-17.192,54.310,36.337,-30.867,-10.940,48.840,14.457,-8.205,18.364,4.298,-3.907,-25.397,-3.516,24.225,14.457
'[07:33:48.328 07/11/2076]',-7.424,47.668,11.331,-30.476,6.642,56.264,0.781,-43.370,-29.695,72.674,49.231,-25.397,-12.503,62.515,21.099,-5.470,25.788,18.755,-10.549,-29.304,-5.079,26.178,21.099
'[07:33:48.332 07/11/2076]',-3.907,54.701,18.364,-32.821,-3.907,71.893,12.112,-44.151,-35.946,90.647,59.389,-20.708,-1.172,67.595,27.741,-1.563,37.900,31.258,-17.582,-24.225,-12.894,21.880,27.741
'[07:33:48.336 07/11/2076]',4.298,64.469,20.708,-36.337,-13.284,87.521,21.880,-43.761,-37.900,105.495,67.595,-21.490,7.033,74.237,32.821,-1.563,51.575,39.463,-19.927,-21.490,-24.225,18.755,32.821
'[07:33:48.340 07/11/2076]',10.549,73.065,17.973,-37.509,-23.053,97.680,26.960,-37.509,-37.900,117.998,66.032,-21.099,10.940,87.521,31.648,-5.861,64.078,41.416,-17.192,-23.834,-30.867,21.490,31.648
'[07:33:48.344 07/11/2076]',23.053,78.926,17.973,-38.291,-30.085,107.839,32.039,-28.132,-36.337,130.501,62.125,-12.503,28.132,90.256,30.476,-6.252,83.223,46.496,-17.192,-22.271,-35.556,21.880,30.476
'[07:33:48.348 07/11/2076]',35.556,83.614,17.192,-37.900,-33.211,114.872,33.993,-16.801,-34.774,137.924,58.217,-6.252,42.979,92.991,26.960,-8.596,96.508,42.198,-16.410,-20.317,-39.072,22.662,26.960
'[07:33:48.352 07/11/2076]',40.244,90.256,9.377,-35.946,-34.383,110.965,31.648,-3.907,-29.304,141.050,42.198,-7.814,35.556,118.388,17.582,-26.960,100.024,21.099,-8.596,-35.946,-27.350,36.728,17.582
'[07:33:48.355 07/11/2076]',47.668,94.554,8.205,-37.900,-28.913,108.230,32.039,0.391,-19.536,144.567,33.602,-14.847,42.589,126.984,12.503,-38.681,106.276,11.331,-7.424,-38.291,-23.053,41.416,12.503
'[07:33:48.359 07/11/2076]',64.078,89.866,4.298,-38.681,-16.020,107.839,25.006,3.516,-12.894,147.302,26.960,-12.894,63.687,110.183,9.377,-35.946,117.998,10.940,-3.516,-17.582,-33.993,29.695,9.377
'[07:33:48.363 07/11/2076]',75.018,82.833,-4.689,-37.118,-4.689,103.150,9.377,6.252,-5.861,139.878,18.755,-13.284,72.674,95.726,1.172,-31.258,115.653,-2.344,5.470,-3.907,-43.761,21.490,1.172
'[07:33:48.367 07/11/2076]',75.409,80.098,-14.847,-40.635,3.907,93.773,-1.172,1.954,4.689,130.110,7.033,-23.834,67.595,101.197,-10.549,-39.853,108.230,-28.132,15.629,-11.722,-40.244,30.085,-10.549
'[07:33:48.371 07/11/2076]',76.972,74.628,-24.225,-41.807,12.894,85.177,-13.675,0.391,11.722,121.514,-2.344,-31.258,63.297,99.634,-19.536,-43.761,107.057,-51.575,25.006,-18.755,-37.509,34.383,-19.536
'[07:33:48.375 07/11/2076]',80.098,67.985,-29.695,-44.542,22.271,80.098,-23.443,-5.470,13.284,119.951,-8.205,-37.118,63.687,88.694,-21.099,-43.761,110.965,-58.608,30.476,-9.377,-42.198,22.271,-21.099
'[07:33:48.379 07/11/2076]',81.270,62.515,-31.258,-45.324,30.476,76.190,-26.960,-12.503,13.284,123.077,-8.596,-45.714,61.343,82.051,-17.192,-43.370,114.090,-66.032,32.039,-6.642,-46.496,16.801,-17.192
'[07:33:48.383 07/11/2076]',80.488,57.045,-34.774,-38.681,36.337,75.018,-32.430,-14.457,7.424,128.547,-6.252,-47.277,52.357,78.926,-12.503,-35.946,117.998,-69.939,35.556,-10.159,-53.138,17.582,-12.503
'[07:33:48.387 07/11/2076]',75.800,53.529,-33.602,-34.774,37.118,76.972,-33.602,-19.536,-1.563,132.845,0.391,-49.621,40.244,76.190,-6.642,-29.304,119.560,-65.641,34.383,-10.940,-61.343,18.755,-6.642
'[07:33:48.391 07/11/2076]',64.860,54.310,-28.913,-31.648,31.648,80.488,-28.913,-25.006,-13.675,137.534,10.159,-50.403,25.006,80.488,0.781,-23.834,120.733,-55.092,29.695,-16.020,-64.860,19.927,0.781
'[07:33:48.395 07/11/2076]',55.873,58.217,-19.927,-30.867,25.006,90.647,-22.271,-30.476,-23.834,143.785,25.006,-48.840,17.582,85.177,9.377,-17.582,126.203,-40.635,20.708,-21.099,-65.250,20.708,9.377
'[07:33:48.398 07/11/2076]',50.794,64.078,-8.596,-32.430,16.020,105.885,-12.894,-35.165,-33.993,150.818,40.635,-42.979,17.582,81.270,20.317,-7.033,130.891,-22.662,9.377,-20.317,-67.595,13.284,20.317
'[07:33:48.402 07/11/2076]',42.198,73.455,1.954,-34.383,-0.391,123.858,-3.126,-35.946,-40.244,157.460,53.919,-40.635,14.457,88.303,28.132,-1.563,134.799,-5.861,-1.172,-22.662,-69.548,10.159,28.132
'[07:33:48.406 07/11/2076]',38.291,84.005,8.205,-34.383,-17.582,139.487,7.814,-33.602,-43.370,165.665,59.389,-38.291,7.814,101.587,30.867,1.172,142.222,9.377,-7.424,-31.258,-68.376,12.503,30.867
'[07:33:48.410 07/11/2076]',43.370,87.521,12.894,-30.867,-31.648,153.944,16.801,-25.397,-46.496,171.136,65.250,-26.960,15.238,98.852,35.165,10.940,152.381,29.304,-12.112,-28.132,-72.283,8.596,35.165
'[07:33:48.414 07/11/2076]',45.714,87.521,16.020,-23.053,-45.714,160.977,21.880,-10.549,-48.840,172.308,64.078,-14.457,17.973,104.322,35.556,13.284,153.553,33.993,-15.238,-32.821,-65.250,12.112,35.556
'[07:33:48.418 07/11/2076]',49.621,90.647,20.708,-29.695,-48.449,166.056,25.397,-10.159,-42.198,173.480,62.906,-23.053,16.020,119.170,33.211,0.000,155.116,31.258,-19.927,-38.291,-54.310,17.973,33.211
'[07:33:48.422 07/11/2076]',57.436,93.773,18.755,-35.946,-43.761,168.400,22.662,-11.331,-31.648,171.917,57.045,-33.211,19.536,126.984,30.085,-13.675,153.553,27.350,-17.973,-42.198,-47.277,23.834,30.085
'[07:33:48.426 07/11/2076]',71.111,88.694,16.020,-38.681,-34.383,173.480,8.987,-9.377,-24.225,168.010,47.668,-24.615,41.807,102.759,27.741,-6.642,156.679,31.648,-15.238,-17.973,-60.952,8.205,27.741
'[07:33:48.430 07/11/2076]',80.098,85.177,11.722,-46.105,-25.397,172.698,-3.126,-10.549,-12.894,160.586,37.118,-25.788,56.264,89.084,24.225,-11.331,156.679,22.662,-10.940,-5.079,-66.032,-2.344,24.225
