'Time and date','FP1-F7','F7-T7','T7-P7','P7-O1','FP1-F3','F3-C3','C3-P3','P3-O1','FP2-F4','F4-C4','C4-P4','P4-O2','FP2-F8','F8-T8','T8-P8','P8-O2','FZ-CZ','CZ-PZ','P7-T7','T7-FT9','FT9-FT10','FT10-T8','T8-P8'
'hh:mm:ss.mmm dd/mm/yyyy','uV','uV','uV','uV','uV','uV','uV','uV','uV','uV','uV','uV','uV','uV','uV','uV','uV','uV','uV','uV','uV','uV','uV'
'[13:23:36.000 02/09/2075]',42.198,19.536,6.252,-14.066,31.258,-16.801,33.602,5.861,0.391,-48.449,53.919,-13.284,5.861,-9.768,2.344,-5.861,-23.053,26.960,-5.470,-5.470,-10.159,-12.894,2.344
'[13:23:36.004 02/09/2075]',0.391,0.391,0.391,0.391,0.391,0.391,0.391,0.391,0.391,0.391,0.391,0.391,0.391,0.391,0.391,0.391,0.391,0.391,0.391,0.391,0.391,0.391,0.391
'[13:23:36.008 02/09/2075]',0.391,0.391,0.391,0.391,0.391,0.391,0.391,0.391,0.391,0.391,0.391,0.391,0.391,0.391,0.391,0.391,0.391,0.391,0.391,0.391,0.391,0.391,0.391
'[13:23:36.012 02/09/2075]',0.391,0.391,0.391,0.391,0.391,0.391,0.391,0.391,0.391,0.391,0.391,0.391,0.391,0.391,0.391,0.391,0.391,0.391,0.391,0.391,0.391,0.391,0.391
'[13:23:36.016 02/09/2075]',0.391,0.391,0.391,0.391,0.391,0.391,0.391,0.391,0.391,0.391,0.391,0.391,0.391,0.391,0.391,0.391,0.391,0.391,0.391,0.000,0.391,0.391,0.391
'[13:23:36.020 02/09/2075]',0.000,0.391,-0.391,0.391,-0.781,0.391,0.391,0.391,0.391,-0.781,0.391,0.391,0.000,0.391,0.391,0.391,0.000,0.391,1.172,0.000,0.391,0.391,0.391
'[13:23:36.023 02/09/2075]',-0.781,0.391,-0.391,0.391,-1.172,0.781,0.000,0.000,1.172,0.000,0.391,0.000,0.391,0.781,0.391,-0.391,0.391,0.000,1.172,1.563,0.781,-0.391,0.391
'[13:23:36.027 02/09/2075]',0.781,0.391,0.000,0.391,1.172,0.781,0.391,0.000,0.781,1.563,0.391,-0.391,1.563,0.391,0.391,0.391,1.172,0.391,0.781,1.563,0.391,0.000,0.391
'[13:23:36.031 02/09/2075]',1.954,-0.391,0.391,0.781,3.126,-0.781,0.391,0.000,-0.781,1.172,0.391,0.391,0.391,-0.781,-0.391,1.563,0.391,0.391,0.391,-0.781,0.391,1.954,-0.391
'[13:23:36.035 02/09/2075]',-0.781,0.000,-0.391,0.391,-0.391,-0.781,0.000,0.391,-0.781,-0.781,0.391,0.391,-1.172,0.391,0.000,0.391,-0.391,0.391,1.172,-0.781,0.391,1.172,0.000
'[13:23:36.039 02/09/2075]',-3.907,0.391,-2.735,0.391,-6.642,0.391,-0.391,0.391,1.954,-1.954,0.000,0.000,-0.781,1.563,0.391,-1.563,-1.172,-0.391,3.516,0.781,1.172,-0.781,0.391
'[13:23:36.043 02/09/2075]',-5.079,-2.344,-10.549,0.391,-11.331,-3.126,-3.126,-0.391,1.172,-8.596,1.172,-1.954,-3.126,-0.391,-2.735,-1.172,-4.298,-1.172,11.331,-2.344,1.563,1.172,-2.735
'[13:23:36.047 02/09/2075]',-7.033,-2.344,-16.801,-3.126,-12.503,-2.735,-6.642,-6.642,3.907,-10.549,1.563,-8.596,-3.516,2.344,-5.470,-6.252,-4.689,-3.907,17.582,2.735,6.252,-0.781,-5.470
'[13:23:36.051 02/09/2075]',-10.159,-6.252,-24.225,0.391,-14.457,-4.298,-10.549,-10.940,5.861,-5.079,0.781,-14.066,1.172,0.781,-6.642,-6.252,-1.563,-5.861,25.006,10.159,6.252,-3.907,-6.642
'[13:23:36.055 02/09/2075]',-4.298,-8.987,-31.258,1.172,-3.516,-7.424,-14.847,-16.410,3.516,-1.563,1.172,-16.020,2.735,0.391,-11.722,-3.516,-0.781,-5.861,32.039,5.861,7.033,1.563,-11.722
'[13:23:36.059 02/09/2075]',-13.284,-9.377,-32.039,0.391,-8.596,-7.814,-16.410,-19.927,1.172,1.172,1.563,-21.880,0.391,2.344,-12.503,-6.642,-1.563,-7.424,32.821,5.079,10.159,4.298,-12.503
'[13:23:36.063 02/09/2075]',-14.457,-7.424,-32.430,3.907,-11.331,-4.689,-14.847,-18.364,4.689,4.298,0.781,-22.662,1.172,7.033,-7.033,-11.722,-0.391,-7.424,33.211,9.377,10.549,1.954,-7.033
'[13:23:36.066 02/09/2075]',-12.503,-8.205,-34.383,7.814,-10.159,-4.689,-14.847,-15.629,8.205,1.954,-1.172,-21.490,0.781,6.252,-8.205,-10.549,-1.954,-5.470,35.165,6.642,12.894,4.298,-8.205
'[13:23:36.070 02/09/2075]',-12.503,-7.424,-30.867,6.642,-6.642,-6.252,-13.675,-16.020,3.907,-1.172,-3.126,-23.834,-5.470,3.907,-8.596,-12.112,-5.470,-6.252,31.648,3.126,15.238,8.205,-8.596
'[13:23:36.074 02/09/2075]',-9.377,-9.768,-31.648,7.033,-2.344,-8.205,-12.503,-19.145,5.470,-3.516,-5.470,-24.615,-8.987,2.344,-6.642,-14.066,-5.470,-8.987,32.430,10.159,14.066,2.735,-6.642
'[13:23:36.078 02/09/2075]',-19.536,-9.768,-33.993,8.205,-6.642,-10.940,-14.847,-20.708,11.331,-4.689,-8.987,-21.880,-5.470,0.000,-6.642,-11.331,-5.861,-9.768,34.774,11.331,12.894,0.391,-6.642
'[13:23:36.082 02/09/2075]',-18.364,-8.987,-34.774,5.861,-2.344,-10.159,-16.020,-25.006,10.549,-3.907,-8.596,-24.615,-5.470,0.391,-6.642,-13.675,-6.642,-11.331,35.556,5.861,13.284,5.861,-6.642
'[13:23:36.086 02/09/2075]',-16.801,-8.596,-33.211,3.126,-0.391,-9.377,-14.066,-29.695,12.112,-0.781,-4.298,-28.913,-2.735,1.172,-2.344,-17.192,-5.079,-10.549,33.993,6.252,11.722,6.642,-2.344
'[13:23:36.090 02/09/2075]',-15.629,-12.894,-31.648,5.079,-1.563,-9.768,-14.457,-27.350,16.020,0.000,-1.563,-27.350,4.298,1.172,-0.391,-16.410,-3.516,-8.205,32.430,9.377,12.112,4.298,-0.391
'[13:23:36.094 02/09/2075]',-8.596,-21.880,-28.523,6.642,-2.735,-9.377,-14.066,-24.615,9.768,1.172,2.344,-24.225,0.391,1.172,0.781,-12.112,-4.689,-3.907,29.304,7.814,9.377,9.377,0.781
'[13:23:36.098 02/09/2075]',-8.987,-26.178,-21.099,4.298,-9.377,-5.470,-10.940,-25.006,3.907,4.689,5.861,-21.490,-3.516,0.781,5.861,-8.205,-4.689,-2.344,21.880,7.814,8.987,10.159,5.861
'[13:23:36.102 02/09/2075]',-17.973,-25.397,-15.629,6.252,-17.582,-3.126,-6.642,-23.834,1.563,8.596,8.987,-16.020,-7.033,2.344,11.722,-2.735,-2.344,-0.781,16.410,11.331,7.033,7.814,11.722
'[13:23:36.105 02/09/2075]',-19.927,-15.629,-9.377,7.814,-12.894,0.000,-4.298,-18.364,0.391,9.768,8.205,-8.205,-13.284,6.642,15.629,1.172,0.000,0.391,10.159,7.033,6.642,12.112,15.629
'[13:23:36.109 02/09/2075]',-23.053,0.391,-2.735,8.205,-7.033,4.689,0.000,-14.457,4.689,11.331,6.252,-3.516,-8.596,8.596,16.801,2.344,1.172,0.391,3.516,-0.781,12.503,15.238,16.801
'[13:23:36.113 02/09/2075]',-26.178,13.675,2.735,3.907,-4.689,7.814,3.126,-9.377,7.424,7.814,4.689,0.000,-5.470,8.987,16.801,0.781,2.344,-0.391,-1.954,0.391,12.112,8.596,16.801
'[13:23:36.117 02/09/2075]',-23.834,16.410,7.033,4.689,-5.079,6.252,4.298,-0.391,10.549,1.563,3.907,4.298,1.172,5.861,11.722,1.954,0.781,0.391,-6.252,2.735,9.768,3.126,11.722
'[13:23:36.121 02/09/2075]',-18.755,18.755,13.284,5.079,0.000,8.205,6.252,3.516,19.927,0.000,3.907,3.516,14.457,1.172,6.252,5.470,0.000,2.344,-12.503,-3.907,10.549,3.516,6.252
'[13:23:36.125 02/09/2075]',-16.020,18.755,16.801,4.298,3.516,8.596,7.424,4.689,12.894,-0.781,3.516,0.391,9.768,-2.344,3.126,5.079,0.391,1.172,-16.020,-4.298,5.470,1.954,3.126
'[13:23:36.129 02/09/2075]',-9.377,16.410,17.582,6.642,12.112,5.470,5.861,7.033,10.549,-1.172,1.563,-1.172,7.814,-3.907,-1.172,6.252,0.781,0.391,-16.801,-0.391,3.126,-1.954,-1.172
'[13:23:36.133 02/09/2075]',-6.252,12.112,14.847,7.424,16.020,1.563,2.735,7.424,15.238,0.391,-1.563,-3.516,12.503,-2.735,-4.689,4.298,0.391,-1.954,-14.066,-4.298,3.907,0.781,-4.689
'[13:23:36.137 02/09/2075]',-5.470,5.861,8.987,3.907,14.847,-3.126,0.391,2.344,8.987,1.954,-3.907,-10.159,9.377,-3.126,-5.861,-3.516,-0.391,-5.861,-8.205,-2.735,3.126,1.954,-5.861
'[13:23:36.141 02/09/2075]',-1.563,5.470,4.298,0.391,19.145,-5.470,-1.954,-0.781,3.516,3.126,-5.079,-15.238,4.689,-0.781,-6.642,-10.549,-1.563,-8.987,-3.516,2.735,4.689,-1.954,-6.642
'[13:23:36.145 02/09/2075]',-15.238,5.470,0.000,0.391,6.642,-8.205,-4.298,-2.735,8.205,4.298,-6.642,-18.755,6.252,1.563,-8.596,-12.503,-1.954,-10.159,0.781,2.344,7.033,-1.563,-8.596
'[13:23:36.148 02/09/2075]',-14.457,10.159,-1.172,0.391,10.549,-4.298,-3.126,-7.814,13.284,6.252,-6.642,-23.053,8.596,2.344,-7.033,-13.284,-0.781,-9.768,1.954,-1.563,10.549,2.344,-7.033
'[13:23:36.152 02/09/2075]',-12.503,13.284,-3.126,1.563,14.066,-1.563,-1.954,-9.377,12.894,5.861,-3.516,-23.053,7.033,1.563,-5.861,-10.159,0.391,-8.205,3.907,0.391,7.424,2.735,-5.861
'[13:23:36.156 02/09/2075]',-17.582,13.675,-3.126,4.689,9.377,-3.516,-1.954,-5.470,20.317,5.861,-2.344,-19.145,11.722,3.126,-7.033,-2.344,3.126,-4.689,3.907,1.954,3.907,5.079,-7.033
'[13:23:36.160 02/09/2075]',-10.940,10.159,-4.689,6.642,10.549,-1.954,-2.735,-3.126,30.867,5.861,-1.563,-16.801,22.271,5.079,-3.126,-5.470,3.126,-2.735,5.470,-1.563,8.205,8.987,-3.126
'[13:23:36.164 02/09/2075]',-6.642,12.894,-6.642,4.689,12.894,-1.172,-1.172,-5.079,24.225,6.642,0.391,-19.536,16.410,8.205,-2.735,-9.768,5.079,-3.516,7.424,-0.391,10.940,11.331,-2.735
'[13:23:36.168 02/09/2075]',-8.596,15.238,-5.861,5.861,16.801,-1.954,-0.781,-5.861,25.788,8.205,0.000,-23.053,18.364,8.596,-2.735,-12.112,9.377,-4.689,6.642,1.954,17.973,9.377,-2.735
'[13:23:36.172 02/09/2075]',-6.252,10.549,-10.549,10.159,21.099,-3.516,-3.907,-7.814,28.132,7.424,-2.344,-23.834,18.364,7.033,-3.516,-12.894,10.159,-7.033,11.331,0.781,22.271,10.940,-3.516
'[13:23:36.176 02/09/2075]',-5.079,8.205,-16.020,11.722,21.490,-4.298,-4.298,-12.503,25.006,8.596,-3.126,-26.178,13.675,6.252,-3.516,-11.722,7.814,-7.814,16.801,1.563,21.490,13.284,-3.516
'[13:23:36.180 02/09/2075]',-9.377,7.814,-17.973,13.284,19.145,-5.470,-4.689,-13.675,29.695,8.596,-2.344,-23.053,19.927,4.298,-2.344,-8.205,7.814,-6.642,18.755,7.424,21.099,8.596,-2.344
'[13:23:36.184 02/09/2075]',-8.596,5.079,-21.490,14.457,15.629,-6.642,-4.689,-12.894,35.165,5.470,-1.563,-14.847,24.225,3.126,0.000,-2.344,5.470,-2.344,22.271,12.112,16.801,4.298,0.000
'[13:23:36.188 02/09/2075]',-5.861,4.689,-21.099,11.331,12.503,-3.516,-2.735,-15.629,35.556,5.470,0.781,-12.503,26.960,2.735,1.563,-1.172,4.298,0.391,21.880,8.596,14.457,7.424,1.563
'[13:23:36.191 02/09/2075]',-9.377,10.159,-14.847,7.424,11.722,-1.172,1.172,-17.582,41.807,5.861,5.861,-12.112,33.211,5.470,2.344,0.391,6.642,2.735,15.629,7.033,16.801,7.424,2.344
'[13:23:36.195 02/09/2075]',-5.470,10.159,-11.331,7.814,9.768,3.516,2.735,-15.238,43.761,5.079,9.377,-7.424,32.430,7.814,6.642,3.516,9.768,3.907,12.112,9.768,13.284,3.907,6.642
'[13:23:36.199 02/09/2075]',-4.689,10.159,-9.768,10.549,7.814,7.033,3.907,-12.503,27.741,5.470,14.847,-1.954,16.801,8.987,10.549,8.987,9.768,8.987,10.549,3.516,13.284,8.596,10.549
'[13:23:36.203 02/09/2075]',-1.172,12.894,-5.470,12.503,12.503,10.549,6.252,-10.549,21.880,7.814,23.053,3.126,13.284,10.940,16.801,15.238,10.549,12.503,6.252,0.000,14.066,11.331,16.801
'[13:23:36.207 02/09/2075]',2.344,16.410,-0.391,14.066,15.629,12.112,10.940,-5.470,21.099,12.894,28.913,14.847,17.192,10.940,25.788,24.225,14.066,17.192,1.172,2.735,9.768,5.861,25.788
'[13:23:36.211 02/09/2075]',4.298,19.536,0.781,15.629,15.238,13.675,13.284,-0.781,16.410,16.410,30.476,26.178,16.020,11.331,28.523,33.993,14.066,20.708,0.000,1.563,2.735,5.079,28.523
'[13:23:36.215 02/09/2075]',7.033,22.271,5.861,12.894,14.847,17.582,16.020,0.391,19.145,20.317,27.350,27.741,17.973,14.847,26.569,35.556,14.457,20.708,-5.079,-4.298,0.391,7.424,26.569
'[13:23:36.219 02/09/2075]',7.424,26.569,10.159,10.549,14.847,20.317,17.973,2.344,31.258,21.099,21.099,25.788,29.695,15.629,22.662,31.648,17.582,17.192,-9.377,-2.735,-2.735,2.735,22.662
'[13:23:36.223 02/09/2075]',9.377,25.788,9.768,11.331,12.503,21.490,16.801,5.861,26.960,16.410,11.722,21.880,25.006,11.722,14.847,25.788,17.582,13.675,-8.987,-3.516,-3.907,0.391,14.847
'[13:23:36.227 02/09/2075]',8.205,28.132,10.940,10.940,11.331,22.271,14.066,10.159,18.364,7.424,2.735,17.973,8.987,12.112,7.814,17.582,16.410,9.768,-10.159,-7.424,-1.954,0.781,7.814
'[13:23:36.230 02/09/2075]',9.377,26.960,10.549,7.033,13.284,21.099,12.112,8.205,24.615,5.470,0.781,9.377,8.987,15.238,6.642,9.768,15.238,5.079,-9.768,-7.033,-6.252,3.126,6.642
'[13:23:36.234 02/09/2075]',12.112,23.443,7.033,4.298,15.238,16.801,10.159,5.470,20.317,3.126,0.391,1.954,3.126,13.284,5.470,3.907,15.238,2.735,-6.252,-0.781,-12.112,0.781,5.470
'[13:23:36.238 02/09/2075]',12.112,17.192,3.907,5.861,17.192,11.331,5.861,4.298,20.708,1.172,0.000,-1.563,3.126,10.940,4.298,1.172,11.722,3.126,-3.126,-3.126,-10.549,3.126,4.298
'[13:23:36.242 02/09/2075]',6.252,12.112,2.344,5.470,14.847,7.033,3.126,1.563,28.132,2.735,0.391,-7.814,10.940,11.331,2.344,-1.172,8.205,1.172,-1.563,-5.470,-7.033,6.642,2.344
'[13:23:36.246 02/09/2075]',5.079,8.596,1.172,7.814,12.503,4.298,3.907,1.954,21.099,3.516,1.954,-7.814,12.112,5.861,0.391,0.000,6.642,1.172,-0.391,-0.781,-2.735,0.391,0.391
'[13:23:36.250 02/09/2075]',6.252,0.391,3.516,12.894,10.549,0.781,3.126,8.205,19.145,0.391,3.126,-3.126,10.940,5.079,-0.781,3.907,3.907,4.689,-2.735,0.391,0.391,-2.344,-0.781
'[13:23:36.254 02/09/2075]',8.205,-0.391,5.470,12.503,12.894,0.000,4.689,7.814,11.722,5.861,3.516,-3.126,1.563,10.159,-1.563,7.424,2.735,4.298,-4.689,-2.735,-4.689,2.735,-1.563
'[13:23:36.258 02/09/2075]',16.801,0.391,4.689,10.549,19.536,1.954,5.861,5.079,3.907,9.377,3.126,-7.424,-8.987,14.457,0.000,4.689,2.344,3.516,-3.907,-0.781,-10.549,3.907,0.000
'[13:23:36.262 02/09/2075]',18.364,-3.126,0.391,11.331,18.755,-0.391,2.735,5.470,3.516,9.768,-1.172,-10.549,-14.847,17.582,0.781,-1.563,0.391,2.344,0.391,2.735,-13.284,3.516,0.781
'[13:23:36.266 02/09/2075]',11.722,-4.298,-4.298,8.987,12.894,-3.126,1.172,0.000,12.112,7.033,-6.252,-13.675,-12.894,17.973,0.391,-6.642,-3.126,-1.563,5.079,-2.344,-11.331,9.768,0.391
'[13:23:36.270 02/09/2075]',6.252,-5.470,-10.940,7.424,4.689,-1.172,-0.391,-5.861,19.145,5.079,-7.424,-18.364,-8.205,18.364,0.000,-10.549,-4.689,-5.470,11.722,-1.563,-12.503,14.457,0.000
'[13:23:36.273 02/09/2075]',7.424,-10.940,-14.066,7.424,1.563,-1.954,-1.954,-7.033,28.132,0.781,-7.424,-17.582,-1.172,16.020,-0.391,-9.377,-4.689,-6.252,14.847,3.516,-11.331,8.987,-0.391
'[13:23:36.277 02/09/2075]',4.298,-16.410,-16.801,7.424,-5.079,-3.516,-5.079,-6.642,33.211,-2.344,-9.377,-12.894,0.391,14.066,0.000,-6.252,-5.079,-7.814,17.582,3.126,-12.503,8.596,0.000
'[13:23:36.281 02/09/2075]',7.033,-12.503,-17.582,4.689,0.391,-1.172,-6.642,-9.768,32.430,0.391,-9.377,-14.066,-1.954,17.582,0.781,-6.252,-3.516,-9.377,18.364,0.391,-12.503,10.940,0.781
'[13:23:36.285 02/09/2075]',17.192,-12.894,-18.364,0.781,11.331,-1.563,-9.377,-12.112,19.536,1.563,-8.205,-15.238,-13.284,17.192,1.954,-8.205,-3.126,-9.768,19.145,2.735,-9.768,6.642,1.954
'[13:23:36.289 02/09/2075]',18.755,-14.457,-20.708,-0.391,16.020,-7.814,-14.457,-10.159,14.066,0.391,-9.377,-10.159,-16.410,15.238,2.735,-6.642,-6.642,-10.159,21.490,0.391,-7.424,5.470,2.735
'[13:23:36.293 02/09/2075]',16.410,-14.066,-21.490,-4.298,16.020,-9.768,-15.629,-14.457,8.205,1.954,-7.033,-9.377,-21.880,17.973,3.516,-5.861,-9.768,-10.549,22.271,-5.861,-5.861,10.940,3.516
'[13:23:36.297 02/09/2075]',20.317,-14.457,-18.364,-7.814,17.192,-5.470,-14.457,-16.801,5.861,3.907,0.781,-8.987,-26.178,21.880,10.549,-3.907,-10.159,-7.033,19.145,-1.954,-12.894,10.159,10.549
'[13:23:36.301 02/09/2075]',18.364,-18.755,-15.238,-4.298,10.159,-6.252,-12.112,-11.331,14.066,4.689,5.470,1.172,-17.192,21.880,17.192,5.079,-8.987,-1.954,16.020,1.954,-18.364,5.079,17.192
'[13:23:36.305 02/09/2075]',10.549,-21.099,-8.987,-3.516,-0.391,-6.252,-5.861,-9.768,12.112,4.298,10.159,10.940,-19.927,22.271,23.053,12.894,-7.033,0.781,9.768,0.391,-23.053,9.768,23.053
'[13:23:36.309 02/09/2075]',17.192,-18.364,-3.126,-3.516,1.172,-0.391,-1.172,-7.424,9.768,4.689,13.284,18.364,-22.271,23.053,27.741,18.364,-5.861,5.470,3.907,-0.391,-24.225,9.768,27.741
'[13:23:36.313 02/09/2075]',21.490,-18.364,2.735,-3.907,1.563,1.954,0.391,-1.563,13.284,2.344,11.331,27.741,-17.973,23.443,26.569,23.443,-4.298,6.252,-1.954,1.954,-21.099,3.516,26.569
'[13:23:36.316 02/09/2075]',16.020,-17.582,7.033,-4.298,-2.344,0.781,-0.391,2.344,9.768,-0.781,6.642,31.258,-21.880,21.490,22.662,25.006,-4.689,5.470,-6.252,-1.563,-17.973,3.516,22.662
'[13:23:36.320 02/09/2075]',21.099,-17.582,9.768,-6.252,1.954,1.172,0.000,3.516,12.503,-3.126,4.689,25.788,-19.145,21.099,18.364,19.927,-6.252,5.079,-8.987,-3.516,-18.755,6.642,18.364
'[13:23:36.324 02/09/2075]',24.615,-16.801,9.377,-9.768,4.689,0.391,-0.781,2.344,7.814,-6.642,2.344,18.755,-17.192,14.066,12.503,12.503,-6.642,2.735,-8.596,0.391,-15.629,-0.391,12.503
'[13:23:36.328 02/09/2075]',22.271,-16.410,6.642,-11.331,2.735,-1.954,-1.954,2.735,3.516,-7.033,0.391,14.066,-19.536,13.284,8.596,8.205,-6.642,1.954,-5.861,1.172,-18.755,-1.954,8.596
'[13:23:36.332 02/09/2075]',28.913,-14.847,0.391,-11.722,7.424,-2.735,-0.781,-1.172,-0.391,-7.033,1.563,8.205,-23.443,14.847,6.252,3.907,-7.424,3.516,0.391,-3.126,-20.708,2.735,6.252
'[13:23:36.336 02/09/2075]',40.635,-16.801,-4.298,-13.675,16.410,-1.563,-2.344,-7.424,-2.344,-2.344,3.126,1.563,-20.317,15.629,5.079,-0.781,-5.861,3.516,5.079,-2.735,-22.271,1.954,5.079
'[13:23:36.340 02/09/2075]',28.132,-18.364,-8.205,-9.768,5.861,-2.735,-5.079,-7.033,-0.781,1.172,3.126,-1.172,-16.801,17.192,2.344,0.000,-2.735,3.516,8.987,-1.563,-22.271,0.000,2.344
'[13:23:36.344 02/09/2075]',24.615,-19.145,-10.549,-4.298,3.126,-2.344,-4.689,-6.642,3.907,1.563,2.344,-3.516,-14.457,17.973,0.781,0.391,-0.391,4.689,11.331,-2.735,-21.490,1.563,0.781
'[13:23:36.348 02/09/2075]',26.569,-17.973,-11.331,-2.735,3.516,1.172,-2.344,-9.768,11.722,2.735,2.344,-9.377,-9.768,19.927,0.000,-1.172,1.172,4.298,12.112,-1.172,-21.880,4.689,0.000
'[13:23:36.352 02/09/2075]',23.834,-20.317,-10.159,-1.172,-0.391,0.781,0.000,-8.596,12.503,0.000,1.172,-12.894,-8.987,16.801,-1.954,-2.735,2.735,2.735,10.940,5.079,-19.536,1.563,-1.954
'[13:23:36.355 02/09/2075]',25.006,-22.662,-11.331,0.391,-1.954,0.000,1.563,-7.033,12.112,-3.907,-1.954,-12.503,-12.894,13.675,-4.689,-1.563,2.735,2.735,12.112,5.861,-17.582,3.516,-4.689
'[13:23:36.359 02/09/2075]',30.085,-24.225,-10.940,1.954,2.735,0.000,0.781,-6.642,10.940,-5.079,-4.298,-14.066,-14.847,12.894,-2.344,-7.814,1.563,1.172,11.722,1.954,-11.331,9.377,-2.344
'[13:23:36.363 02/09/2075]',27.350,-23.443,-10.940,2.344,3.126,-1.563,-0.391,-4.298,13.284,-3.907,-5.470,-16.410,-9.768,11.331,-3.907,-10.159,1.954,-1.172,11.722,6.642,-10.549,7.814,-3.907
'[13:23:36.367 02/09/2075]',26.178,-25.788,-13.675,5.861,4.689,-5.470,-3.516,-1.172,14.066,-3.516,-7.033,-15.238,-4.689,7.814,-6.252,-8.987,1.954,-2.735,14.457,12.112,-10.159,3.516,-6.252
'[13:23:36.371 02/09/2075]',29.695,-25.788,-17.973,6.642,10.159,-9.377,-5.861,-1.563,13.284,-0.781,-5.079,-17.582,-3.907,9.377,-5.079,-9.768,0.391,-3.516,18.755,6.642,-15.629,9.768,-5.079
'[13:23:36.375 02/09/2075]',30.476,-24.225,-17.582,3.516,15.238,-10.549,-5.861,-5.079,20.317,3.516,-2.344,-20.708,1.172,14.066,-4.298,-9.377,-0.391,-5.079,18.364,6.642,-17.582,10.159,-4.298
'[13:23:36.379 02/09/2075]',32.821,-26.569,-20.317,3.907,17.582,-12.894,-7.033,-6.252,16.020,5.079,-1.172,-19.927,-1.172,14.847,-4.689,-7.814,-1.172,-6.252,21.099,9.377,-17.973,6.252,-4.689
'[13:23:36.383 02/09/2075]',29.695,-28.132,-20.317,3.126,16.020,-13.675,-9.377,-7.033,13.284,6.252,0.391,-18.364,-5.079,16.410,-2.735,-5.861,-3.516,-5.861,21.099,2.344,-15.629,10.940,-2.735
'[13:23:36.387 02/09/2075]',27.741,-24.225,-16.801,1.563,17.973,-9.377,-7.033,-11.331,10.549,7.033,3.516,-16.410,-10.940,19.536,1.563,-3.516,-2.735,-6.252,17.582,-0.781,-17.582,15.238,1.563
'[13:23:36.391 02/09/2075]',30.085,-23.053,-14.457,1.954,19.927,-4.298,-5.470,-14.457,9.377,5.470,5.861,-15.238,-9.377,16.020,3.126,-2.735,-0.781,-3.516,15.238,3.907,-14.847,10.549,3.126
'[13:23:36.395 02/09/2075]',26.178,-20.317,-11.331,2.735,16.410,0.000,-3.126,-14.457,11.722,3.907,6.642,-12.112,-6.642,14.457,5.470,-1.954,0.391,-0.391,12.112,2.735,-10.159,8.596,5.470
'[13:23:36.398 02/09/2075]',17.192,-13.675,-6.252,0.781,9.768,5.470,0.391,-17.582,20.317,5.470,8.596,-10.940,-0.391,16.020,9.377,0.391,2.735,1.954,7.033,-1.954,-10.159,12.894,9.377
'[13:23:36.402 02/09/2075]',19.927,-10.940,0.000,-1.954,13.284,8.987,1.954,-19.145,23.834,5.861,9.377,-9.377,4.298,16.801,8.205,1.172,5.079,2.735,0.781,0.391,-8.987,12.112,8.205
'[13:23:36.406 02/09/2075]',21.490,-7.814,3.516,-1.563,17.192,6.252,3.516,-12.894,27.741,5.079,8.596,-1.954,8.987,16.410,8.596,5.470,8.205,3.516,-2.735,1.563,-8.596,9.768,8.596
'[13:23:36.410 02/09/2075]',23.834,-2.344,9.377,-1.954,19.145,8.205,5.470,-5.861,21.490,4.298,9.768,5.079,1.954,17.582,8.596,13.675,8.987,6.252,-8.596,-1.563,-12.894,12.894,8.596
'[13:23:36.414 02/09/2075]',37.509,-1.954,12.112,-3.126,28.132,8.987,7.814,-2.344,17.192,5.470,14.457,7.814,1.172,17.582,10.549,16.020,8.596,7.424,-11.331,-0.391,-14.457,9.377,10.549
'[13:23:36.418 02/09/2075]',37.509,-1.172,15.629,-3.126,24.615,9.768,10.940,1.172,14.457,7.424,18.364,11.722,2.344,18.364,13.284,18.755,9.377,10.159,-14.847,4.689,-16.020,3.126,13.284
'[13:23:36.422 02/09/2075]',34.383,-1.954,17.192,-0.781,20.317,8.987,12.112,5.079,14.066,9.377,23.443,15.629,1.954,18.755,17.582,25.006,9.377,15.238,-16.410,1.172,-13.675,2.344,17.582
'[13:23:36.426 02/09/2075]',33.211,-1.954,18.364,-2.344,17.582,8.596,12.894,6.642,21.099,11.331,26.569,22.271,6.642,21.490,22.271,31.648,8.987,16.801,-17.582,-1.563,-16.410,6.252,22.271
'[13:23:36.430 02/09/2075]',25.788,0.391,20.317,-5.861,10.159,8.205,14.066,5.861,21.880,8.987,27.350,27.741,3.516,21.880,26.569,34.383,9.768,14.457,-19.536,4.298,-19.145,1.563,26.569
'[13:23:36.434 02/09/2075]',25.788,0.000,20.708,-4.689,10.940,5.861,13.284,8.987,25.006,3.126,25.788,29.304,1.172,19.927,27.741,34.774,10.159,12.894,-19.927,5.470,-16.801,0.000,27.741
'[13:23:36.438 02/09/2075]',28.913,-3.516,17.973,-4.298,12.894,4.298,10.940,9.377,24.225,0.391,21.490,25.006,0.391,17.192,24.615,27.741,7.814,8.987,-17.192,3.126,-17.973,5.470,24.615
'[13:23:36.441 02/09/2075]',28.913,-3.907,16.020,-4.689,14.457,3.516,8.987,7.033,23.053,0.391,16.410,12.894,-0.391,17.973,20.708,15.238,5.470,2.735,-15.238,5.079,-18.364,6.642,20.708
'[13:23:36.445 02/09/2075]',32.821,-6.252,10.940,0.000,21.099,0.391,5.079,8.596,24.225,-0.391,8.205,5.861,0.000,18.755,12.112,6.642,5.861,-0.781,-10.159,7.814,-10.940,3.516,12.112
'[13:23:36.449 02/09/2075]',32.039,-12.112,4.298,4.298,20.317,-3.516,0.391,10.940,24.225,0.391,1.172,2.344,3.907,17.192,3.907,3.516,3.126,-1.954,-3.516,5.470,-5.861,5.861,3.907
'[13:23:36.453 02/09/2075]',27.741,-10.940,0.391,4.298,22.271,-6.642,-0.781,6.252,27.741,2.735,0.000,-1.563,10.159,16.801,0.391,1.563,1.172,-2.735,0.391,3.516,-7.033,8.205,0.391
'[13:23:36.457 02/09/2075]',32.821,-9.768,-3.516,4.689,32.821,-9.768,-3.126,4.298,21.099,2.735,-1.172,-4.689,3.126,17.192,-1.954,0.391,3.516,-3.516,4.298,8.596,-4.689,1.563,-1.954
'[13:23:36.461 02/09/2075]',34.774,-15.238,-8.596,5.079,31.258,-12.894,-6.642,3.516,20.317,3.126,-3.126,-5.861,1.563,16.410,-0.391,-1.563,3.907,-3.907,9.377,10.940,-10.549,0.781,-0.391
'[13:23:36.465 02/09/2075]',37.900,-16.020,-10.940,1.563,34.383,-14.847,-8.987,1.172,25.006,1.563,-5.079,-10.549,1.954,16.801,-2.735,-4.689,1.563,-8.205,11.722,8.596,-19.145,5.079,-2.735
'[13:23:36.469 02/09/2075]',37.509,-19.536,-12.112,1.172,32.430,-16.020,-9.377,0.000,21.099,0.000,-9.768,-15.238,-2.735,14.847,-5.079,-9.377,-1.172,-12.112,12.894,12.112,-18.364,1.563,-5.079
'[13:23:36.473 02/09/2075]',34.774,-24.225,-14.457,3.126,23.834,-17.973,-9.768,2.735,20.708,-4.298,-17.582,-12.112,-2.735,6.252,-8.987,-7.424,-6.642,-13.675,15.238,15.238,-20.708,-1.172,-8.987
'[13:23:36.477 02/09/2075]',29.695,-23.834,-14.847,6.252,17.582,-17.582,-8.596,5.470,26.569,-9.377,-22.271,-8.205,0.000,3.907,-10.940,-5.861,-12.503,-12.503,15.629,9.768,-19.927,2.344,-10.940
'[13:23:36.480 02/09/2075]',28.132,-16.801,-12.894,3.907,18.364,-12.894,-5.470,2.344,26.569,-7.424,-22.271,-13.675,0.391,4.298,-9.377,-10.940,-13.675,-12.503,13.675,10.159,-16.020,1.954,-9.377
'[13:23:36.484 02/09/2075]',31.258,-12.503,-11.722,5.470,25.006,-11.722,-3.907,2.735,25.006,-3.516,-19.927,-14.847,2.344,4.298,-8.205,-12.503,-8.987,-11.722,12.503,14.066,-12.503,-1.563,-8.205
'[13:23:36.488 02/09/2075]',32.821,-13.675,-9.377,5.470,26.960,-10.549,-4.298,2.344,30.867,-0.391,-14.457,-13.284,12.112,6.642,-5.470,-11.331,-5.861,-9.768,10.159,10.159,-11.722,3.126,-5.470
'[13:23:36.492 02/09/2075]',26.178,-12.894,-6.252,3.907,23.053,-7.033,-4.689,0.000,21.880,5.470,-9.768,-17.582,9.768,8.987,-5.079,-14.066,-3.516,-8.596,7.033,3.907,-2.735,6.642,-5.079
'[13:23:36.496 02/09/2075]',25.006,-12.894,-5.470,6.252,19.927,-2.735,-3.516,-0.391,14.066,9.768,-4.689,-14.847,6.252,11.331,-2.344,-11.722,0.000,-5.861,6.252,7.814,-1.563,2.344,-2.344
'[13:23:36.500 02/09/2075]',22.271,-13.284,-3.907,9.768,15.238,0.391,-3.516,1.563,10.549,8.987,-0.391,-9.377,3.907,11.331,0.000,-6.252,1.954,0.391,4.689,6.252,-0.391,1.954,0.000
'[13:23:36.504 02/09/2075]',18.755,-7.424,-2.344,9.377,16.020,4.298,-1.563,-0.781,9.377,8.596,1.563,-10.159,3.126,11.331,0.000,-4.298,3.516,2.344,3.126,0.391,4.689,4.689,0.000
'[13:23:36.508 02/09/2075]',22.662,1.563,0.391,6.252,25.788,9.768,1.172,-5.861,15.629,6.252,3.516,-10.940,8.205,11.331,0.391,-4.689,6.642,2.344,0.391,0.391,9.377,1.563,0.391
'[13:23:36.512 02/09/2075]',21.880,6.642,3.516,4.298,28.132,11.331,2.344,-4.689,24.225,1.954,2.735,-4.689,16.020,8.596,0.000,-0.781,8.596,0.781,-2.735,0.000,10.549,-1.172,0.000
'[13:23:36.516 02/09/2075]',25.397,5.861,5.079,0.781,28.913,10.940,2.344,-4.689,26.960,-0.781,1.954,-0.781,18.364,7.033,-0.781,1.172,5.861,0.391,-4.298,-5.079,7.814,2.344,-0.781
'[13:23:36.520 02/09/2075]',26.569,7.814,7.814,-4.689,30.085,11.331,4.298,-8.205,25.397,-2.344,2.735,0.781,17.582,6.642,0.391,0.781,3.126,-1.172,-7.033,-6.252,5.861,1.563,0.391
'[13:23:36.523 02/09/2075]',30.476,6.252,10.549,-4.689,32.039,9.377,3.516,-3.516,23.443,-3.126,2.344,3.907,16.801,3.907,2.344,2.344,1.954,-2.735,-9.768,1.172,-0.781,-4.298,2.344
'[13:23:36.527 02/09/2075]',22.271,6.252,11.331,-7.033,23.834,5.470,2.735,0.000,8.205,-5.470,1.172,7.033,2.344,2.735,1.172,3.516,-0.391,-3.907,-10.549,0.000,-3.516,-5.470,1.172
'[13:23:36.531 02/09/2075]',13.284,10.549,10.940,-9.768,18.755,5.470,0.781,-1.172,2.344,-6.252,0.391,3.516,-1.563,1.954,0.391,-0.391,-1.563,-8.987,-10.159,-1.563,-2.735,-5.470,0.391
'[13:23:36.535 02/09/2075]',17.192,5.079,7.814,-11.331,20.708,1.563,0.391,-3.516,4.298,-5.861,1.563,-1.954,1.172,1.563,2.344,-9.377,-1.954,-12.503,-7.033,1.563,-4.298,-8.205,2.344
'[13:23:36.539 02/09/2075]',17.582,5.079,3.907,-10.940,23.053,-1.563,-3.126,-1.172,3.516,-5.861,0.000,-1.563,-0.391,5.079,2.344,-12.503,-0.391,-12.894,-3.126,0.391,-7.033,-6.642,2.344
'[13:23:36.543 02/09/2075]',22.271,1.954,0.391,-10.159,26.960,-3.126,-4.689,-2.735,11.331,-5.470,0.391,-1.563,4.689,8.596,2.344,-12.503,-0.781,-12.894,0.391,-3.907,-3.516,-1.954,2.344
'[13:23:36.547 02/09/2075]',25.006,-0.781,-0.391,-13.284,27.741,-3.907,-4.298,-7.814,20.317,-5.079,1.563,-5.861,11.722,9.768,2.344,-15.238,-1.172,-13.675,1.172,0.391,-0.391,-4.298,2.344
'[13:23:36.551 02/09/2075]',26.960,1.954,-0.781,-10.940,33.602,-3.516,-7.814,-3.907,19.536,-5.470,0.781,-1.954,10.549,8.596,1.563,-9.377,-0.391,-13.284,1.563,5.861,1.172,-8.205,1.563
'[13:23:36.555 02/09/2075]',20.708,-0.391,-2.344,-10.549,25.397,-6.252,-8.987,-3.126,16.020,-6.252,-1.172,0.391,8.596,5.079,-1.954,-3.516,-2.344,-15.238,3.126,2.735,2.344,-2.344,-1.954
'[13:23:36.559 02/09/2075]',18.364,0.391,-1.172,-13.675,23.834,-5.079,-9.377,-4.689,11.722,-5.861,-0.781,-4.298,7.424,1.954,0.391,-10.159,-3.907,-16.410,1.954,0.391,6.252,0.000,0.391
'[13:23:36.563 02/09/2075]',12.503,3.907,-2.735,-11.331,19.145,-3.126,-11.722,-1.172,7.424,-3.516,-5.470,-3.516,7.033,0.000,-1.172,-11.722,-4.298,-16.801,3.516,4.689,7.814,-2.344,-1.172
'[13:23:36.566 02/09/2075]',7.814,4.689,-3.907,-10.549,16.410,-6.252,-12.894,1.172,5.470,-1.954,-9.768,-1.172,7.033,-0.781,-3.516,-10.940,-3.907,-16.410,4.689,1.563,10.159,0.000,-3.516
'[13:23:36.570 02/09/2075]',9.768,5.470,-5.470,-10.940,17.973,-5.470,-12.112,-0.781,7.033,-0.391,-8.987,-6.642,10.549,0.391,-5.861,-14.066,-5.079,-15.629,6.252,-2.344,12.112,3.126,-5.861
'[13:23:36.574 02/09/2075]',8.205,8.205,-6.252,-12.503,17.973,-5.079,-12.112,-1.563,11.722,1.954,-9.377,-9.377,15.238,3.907,-7.033,-16.801,-3.907,-16.801,7.033,-1.172,11.331,-0.391,-7.033
'[13:23:36.578 02/09/2075]',9.768,8.596,-8.987,-11.331,17.973,-5.861,-13.284,0.000,12.112,2.344,-8.596,-9.768,14.457,5.079,-7.033,-16.801,-3.516,-16.801,9.768,-1.563,9.377,-2.735,-7.033
'[13:23:36.582 02/09/2075]',12.112,8.596,-12.112,-10.159,16.410,-4.689,-12.112,-0.391,14.066,1.563,-3.907,-12.112,15.629,8.596,-6.642,-17.582,-3.126,-14.847,12.894,-6.252,6.252,1.172,-6.642
'[13:23:36.586 02/09/2075]',14.457,7.814,-14.066,-8.987,16.801,-3.516,-9.768,-3.126,7.814,2.344,-0.781,-14.457,13.675,7.033,-6.252,-19.536,-3.126,-13.284,14.847,-6.252,8.987,-0.391,-6.252
'[13:23:36.590 02/09/2075]',14.457,7.033,-13.675,-4.689,16.801,-3.907,-7.814,-0.781,8.205,0.781,0.000,-9.377,17.582,4.298,-6.252,-14.847,-0.391,-9.377,14.457,-1.563,11.331,-4.689,-6.252
'[13:23:36.594 02/09/2075]',10.940,6.642,-16.410,0.000,11.331,-3.516,-6.252,1.172,5.470,-1.954,0.391,-1.172,13.284,3.126,-7.033,-7.814,-0.391,-6.252,17.192,-1.172,10.159,-3.126,-7.033
'[13:23:36.598 02/09/2075]',3.907,7.033,-15.629,0.000,0.781,-0.391,-3.516,-0.391,0.391,-1.172,1.563,0.000,11.722,3.907,-6.252,-8.596,0.000,-6.252,16.410,-1.954,13.675,-2.344,-6.252
'[13:23:36.602 02/09/2075]',6.642,8.596,-12.894,-0.781,1.563,3.126,-2.735,0.391,3.126,-0.391,2.344,3.907,14.847,3.516,-1.954,-6.252,2.735,-6.252,13.675,0.000,10.159,-4.689,-1.954
'[13:23:36.605 02/09/2075]',7.814,8.596,-13.284,-0.781,1.563,4.298,-3.907,1.172,2.735,-1.954,4.689,8.205,12.503,5.079,-0.781,-2.344,4.689,-4.689,14.066,0.391,5.470,-4.689,-0.781
'[13:23:36.609 02/09/2075]',12.112,6.252,-12.112,-1.954,1.954,6.642,-4.689,0.000,0.781,-1.172,7.033,7.424,9.768,7.814,-0.391,-2.735,6.642,-2.344,12.894,-4.298,3.516,-0.781,-0.391
'[13:23:36.613 02/09/2075]',18.364,7.814,-6.642,-2.735,10.940,7.814,-1.172,0.000,2.344,1.172,8.205,6.252,13.675,8.205,0.000,-1.172,10.159,-1.172,7.424,-1.563,3.907,-3.516,0.000
'[13:23:36.617 02/09/2075]',22.271,6.642,-4.689,0.781,18.364,3.907,-1.172,3.516,7.814,0.391,7.424,8.987,15.629,7.424,-1.563,3.126,12.503,1.172,5.470,2.735,1.954,-8.596,-1.563
'[13:23:36.621 02/09/2075]',19.145,4.298,-3.126,3.126,14.066,3.126,0.781,5.079,7.424,-3.907,6.252,8.205,11.722,5.861,-4.298,4.689,12.112,2.344,3.907,0.000,2.735,-4.298,-4.298
'[13:23:36.625 02/09/2075]',19.927,3.516,0.000,2.344,14.457,2.735,3.516,4.689,12.503,-5.079,3.126,5.079,15.238,3.907,-7.424,3.907,10.940,0.391,0.781,1.563,2.344,-4.298,-7.424
'[13:23:36.629 02/09/2075]',21.099,2.735,-2.344,3.126,13.284,1.954,1.172,7.033,13.675,-7.814,-1.563,4.298,13.284,0.781,-9.377,3.516,10.159,-3.907,3.126,7.033,1.563,-10.159,-9.377
'[13:23:36.633 02/09/2075]',12.112,-2.344,-3.907,2.735,0.781,-1.172,0.391,8.205,12.503,-14.066,-6.252,3.907,5.470,-2.735,-9.768,1.954,8.596,-7.814,4.689,6.252,-0.391,-8.596,-9.768
'[13:23:36.637 02/09/2075]',8.596,-5.470,-2.735,1.954,-2.735,-3.516,0.000,7.814,4.689,-5.470,-8.596,-2.344,6.252,-4.298,-11.722,-1.172,7.033,-10.940,3.516,3.516,1.563,-5.079,-11.722
'[13:23:36.641 02/09/2075]',2.344,-0.391,-2.344,3.516,-2.344,-5.470,0.391,10.159,4.689,0.000,-10.159,-2.735,10.159,-4.689,-10.549,-2.735,6.642,-12.894,3.126,6.252,7.424,-10.549,-10.549
'[13:23:36.645 02/09/2075]',-1.954,0.781,-0.781,1.954,-3.907,-6.642,0.391,11.722,4.298,1.172,-11.722,0.391,10.159,-4.298,-9.377,-1.172,6.642,-13.284,1.563,6.252,8.596,-11.331,-9.377
'[13:23:36.648 02/09/2075]',-1.954,6.642,-2.735,1.172,0.781,-5.861,-1.563,9.768,7.424,3.516,-10.940,-1.172,14.066,-2.344,-10.159,-1.172,5.470,-12.894,3.516,1.172,10.940,-5.861,-10.159
'[13:23:36.652 02/09/2075]',5.079,8.205,-7.033,-2.344,10.159,-6.642,-3.516,4.689,11.331,0.391,-11.722,1.172,15.629,-3.126,-12.112,0.391,2.344,-15.238,7.814,1.172,11.331,-6.642,-12.112
'[13:23:36.656 02/09/2075]',8.205,5.079,-12.894,-5.470,12.894,-11.331,-7.814,2.735,8.987,-4.689,-11.722,1.563,11.722,-7.814,-7.424,-2.735,0.000,-17.192,13.675,5.470,7.033,-10.159,-7.424
'[13:23:36.660 02/09/2075]',5.470,3.126,-14.457,-8.205,10.549,-15.238,-9.768,0.781,7.424,-5.470,-12.503,-0.391,7.814,-7.424,-6.252,-4.689,-2.735,-16.801,15.238,1.563,6.642,-3.516,-6.252
'[13:23:36.664 02/09/2075]',3.126,2.344,-12.894,-8.205,7.424,-15.629,-8.205,0.781,10.549,-2.344,-12.894,-3.907,9.768,-4.689,-5.861,-7.814,-4.689,-16.410,13.675,0.391,8.987,-0.391,-5.861
'[13:23:36.668 02/09/2075]',-2.344,4.298,-9.377,-8.596,3.907,-14.457,-5.470,0.391,9.768,0.391,-10.940,-8.987,9.377,-3.516,-3.516,-10.940,-4.298,-15.629,10.159,6.252,8.205,-3.907,-3.516
'[13:23:36.672 02/09/2075]',-6.642,5.861,-5.470,-5.470,3.907,-12.112,-4.298,0.391,11.331,3.126,-10.940,-11.722,10.159,-4.298,-3.516,-9.377,-1.172,-13.675,6.252,3.516,7.424,-1.172,-3.516
'[13:23:36.676 02/09/2075]',-6.252,8.596,-3.907,-4.298,6.642,-6.252,-4.689,-1.563,14.457,3.907,-9.768,-14.066,12.894,-2.344,-4.689,-8.987,0.000,-12.894,4.689,-3.126,9.768,3.126,-4.689
'[13:23:36.680 02/09/2075]',-2.344,9.377,-2.735,-4.298,10.159,-3.126,-3.126,-3.126,8.987,4.689,-6.642,-14.847,12.112,-4.298,-3.907,-10.549,1.172,-13.675,3.516,3.126,11.331,-3.516,-3.907
'[13:23:36.684 02/09/2075]',-8.596,9.768,0.391,-0.781,8.205,-2.735,-3.907,0.000,5.861,4.298,-5.861,-11.331,14.066,-7.033,-3.907,-8.205,3.126,-12.112,0.391,4.298,17.973,-5.861,-3.907
'[13:23:36.688 02/09/2075]',-7.814,10.940,1.172,0.000,9.768,-2.344,-2.344,-0.391,9.768,3.907,-3.516,-9.377,16.801,-2.735,-1.563,-10.159,2.735,-9.377,-0.391,-1.563,20.317,0.781,-1.563
'[13:23:36.691 02/09/2075]',-4.298,8.205,1.563,-0.391,9.377,-2.735,0.391,-0.781,3.126,3.516,-1.563,-9.768,9.377,-0.781,-0.391,-12.894,2.344,-10.159,-0.781,1.172,20.317,0.000,-0.391
'[13:23:36.695 02/09/2075]',-5.079,7.033,1.954,0.000,5.470,-2.344,1.172,0.391,0.781,1.563,-3.516,-6.642,7.424,-2.735,-1.172,-10.940,1.954,-9.768,-1.172,5.861,15.629,-4.298,-1.172
'[13:23:36.699 02/09/2075]',1.563,8.205,2.344,-1.954,10.159,-1.563,0.391,1.172,0.391,-2.344,-4.689,-4.689,5.470,-4.689,-1.563,-9.768,0.781,-7.033,-1.563,0.391,14.066,-3.516,-1.563
'[13:23:36.703 02/09/2075]',-0.391,8.987,5.470,-6.642,2.735,0.391,2.344,0.781,2.735,-1.172,-2.735,-6.252,10.940,-5.861,-3.516,-8.987,0.781,-4.689,-4.689,-2.735,14.066,-1.954,-3.516
'[13:23:36.707 02/09/2075]',-0.781,13.284,9.768,-9.377,2.344,5.079,4.689,1.172,4.689,1.172,-3.126,-2.344,17.582,-7.424,-5.079,-2.344,3.907,-2.344,-8.987,0.391,14.066,-6.252,-5.079
'[13:23:36.711 02/09/2075]',-5.079,17.192,11.722,-7.814,-1.563,8.987,5.861,1.563,7.424,3.907,-3.516,1.172,19.536,-5.470,-5.470,2.735,8.596,0.391,-10.940,-3.126,17.192,-6.252,-5.470
'[13:23:36.715 02/09/2075]',-9.768,19.145,10.159,-8.205,-8.205,12.894,8.596,-1.172,7.424,7.033,-1.954,2.344,18.364,-2.735,-4.689,5.861,12.112,1.563,-9.377,-8.205,15.238,-1.954,-4.689
'[13:23:36.719 02/09/2075]',-7.814,21.099,11.722,-8.987,-5.861,14.066,11.722,-3.126,2.735,10.549,0.000,2.735,15.238,-1.172,-3.126,7.033,15.238,1.172,-10.940,-5.470,10.940,-4.689,-3.126
'[13:23:36.723 02/09/2075]',-4.689,23.053,10.549,-6.642,0.781,11.331,11.331,-0.781,-8.205,8.596,0.000,5.470,3.126,-3.126,-1.954,8.596,16.801,2.344,-9.768,-3.907,7.424,-7.814,-1.954
'[13:23:36.727 02/09/2075]',-1.172,26.960,8.987,-5.470,6.642,9.768,8.205,3.907,-12.112,6.642,-0.391,8.987,1.172,-4.298,-0.781,8.596,16.801,3.126,-8.205,-7.814,6.642,-8.596,-0.781
'[13:23:36.730 02/09/2075]',1.563,27.741,10.940,-8.205,7.424,10.159,8.596,4.298,-11.722,10.159,1.954,8.205,3.907,-3.126,0.391,7.033,15.629,3.907,-10.159,-8.596,4.689,-5.861,0.391
'[13:23:36.734 02/09/2075]',10.159,24.615,9.377,-7.033,12.112,10.159,7.424,5.861,-8.596,12.503,3.516,10.159,11.722,-3.907,3.126,7.814,16.801,5.470,-8.596,-1.954,2.344,-11.722,3.126
'[13:23:36.738 02/09/2075]',5.079,17.192,5.079,-3.907,2.344,8.205,4.298,8.205,-7.814,12.112,3.516,10.940,15.238,-7.033,0.781,10.940,14.457,6.252,-4.298,-4.689,2.344,-9.377,0.781
'[13:23:36.742 02/09/2075]',-1.954,14.457,5.861,-8.205,-7.814,9.377,3.516,4.298,-6.252,12.112,3.126,8.987,16.801,-7.033,-1.172,10.940,10.549,5.470,-5.079,-7.424,0.000,-3.907,-1.172
'[13:23:36.746 02/09/2075]',-6.642,18.755,7.814,-7.033,-8.205,12.112,5.079,3.126,-5.861,12.112,1.954,7.033,16.801,-5.861,-2.735,8.987,9.768,4.689,-7.033,-2.344,2.344,-7.424,-2.735
'[13:23:36.750 02/09/2075]',-10.940,25.397,8.987,-1.563,-4.298,13.675,3.907,6.642,-9.768,10.940,-3.516,7.814,10.549,-7.033,-8.205,11.331,9.768,3.516,-8.205,-1.954,7.033,-6.252,-8.205
'[13:23:36.754 02/09/2075]',-15.238,29.304,8.987,0.781,-1.172,13.284,3.516,7.033,-9.768,11.722,-6.252,4.298,9.768,-9.377,-10.549,10.159,6.252,4.298,-8.205,-5.470,9.377,-1.563,-10.549
'[13:23:36.758 02/09/2075]',-12.894,28.913,11.722,1.954,2.735,12.894,7.033,5.470,-6.642,16.801,-2.735,-1.954,13.675,-7.424,-2.735,1.954,4.298,8.205,-10.940,-0.781,10.940,-1.954,-2.735
'[13:23:36.762 02/09/2075]',-13.675,27.350,13.284,4.689,3.126,12.112,7.033,8.205,-1.954,17.582,-1.954,-3.907,16.020,-8.987,-0.781,2.735,3.516,11.722,-12.503,1.172,10.940,-5.079,-0.781
'[13:23:36.766 02/09/2075]',-16.020,28.913,13.284,3.907,4.689,12.503,5.079,6.642,-1.563,15.238,0.391,-4.298,14.847,-9.768,1.172,2.344,1.172,14.847,-12.503,-7.033,11.722,-0.781,1.172
'[13:23:36.770 02/09/2075]',-8.596,34.774,15.238,0.391,13.675,17.973,5.079,3.126,0.391,15.238,4.298,-3.907,15.238,-5.861,3.907,2.344,3.907,15.238,-14.457,-11.331,8.205,1.563,3.907
'[13:23:36.773 02/09/2075]',-5.861,36.337,15.629,0.781,17.973,21.490,2.735,2.735,0.781,12.503,5.079,-1.172,15.629,-6.642,2.735,5.470,8.596,13.675,-14.847,-9.768,9.768,-3.907,2.735
'[13:23:36.777 02/09/2075]',-7.424,39.853,13.675,2.344,17.582,25.006,-0.781,5.861,-6.642,9.377,5.470,3.516,8.205,-6.252,1.563,8.987,9.768,13.675,-12.894,-13.284,6.252,-0.391,1.563
'[13:23:36.781 02/09/2075]',-7.033,41.026,12.112,1.172,14.457,26.178,0.781,4.689,-1.954,10.940,9.377,0.391,14.457,-2.735,2.344,4.689,9.768,14.066,-11.331,-15.629,6.252,1.954,2.344
'[13:23:36.785 02/09/2075]',-10.940,37.509,12.503,1.172,5.861,26.178,2.735,4.689,2.735,12.112,13.284,-4.298,20.317,-1.563,5.079,1.172,9.377,14.457,-11.722,-11.722,3.516,1.954,5.079
'[13:23:36.789 02/09/2075]',-12.503,39.463,12.112,2.735,4.298,23.834,3.516,8.205,-0.391,11.722,14.066,-2.344,15.238,0.000,4.689,1.954,9.377,15.629,-11.331,-12.503,3.126,4.689,4.689
'[13:23:36.793 02/09/2075]',-14.066,44.542,11.722,3.516,5.861,25.006,5.861,7.424,1.954,12.894,14.457,-2.344,15.629,3.907,3.907,2.735,10.940,14.847,-10.940,-18.364,5.470,10.549,3.907
'[13:23:36.797 02/09/2075]',-8.205,46.105,12.112,2.344,11.331,26.960,5.861,5.861,3.907,14.066,13.675,-3.516,13.675,5.861,5.079,2.344,13.675,12.112,-11.331,-15.238,5.470,8.205,5.079
'[13:23:36.801 02/09/2075]',-5.861,43.761,12.112,3.516,15.629,25.788,4.689,5.861,-1.954,10.159,12.503,-0.781,5.079,1.954,6.252,4.689,16.801,10.159,-11.331,-10.549,5.079,3.126,6.252
'[13:23:36.805 02/09/2075]',-6.252,41.807,12.503,3.126,18.364,23.834,3.516,3.126,2.735,8.596,10.549,0.000,6.252,1.954,7.033,5.079,18.364,7.814,-11.722,-14.457,3.516,8.205,7.033
'[13:23:36.809 02/09/2075]',-3.516,38.681,12.503,0.781,21.880,21.490,3.516,0.000,12.894,7.814,9.377,-2.735,14.847,1.172,9.377,1.563,17.582,6.252,-11.722,-14.457,1.172,8.596,9.377
'[13:23:36.813 02/09/2075]',-8.987,35.556,12.894,-0.391,14.847,19.536,4.298,-1.563,21.099,5.470,8.205,-1.954,17.192,1.563,12.112,1.563,17.582,3.516,-12.112,-10.159,-1.954,5.861,12.112
'[13:23:36.816 02/09/2075]',-6.642,36.337,12.894,0.000,16.410,20.317,5.079,-0.781,16.801,8.596,8.205,0.391,16.801,1.954,10.549,4.298,17.582,5.470,-12.112,-12.112,-1.563,7.033,10.549
'[13:23:36.820 02/09/2075]',-6.252,35.556,12.503,0.391,12.503,22.662,6.252,-0.391,18.364,11.331,9.377,-1.172,21.490,1.172,9.377,5.079,15.629,6.642,-11.722,-15.238,-0.781,9.768,9.377
'[13:23:36.824 02/09/2075]',-2.344,34.383,13.284,-0.391,11.331,23.834,8.987,-0.781,3.907,13.284,10.549,-2.735,10.549,0.391,8.987,4.298,15.238,7.033,-12.503,-10.159,-1.172,6.252,8.987
'[13:23:36.828 02/09/2075]',-1.563,34.774,14.066,1.172,7.033,25.397,10.549,3.126,0.000,16.410,11.722,-1.954,11.331,0.781,8.205,3.516,16.020,8.987,-13.284,-8.596,1.954,3.126,8.205
'[13:23:36.832 02/09/2075]',1.172,35.165,14.457,1.172,6.642,25.397,11.722,5.861,-2.344,18.755,8.987,-0.781,11.722,1.172,7.033,2.735,14.847,10.159,-13.675,-11.331,2.344,7.033,7.033
'[13:23:36.836 02/09/2075]',1.954,32.430,13.675,0.391,5.861,21.099,13.284,7.033,-2.344,19.145,6.252,1.172,12.894,1.172,5.861,2.735,12.503,10.159,-12.894,-9.377,1.954,7.033,5.861
'[13:23:36.840 02/09/2075]',-3.126,29.304,10.549,2.735,0.391,16.410,10.940,10.159,3.126,17.192,0.391,5.470,16.801,0.391,2.344,6.252,9.768,8.596,-9.768,-5.470,1.172,2.735,2.344
'[13:23:36.844 02/09/2075]',-4.298,24.225,7.033,1.563,0.391,10.549,5.861,9.377,1.954,12.112,-6.642,6.642,10.159,-1.563,-0.391,5.861,4.689,6.252,-6.252,-5.861,0.391,3.907,-0.391
'[13:23:36.848 02/09/2075]',-11.722,18.755,2.344,-1.954,-5.470,5.470,2.344,2.735,2.344,7.033,-11.331,2.735,7.033,-5.470,-3.907,4.298,0.391,0.391,-1.563,-6.252,0.000,5.861,-3.907
'[13:23:36.852 02/09/2075]',-7.814,17.582,0.781,-4.298,0.391,5.470,0.781,-2.344,8.596,8.205,-12.503,-2.735,8.987,-3.516,-3.126,0.000,0.781,-3.126,0.000,-5.079,-1.172,7.424,-3.126
'[13:23:36.855 02/09/2075]',-3.907,16.410,-0.391,-1.563,5.470,5.861,0.391,-3.907,9.377,9.768,-12.112,-4.689,7.033,-0.781,-0.391,-2.735,4.689,-1.954,1.172,-3.907,-0.391,8.987,-0.391
'[13:23:36.859 02/09/2075]',0.391,15.238,-0.781,1.954,9.768,10.159,0.391,-4.689,8.987,13.675,-13.284,-7.424,7.424,0.781,-0.781,-4.298,6.642,-0.781,1.563,-7.814,3.126,15.629,-0.781
'[13:23:36.863 02/09/2075]',-7.033,14.847,1.172,7.424,1.563,14.066,2.735,-3.126,14.847,18.364,-11.722,-10.159,16.020,3.516,-1.563,-7.033,8.596,0.000,-0.391,-1.172,5.861,12.894,-1.563
'[13:23:36.867 02/09/2075]',-12.503,9.377,0.391,14.066,-5.079,12.112,1.563,1.172,10.159,16.410,-11.331,-10.940,14.066,2.344,-3.126,-8.987,8.205,1.172,0.391,7.033,9.377,6.642,-3.126
'[13:23:36.871 02/09/2075]',-13.284,6.252,2.735,12.894,-1.954,7.814,1.172,0.781,9.768,12.894,-9.768,-11.722,18.364,0.000,-6.642,-10.159,5.861,0.000,-1.954,4.689,12.894,11.331,-6.642
'[13:23:36.875 02/09/2075]',-18.364,7.814,5.861,8.987,-1.563,4.298,2.735,-1.563,8.596,9.377,-7.424,-12.503,19.145,0.000,-6.642,-14.066,2.344,-1.172,-5.079,4.298,14.457,11.331,-6.642
'[13:23:36.879 02/09/2075]',-9.768,7.814,5.470,6.642,8.987,0.391,0.781,-1.563,0.781,4.689,-4.689,-8.205,9.377,0.781,-3.907,-14.066,1.172,-1.954,-4.689,6.252,13.284,6.252,-3.907
'[13:23:36.883 02/09/2075]',4.298,3.516,4.298,6.252,23.053,-0.781,-0.391,-1.954,-3.516,2.344,-2.735,-3.126,5.079,2.344,-3.126,-11.331,0.391,-0.391,-3.516,4.298,12.112,6.642,-3.126
'[13:23:36.887 02/09/2075]',-0.391,0.781,4.298,3.516,15.629,-0.781,-0.781,-4.689,-4.298,1.563,-0.781,-3.516,2.344,3.907,-2.344,-11.722,-2.735,1.563,-3.516,0.391,10.159,8.205,-2.344
'[13:23:36.891 02/09/2075]',2.735,0.000,3.516,3.516,15.238,0.391,-0.781,-3.907,-3.126,0.391,1.563,-4.298,2.344,5.470,-1.172,-12.503,-1.954,2.735,-2.735,3.516,7.424,3.907,-1.172
'[13:23:36.895 02/09/2075]',10.549,0.391,2.735,3.516,20.317,1.563,-1.563,-2.344,2.735,-1.172,2.735,-3.126,7.814,5.470,-1.172,-11.722,-0.391,3.516,-1.954,5.079,7.814,1.563,-1.172
'[13:23:36.898 02/09/2075]',0.391,0.781,4.298,0.391,7.814,1.954,0.391,-3.907,12.894,0.000,5.470,-3.907,18.755,7.033,0.000,-11.722,-1.563,4.689,-3.516,0.391,8.205,5.470,0.000
'[13:23:36.902 02/09/2075]',0.391,2.344,5.861,0.391,5.079,3.907,1.954,-3.516,12.894,0.391,9.377,-2.344,19.927,6.642,3.516,-10.940,-1.172,5.861,-5.079,0.781,9.377,4.298,3.516
'[13:23:36.906 02/09/2075]',4.298,0.000,7.033,1.954,4.298,4.298,4.689,-0.781,5.470,3.516,12.112,2.344,17.192,7.424,5.861,-6.642,0.391,7.814,-6.252,4.689,9.377,1.172,5.861
'[13:23:36.910 02/09/2075]',1.563,-1.563,7.424,4.298,0.000,3.516,5.861,1.172,-2.344,5.861,12.894,6.252,8.987,8.205,8.596,-2.735,-0.781,11.722,-6.642,1.954,8.205,4.298,8.596
'[13:23:36.914 02/09/2075]',4.298,-0.391,7.814,2.344,-0.781,5.861,7.424,1.172,-11.331,7.033,15.238,4.298,-3.516,11.331,12.503,-4.298,-0.391,12.894,-7.033,1.954,1.563,6.642,12.503
'[13:23:36.918 02/09/2075]',9.377,4.298,7.033,0.781,5.861,7.424,7.814,0.391,-8.987,10.159,16.801,1.172,-2.735,13.675,14.847,-5.470,2.344,12.112,-6.252,5.470,-2.344,3.907,14.847
'[13:23:36.922 02/09/2075]',16.801,6.642,6.642,0.000,17.192,6.642,5.861,0.391,-1.954,11.331,17.973,0.781,1.563,13.675,14.847,-2.344,5.079,14.066,-5.861,0.391,-4.298,6.642,14.847
'[13:23:36.926 02/09/2075]',13.284,6.642,6.642,-0.781,13.675,8.205,5.470,-1.954,7.814,15.238,19.536,0.391,7.033,19.145,16.020,0.391,6.642,15.238,-5.861,-5.470,-6.252,12.503,16.020
'[13:23:36.930 02/09/2075]',17.192,9.768,6.642,0.391,17.973,10.940,6.642,-1.563,15.238,18.364,19.927,2.344,13.284,23.443,17.192,1.954,9.768,15.238,-5.861,-3.516,-5.470,9.768,17.192
'[13:23:36.934 02/09/2075]',14.847,3.907,7.033,3.907,12.112,8.987,5.861,2.344,14.066,21.490,14.847,7.033,14.847,21.490,12.503,7.424,9.377,17.582,-6.252,-0.781,-3.516,6.642,12.503
'[13:23:36.938 02/09/2075]',17.192,-0.781,6.252,5.079,7.814,8.987,5.470,3.516,4.689,22.271,9.768,6.642,7.033,19.145,8.205,9.377,5.861,17.973,-5.470,-3.126,-1.563,11.331,8.205
'[13:23:36.941 02/09/2075]',16.410,-1.563,7.033,1.172,1.563,11.331,7.424,2.344,-1.563,25.006,4.689,2.735,2.735,19.145,5.079,2.735,3.126,14.066,-6.252,0.391,0.000,10.549,5.079
'[13:23:36.945 02/09/2075]',15.629,-3.907,5.861,1.172,-5.861,11.722,7.424,4.298,-4.298,27.741,1.172,2.344,0.391,21.099,1.172,3.907,3.516,12.112,-5.079,5.079,-2.735,7.424,1.172
'[13:23:36.949 02/09/2075]',26.960,-4.689,4.689,3.907,2.344,14.457,7.814,5.470,-1.172,27.741,1.954,4.689,1.563,25.006,1.172,5.079,5.470,11.722,-3.907,1.172,-1.172,9.768,1.172
'[13:23:36.953 02/09/2075]',25.397,-5.861,1.563,3.516,-2.735,15.238,8.596,2.735,1.954,26.960,5.861,3.516,6.252,26.569,6.642,-1.172,6.642,10.549,-0.781,1.954,-5.470,11.722,6.642
'[13:23:36.957 02/09/2075]',25.397,-5.470,0.391,3.516,-3.907,15.238,8.987,2.344,-1.563,22.271,9.768,4.689,3.907,23.834,8.205,-0.391,8.205,11.331,0.391,6.252,-6.642,4.689,8.205
'[13:23:36.961 02/09/2075]',31.648,-5.470,-0.391,3.516,1.172,15.629,6.642,3.907,-2.344,17.973,10.549,7.814,1.563,21.880,9.768,0.391,10.159,12.112,1.172,5.861,-8.205,2.735,9.768
'[13:23:36.965 02/09/2075]',26.178,-8.987,-1.172,0.000,-8.596,14.847,5.079,2.344,-4.689,13.675,11.722,5.861,-0.781,21.490,8.596,-1.563,7.814,11.331,1.954,2.735,-8.987,5.861,8.596
'[13:23:36.969 02/09/2075]',30.867,-10.159,0.000,-4.298,-7.033,14.457,4.689,1.954,-1.954,10.549,12.112,5.079,-1.954,22.662,6.642,-1.172,8.987,7.814,0.781,5.079,-12.503,4.298,6.642
'[13:23:36.973 02/09/2075]',37.118,-10.940,-1.563,-0.391,0.391,12.894,1.563,6.252,1.563,10.940,12.894,10.159,0.391,26.178,6.252,3.126,10.549,6.642,2.344,3.516,-12.894,3.516,6.252
'[13:23:36.977 02/09/2075]',36.728,-13.675,-5.470,3.126,0.391,10.159,-1.954,10.159,8.596,7.033,11.722,14.066,4.298,28.523,3.516,5.079,7.814,3.516,6.252,0.391,-8.987,7.033,3.516
'[13:23:36.980 02/09/2075]',37.118,-15.238,-8.205,3.126,0.781,10.159,-3.126,6.642,2.344,5.470,11.722,10.549,-3.126,26.569,3.516,3.516,4.689,1.172,8.987,-0.391,-12.894,10.940,3.516
'[13:23:36.984 02/09/2075]',30.085,-15.629,-8.596,3.126,-2.735,8.987,-2.735,4.689,0.391,4.298,11.722,7.033,-4.298,22.662,1.954,3.126,3.907,0.781,9.377,2.735,-11.331,6.252,1.954
'[13:23:36.988 02/09/2075]',29.695,-23.443,-10.549,5.079,-5.470,5.861,-4.689,3.516,-3.516,1.172,10.159,3.126,-7.033,16.020,0.391,3.126,0.391,1.954,11.331,2.344,-10.940,7.814,0.391
'[13:23:36.992 02/09/2075]',32.821,-26.178,-8.987,2.735,-4.689,8.205,-3.516,0.391,0.391,2.735,9.768,-2.344,-6.642,17.582,0.781,0.000,-1.563,4.689,9.768,0.391,-12.894,11.331,0.781
'[13:23:36.996 02/09/2075]',37.118,-29.304,-8.596,3.907,-2.344,7.814,-1.954,-0.781,3.516,5.470,7.814,-3.126,-1.563,17.582,0.781,-1.563,0.391,4.689,9.377,7.424,-10.159,3.907,0.781
'[13:23:37.000 02/09/2075]',44.933,-31.648,-5.470,5.470,4.298,8.205,-3.516,2.344,5.861,7.033,7.814,0.000,0.391,19.927,1.172,0.391,0.781,8.987,6.252,8.987,-8.205,1.954,1.172
'[13:23:37.004 02/09/2075]',42.589,-32.821,-4.298,5.861,4.298,6.252,-3.907,2.735,4.298,10.159,8.987,0.391,-2.344,22.662,5.470,-0.391,0.391,10.940,5.079,5.861,-10.159,7.814,5.470
'[13:23:37.008 02/09/2075]',43.370,-33.211,-3.516,4.298,5.470,4.689,-2.735,1.172,2.344,13.284,11.722,0.781,-2.735,23.053,8.987,0.000,2.735,9.768,4.298,9.377,-14.066,4.689,8.987
'[13:23:37.012 02/09/2075]',44.542,-35.946,-3.126,3.126,4.298,1.954,-3.516,4.298,-6.642,12.112,13.675,3.907,-9.768,20.317,11.722,1.172,2.344,9.377,3.907,13.284,-15.238,0.391,11.722
'[13:23:37.016 02/09/2075]',45.324,-38.681,-2.735,3.907,4.298,0.000,-3.516,6.252,-10.159,12.503,13.675,7.424,-12.894,21.490,13.284,2.735,0.781,8.987,3.516,9.377,-14.457,4.298,13.284
'[13:23:37.020 02/09/2075]',42.198,-41.807,-3.516,1.172,-1.563,-1.172,-4.298,4.689,-3.126,14.066,12.894,6.642,-6.252,23.053,12.894,1.563,0.000,6.252,4.298,7.424,-14.457,5.079,12.894
'[13:23:37.023 02/09/2075]',44.151,-43.761,-3.516,-0.391,-3.126,0.000,-5.861,4.689,0.391,16.410,9.768,8.205,-1.172,23.443,11.722,1.954,0.391,5.079,4.298,14.066,-16.020,1.172,11.722
'[13:23:37.027 02/09/2075]',49.231,-44.151,-4.298,0.391,1.563,-0.391,-6.642,5.861,4.298,17.192,5.861,7.814,0.000,25.006,11.331,0.391,1.954,6.252,5.079,14.457,-17.973,3.126,11.331
'[13:23:37.031 02/09/2075]',50.794,-46.886,-8.205,-1.954,-0.391,-1.563,-7.424,1.172,7.814,19.145,4.689,0.781,2.735,25.397,9.768,-4.689,1.954,4.689,8.987,13.675,-23.443,7.424,9.768
'[13:23:37.035 02/09/2075]',52.357,-45.714,-7.424,-4.689,2.344,-1.563,-6.252,-1.954,0.391,22.662,4.298,-2.344,-3.126,25.788,8.205,-5.470,4.689,4.298,8.205,17.973,-25.397,6.642,8.205
'[13:23:37.039 02/09/2075]',59.780,-46.105,-4.689,-4.298,12.503,-3.907,-5.079,0.391,-2.344,21.490,3.126,-1.172,-7.033,27.350,7.424,-5.861,7.424,4.689,5.470,16.410,-23.053,7.033,7.424
'[13:23:37.043 02/09/2075]',46.886,-44.151,-4.689,-5.079,2.735,-6.252,-5.079,0.391,-0.391,19.927,2.344,-1.172,-7.424,29.304,4.298,-4.689,5.470,3.516,5.470,9.768,-21.490,12.503,4.298
'[13:23:37.047 02/09/2075]',48.059,-41.416,-3.516,-8.205,1.563,-2.344,-4.298,-0.781,1.563,20.708,3.126,0.391,-4.689,30.476,5.079,-4.298,5.861,2.344,4.298,12.503,-23.834,8.987,5.079
'[13:23:37.051 02/09/2075]',50.794,-38.681,-1.954,-7.033,5.861,-1.954,-3.516,1.563,5.861,17.973,4.298,1.954,0.391,28.132,10.549,-5.861,7.424,1.563,2.735,17.582,-26.569,4.689,10.549
'[13:23:37.055 02/09/2075]',51.966,-39.853,-2.735,-3.907,9.377,-4.689,-3.907,2.344,11.331,14.847,5.470,4.689,6.642,23.053,10.940,-1.954,4.689,0.391,3.516,14.847,-28.913,7.033,10.940
'[13:23:37.059 02/09/2075]',53.919,-41.807,-4.689,-4.298,9.768,-3.516,-4.689,0.000,12.112,12.894,5.861,2.735,7.424,19.927,9.768,-1.954,1.172,-0.391,5.470,13.675,-31.648,8.205,9.768
'[13:23:37.063 02/09/2075]',51.966,-43.370,-2.735,-3.126,10.549,-3.907,-3.907,-0.781,10.940,9.768,5.079,1.954,4.298,17.192,7.814,0.000,0.781,-2.735,3.516,17.192,-31.258,3.516,7.814
'[13:23:37.066 02/09/2075]',51.184,-43.370,-3.907,0.781,12.112,-4.298,-4.689,0.391,14.066,5.861,3.126,2.344,3.907,15.629,3.516,2.735,0.781,-3.126,4.689,13.284,-28.523,3.126,3.516
'[13:23:37.070 02/09/2075]',51.966,-42.198,-5.470,0.391,13.284,-0.391,-5.470,-2.344,8.987,5.470,3.516,-1.172,-3.907,16.020,2.344,3.126,0.391,-0.781,6.252,7.033,-31.258,7.424,2.344
'[13:23:37.074 02/09/2075]',64.860,-38.681,-4.298,-1.563,25.788,2.735,-5.861,-3.907,5.861,6.642,4.298,-2.344,-6.642,15.238,4.298,2.344,3.516,-0.391,5.079,10.549,-34.383,3.516,4.298
'[13:23:37.078 02/09/2075]',58.999,-39.853,-5.861,-3.126,16.020,2.735,-7.814,-2.344,8.205,5.079,3.126,0.391,-1.172,12.894,3.516,2.735,2.735,0.000,6.642,12.112,-32.821,-2.735,3.516
'[13:23:37.082 02/09/2075]',59.389,-37.509,-7.814,-4.689,16.801,4.298,-9.768,-4.298,7.424,6.642,1.954,2.344,-2.735,14.847,4.689,1.954,1.172,1.563,8.596,7.033,-34.383,1.563,4.689
'[13:23:37.086 02/09/2075]',55.092,-32.430,-3.907,-8.987,15.238,5.470,-7.033,-5.861,5.861,7.424,4.689,1.954,-2.735,17.582,6.252,0.391,0.391,3.126,4.689,5.861,-33.993,3.126,6.252
'[13:23:37.090 02/09/2075]',50.403,-33.602,-4.298,-6.252,5.861,5.470,-6.252,-1.563,11.331,6.642,7.033,3.516,5.470,17.582,5.861,0.391,1.172,3.907,5.079,8.987,-33.211,0.391,5.861
'[13:23:37.094 02/09/2075]',50.403,-32.039,-6.252,-1.563,6.642,4.689,-5.470,2.344,9.768,5.861,7.424,5.861,5.079,18.755,5.079,0.781,1.172,5.470,7.033,4.298,-29.304,4.298,5.079
'[13:23:37.098 02/09/2075]',55.092,-25.788,-3.126,-4.298,12.894,7.424,-3.126,1.172,7.424,7.814,9.377,1.954,1.954,22.662,5.861,-1.172,3.126,4.689,3.907,1.563,-30.867,10.549,5.861
'[13:23:37.102 02/09/2075]',62.125,-27.741,-3.907,-3.516,15.629,8.205,-2.735,2.735,10.940,9.768,11.331,0.000,6.252,23.443,5.861,-2.735,4.298,3.907,4.689,4.689,-33.602,10.549,5.861
'[13:23:37.105 02/09/2075]',57.827,-28.913,-3.907,-2.344,11.722,5.861,-3.126,5.079,8.596,10.159,7.033,1.954,6.252,21.099,3.907,-1.172,4.298,3.516,4.689,4.298,-28.523,8.205,3.907
'[13:23:37.109 02/09/2075]',53.529,-24.225,-3.126,-4.298,11.331,7.424,-3.126,2.344,5.470,9.768,4.298,0.000,2.344,18.755,4.689,-3.516,1.954,5.079,3.907,-0.781,-24.615,11.331,4.689
'[13:23:37.113 02/09/2075]',49.231,-24.225,-5.079,-4.298,7.033,5.861,-2.735,3.126,6.252,8.596,5.079,0.391,3.907,15.238,5.470,-3.516,1.172,3.907,5.861,3.516,-26.960,6.252,5.470
'[13:23:37.117 02/09/2075]',52.357,-24.615,-6.252,-3.907,7.424,4.298,-1.954,3.516,3.126,5.861,4.689,4.298,6.252,10.159,4.298,-0.391,1.563,5.079,7.033,6.642,-22.271,-1.954,4.298
'[13:23:37.121 02/09/2075]',48.059,-21.490,-7.424,-5.861,5.861,5.079,-2.344,1.954,3.907,3.516,5.470,5.079,2.344,10.549,5.079,0.781,0.781,6.642,8.205,0.000,-24.615,1.954,5.079
'[13:23:37.125 02/09/2075]',48.840,-18.364,-7.033,-8.987,5.470,7.033,-1.954,0.391,-1.563,3.907,8.987,2.344,-1.954,10.940,6.252,-0.781,0.391,6.642,7.814,-0.781,-27.350,4.298,6.252
'[13:23:37.129 02/09/2075]',50.012,-19.536,-5.861,-11.722,5.079,5.470,-0.391,-0.391,-0.781,4.298,8.205,1.563,-0.781,10.159,6.642,-1.563,0.781,7.814,6.642,0.781,-23.443,-1.172,6.642
'[13:23:37.133 02/09/2075]',45.714,-21.880,-5.079,-11.331,1.954,4.298,-2.344,0.391,-3.907,0.781,5.861,0.391,-3.126,4.689,3.907,-0.781,-0.391,9.377,5.861,-1.563,-16.410,-2.344,3.907
'[13:23:37.137 02/09/2075]',43.370,-25.006,-5.470,-10.549,2.344,0.391,-1.563,-0.781,1.563,0.781,3.126,-3.907,3.126,3.907,0.391,-3.516,-1.954,7.424,6.252,-1.954,-13.675,0.391,0.391
'[13:23:37.141 02/09/2075]',39.072,-25.397,-5.079,-11.722,1.954,-3.907,-0.781,-2.344,7.424,1.172,1.172,-6.642,5.470,7.033,-1.563,-6.252,-0.781,5.079,5.861,3.126,-8.987,-2.344,-1.563
'[13:23:37.145 02/09/2075]',40.635,-25.788,-5.861,-10.940,5.079,-3.907,-3.516,-1.563,7.033,-0.391,-1.954,-4.298,1.563,8.205,-5.079,-3.126,0.781,0.781,6.642,8.205,-11.331,-3.907,-5.079
'[13:23:37.148 02/09/2075]',40.635,-26.178,-8.205,-8.596,6.252,-3.907,-2.735,-2.735,17.192,0.781,-3.126,-7.424,6.252,12.112,-2.344,-7.424,2.735,-2.735,8.987,9.768,-18.755,2.344,-2.344
'[13:23:37.152 02/09/2075]',42.979,-24.615,-8.205,-6.642,12.112,-3.516,-3.126,-2.344,16.801,1.563,-2.735,-7.424,7.424,10.159,0.391,-9.768,5.079,-6.252,8.987,13.675,-22.271,2.735,0.391
'[13:23:37.156 02/09/2075]',46.886,-30.085,-9.377,-1.954,17.192,-7.814,-6.642,1.563,10.940,-1.954,-5.470,-3.126,1.954,3.126,1.172,-6.642,3.907,-8.987,10.159,17.973,-25.006,-1.954,1.172
'[13:23:37.160 02/09/2075]',49.231,-29.304,-9.768,0.391,21.490,-8.596,-8.987,5.470,12.112,-5.079,-7.424,0.391,1.954,0.391,1.563,-4.298,2.344,-10.159,10.549,14.457,-29.304,0.391,1.563
'[13:23:37.164 02/09/2075]',44.151,-25.006,-9.768,1.172,20.317,-8.205,-9.377,7.033,13.284,-4.689,-6.252,-0.391,1.172,3.907,1.172,-5.079,1.172,-10.940,10.549,8.987,-26.569,2.735,1.172
'[13:23:37.168 02/09/2075]',41.416,-23.834,-9.377,-1.563,17.973,-7.424,-10.159,4.689,14.066,-4.298,-5.861,-1.563,1.954,4.689,0.391,-5.079,2.344,-12.112,10.159,11.331,-26.569,-1.172,0.391
'[13:23:37.172 02/09/2075]',41.026,-21.490,-9.768,0.000,18.755,-5.470,-10.549,3.907,16.410,-2.344,-6.252,-1.954,5.470,3.907,-1.172,-2.735,5.861,-12.112,10.549,9.377,-22.271,-2.735,-1.172
'[13:23:37.176 02/09/2075]',37.900,-22.271,-8.987,0.391,17.582,-3.516,-9.768,1.563,23.834,1.172,-5.079,-4.689,16.020,3.516,-2.735,-1.954,8.987,-11.722,9.768,5.470,-15.238,-0.391,-2.735
'[13:23:37.180 02/09/2075]',33.211,-23.053,-9.768,1.563,14.066,-3.126,-11.331,0.391,15.629,1.172,-7.424,-6.642,10.159,0.391,-3.126,-3.516,10.159,-14.457,10.549,10.549,-8.987,-5.861,-3.126
'[13:23:37.184 02/09/2075]',30.476,-22.662,-11.331,4.689,15.238,-5.470,-11.331,1.954,7.033,-1.563,-8.596,-1.954,4.298,-4.689,-3.516,0.391,7.814,-13.284,12.112,13.675,-6.252,-10.159,-3.516
'[13:23:37.188 02/09/2075]',35.165,-20.708,-8.596,3.516,22.271,-4.689,-10.940,2.344,10.549,0.000,-8.596,-1.954,7.814,-4.298,-5.079,1.563,6.642,-10.940,9.377,9.768,-4.298,-3.907,-5.079
'[13:23:37.191 02/09/2075]',32.430,-18.755,-9.377,2.735,16.410,-3.516,-9.377,2.344,5.861,1.563,-9.377,-2.735,5.861,-4.298,-5.079,0.391,3.516,-9.768,10.159,11.722,-6.252,-4.298,-5.079
'[13:23:37.195 02/09/2075]',33.211,-18.364,-8.205,2.344,15.629,-3.516,-7.814,3.907,3.907,2.735,-10.549,0.000,6.252,-4.689,-6.642,2.735,4.689,-9.377,8.987,16.801,-5.470,-10.940,-6.642
'[13:23:37.199 02/09/2075]',33.211,-16.801,-6.252,5.470,18.364,-2.735,-7.424,6.642,10.159,5.861,-9.377,1.563,15.629,-5.079,-8.205,6.642,7.424,-6.642,7.033,10.940,-1.172,-8.596,-8.205
'[13:23:37.203 02/09/2075]',23.443,-17.192,-7.033,7.424,11.722,-3.907,-5.861,3.907,17.192,7.814,-6.642,-0.391,23.053,-2.735,-7.033,4.689,7.814,-6.252,7.814,8.987,-0.781,-4.298,-7.033
'[13:23:37.207 02/09/2075]',21.099,-16.410,-7.033,7.033,14.066,-4.689,-6.642,1.172,14.847,4.689,-3.907,-1.954,17.973,-3.126,-4.298,2.735,8.205,-6.252,7.814,11.331,-1.172,-7.424,-4.298
'[13:23:37.211 02/09/2075]',22.662,-11.331,-4.689,6.252,23.053,-3.907,-6.252,-0.391,22.662,3.126,-0.781,-2.735,23.443,-1.563,-3.907,3.516,8.596,-4.689,5.470,7.814,1.563,-7.033,-3.907
'[13:23:37.215 02/09/2075]',20.708,-16.020,-5.079,2.735,17.192,-3.516,-7.424,-4.298,17.192,0.781,-2.344,-5.470,17.582,-3.126,-5.470,1.172,4.298,-5.861,5.861,9.377,-3.126,-1.954,-5.470
'[13:23:37.219 02/09/2075]',20.708,-17.192,-5.470,-0.781,15.629,-3.126,-7.033,-8.987,3.907,-1.172,-3.126,-10.159,3.907,-4.689,-6.642,-2.344,2.735,-8.987,6.252,12.503,-4.298,-3.907,-6.642
'[13:23:37.223 02/09/2075]',23.443,-10.549,-2.344,-1.172,23.443,-0.781,-6.252,-7.814,3.516,-1.563,-6.252,-7.033,5.861,-5.470,-8.205,-2.735,3.907,-8.596,3.126,11.331,1.172,-6.252,-8.205
'[13:23:37.227 02/09/2075]',17.582,-7.814,-2.344,-1.954,16.020,0.391,-5.470,-6.252,3.126,-0.781,-7.033,-1.563,5.470,-2.344,-7.424,-1.563,2.735,-5.861,3.126,8.987,0.391,-1.954,-7.424
'[13:23:37.230 02/09/2075]',17.973,-2.344,-1.172,-5.861,15.629,5.861,-2.735,-10.159,14.457,-1.563,-5.470,-1.563,11.331,1.563,-5.079,-1.563,3.126,-5.079,1.954,3.516,-0.391,0.391,-5.079
'[13:23:37.234 02/09/2075]',21.880,4.298,2.735,-8.205,22.271,10.940,-1.172,-10.940,22.271,0.000,-1.954,1.172,20.708,2.735,-3.126,1.563,5.861,-2.735,-1.954,2.344,2.735,-4.689,-3.126
'[13:23:37.238 02/09/2075]',18.364,0.391,1.563,-6.252,14.457,12.112,-4.689,-8.205,23.053,-1.563,-0.391,6.642,22.271,0.000,-3.907,8.987,5.079,-1.954,-0.781,0.781,-1.563,-2.344,-3.907
'[13:23:37.242 02/09/2075]',22.662,-5.861,0.781,-7.424,14.066,12.112,-6.252,-10.549,18.755,-5.861,0.000,6.642,14.457,-1.954,-6.642,14.457,1.954,-3.907,0.000,-0.391,-7.033,0.391,-6.642
'[13:23:37.246 02/09/2075]',21.099,-5.079,3.126,-5.861,15.238,12.112,-6.252,-8.205,8.596,-6.642,-0.781,5.861,4.298,-3.516,-4.298,11.331,1.954,-5.079,-2.344,2.344,-3.126,-3.907,-4.298
'[13:23:37.250 02/09/2075]',19.536,-6.252,5.861,0.391,16.410,8.987,-4.298,-2.735,4.298,-7.424,-1.563,8.205,-1.172,-5.079,-1.563,12.112,0.781,-0.781,-5.079,3.516,-2.735,-4.298,-1.563
'[13:23:37.254 02/09/2075]',22.662,-5.861,8.596,1.563,22.662,8.596,-0.781,-3.516,8.987,-6.252,-2.735,5.079,-0.391,-3.907,-0.391,11.331,0.781,0.391,-7.814,-3.126,-1.563,1.563,-0.391
'[13:23:37.258 02/09/2075]',12.894,-0.391,11.331,1.563,17.582,10.159,0.391,-3.516,17.192,-1.563,-2.735,-1.563,4.689,-1.172,1.172,5.079,1.563,0.391,-10.549,-3.907,0.391,2.344,1.172
'[13:23:37.262 02/09/2075]',8.205,-0.781,8.205,5.079,14.066,7.814,1.172,-1.563,20.317,-0.781,-3.126,-1.954,9.377,-2.735,1.563,3.907,0.781,0.781,-7.424,0.000,0.391,-1.172,1.563
'[13:23:37.266 02/09/2075]',9.768,-5.861,3.907,6.252,11.722,3.516,0.000,-0.391,17.973,-1.563,-3.126,0.391,9.377,-3.907,0.000,5.470,-3.907,0.781,-3.126,-2.344,0.391,2.735,0.000
'[13:23:37.270 02/09/2075]',4.298,-7.814,0.781,6.642,3.907,0.391,0.000,0.000,14.066,-1.954,-1.954,0.781,9.377,-4.689,0.391,3.907,-5.470,-0.391,0.000,-1.172,1.563,4.689,0.391
'[13:23:37.273 02/09/2075]',5.470,-5.470,0.391,8.987,9.377,-1.563,0.391,0.391,5.861,-2.344,-1.172,1.954,4.298,-5.079,1.172,1.954,-6.252,-0.391,0.391,3.126,8.987,-1.563,1.172
'[13:23:37.277 02/09/2075]',5.079,-1.954,0.000,12.503,14.457,-1.954,-0.391,2.735,6.252,-2.344,-1.563,8.987,6.642,-5.470,2.735,5.861,-5.079,0.391,0.781,0.781,13.284,-0.391,2.735
'[13:23:37.281 02/09/2075]',5.861,3.516,0.781,10.940,18.755,1.172,0.391,1.563,10.549,-0.391,-0.391,7.424,10.549,-2.344,3.516,3.907,-1.954,1.172,0.000,-4.689,17.973,3.126,3.516
'[13:23:37.285 02/09/2075]',6.642,8.596,2.735,7.424,22.271,3.126,0.391,0.391,9.768,-0.781,1.172,5.079,11.722,-3.516,3.907,2.344,-0.391,0.391,-1.954,-1.954,17.973,1.172,3.907
'[13:23:37.289 02/09/2075]',3.907,5.470,1.954,11.722,19.536,0.000,0.391,3.907,14.066,-1.954,1.172,9.377,18.364,-5.079,3.126,5.079,-0.391,2.344,-1.172,-1.954,18.755,0.391,3.126
'[13:23:37.293 02/09/2075]',0.781,3.126,3.907,11.722,16.410,-1.563,1.954,3.907,8.205,-3.126,0.781,8.596,12.894,-4.298,0.781,4.689,-1.172,2.344,-3.126,-7.424,22.271,5.079,0.781
'[13:23:37.297 02/09/2075]',-4.298,4.689,7.033,8.987,9.377,0.391,4.298,0.391,16.410,-4.298,0.781,1.954,15.238,-1.954,1.172,0.000,-1.954,0.391,-6.252,-4.689,21.880,3.126,1.172
'[13:23:37.301 02/09/2075]',-0.781,4.689,7.424,8.987,14.457,0.391,5.470,0.391,15.629,1.563,-1.172,1.172,19.927,-1.954,0.781,-0.781,-0.781,-0.781,-6.642,1.563,20.708,-1.954,0.781
'[13:23:37.305 02/09/2075]',2.344,3.907,7.033,7.033,17.973,0.391,2.735,-0.391,10.159,1.563,-3.126,1.563,14.847,-3.126,-0.391,0.000,-0.391,-1.172,-6.252,-2.735,19.536,1.954,-0.391
'[13:23:37.309 02/09/2075]',-0.781,5.861,4.298,0.781,13.675,0.781,0.391,-3.907,12.503,2.735,-5.861,-2.344,15.629,-4.298,-1.563,-2.344,-0.391,-5.470,-3.516,-4.689,13.284,6.642,-1.563
'[13:23:37.313 02/09/2075]',3.126,7.424,1.563,-1.954,18.364,0.000,-3.126,-3.126,12.503,3.126,-8.987,-1.563,17.192,-5.079,-3.907,-1.172,0.781,-9.377,-0.781,-1.563,12.503,1.563,-3.907
'[13:23:37.316 02/09/2075]',-8.596,4.298,-3.126,-1.563,7.033,-3.126,-8.205,-3.907,2.344,-1.563,-10.159,-1.954,3.907,-8.987,-7.424,0.781,0.781,-10.159,3.907,-4.689,11.331,1.563,-7.424
'[13:23:37.320 02/09/2075]',-9.377,5.861,-5.861,-2.344,8.596,-1.954,-10.940,-6.642,5.861,-2.735,-10.549,-7.814,4.689,-10.940,-7.814,-1.563,0.391,-12.503,6.642,-10.159,10.159,4.689,-7.814
'[13:23:37.324 02/09/2075]',-8.987,6.642,-5.079,-2.344,10.549,-0.391,-10.549,-8.987,11.331,-1.172,-7.424,-12.894,7.033,-7.424,-4.298,-5.861,1.563,-12.894,5.861,-7.814,10.159,2.344,-4.298
'[13:23:37.328 02/09/2075]',-10.159,6.642,-3.907,0.000,12.894,0.781,-12.112,-8.596,10.159,-0.391,-7.814,-10.940,4.298,-5.861,-2.735,-4.689,2.344,-12.112,4.689,-6.252,10.159,1.172,-2.735
'[13:23:37.332 02/09/2075]',-4.298,10.549,-1.954,0.000,23.053,2.735,-12.503,-10.549,16.801,-0.781,-8.205,-9.377,7.033,-3.516,-3.907,-1.563,1.954,-12.112,2.735,-12.503,7.814,7.814,-3.907
'[13:23:37.336 02/09/2075]',-1.954,8.596,0.391,-0.781,26.178,4.298,-9.768,-14.457,27.741,1.563,-9.377,-10.549,14.847,-0.781,-2.344,-1.954,3.516,-13.675,0.391,-12.894,8.205,11.331,-2.344
'[13:23:37.340 02/09/2075]',-4.298,4.298,4.298,-1.563,23.443,3.516,-7.814,-16.020,23.834,0.391,-10.549,-9.377,10.159,-3.516,-4.298,1.172,4.298,-12.503,-3.516,-9.377,8.987,7.814,-4.298
'[13:23:37.344 02/09/2075]',-0.391,1.172,5.079,-0.391,23.443,3.126,-6.252,-14.847,17.582,-1.172,-12.112,-6.642,6.642,-8.596,-5.470,3.907,3.907,-10.549,-4.298,-7.814,7.814,7.814,-5.470
'[13:23:37.348 02/09/2075]',-14.847,1.563,7.033,0.391,8.596,5.079,-3.516,-15.238,15.238,0.000,-11.722,-9.768,3.126,-5.861,-0.391,-4.298,2.344,-10.159,-6.252,-10.940,12.112,11.331,-0.391
'[13:23:37.352 02/09/2075]',-15.629,1.563,9.768,-1.954,5.079,3.907,-1.172,-13.284,13.675,-2.344,-10.940,-8.205,1.954,-4.689,0.000,-5.470,2.344,-11.331,-8.987,-8.205,12.112,8.596,0.000
'[13:23:37.355 02/09/2075]',-14.847,2.735,7.424,-1.563,3.126,2.344,-3.126,-8.987,8.596,-6.252,-12.503,-3.907,-1.954,-5.861,-1.172,-3.907,2.344,-13.284,-6.642,-6.642,8.987,5.079,-1.172
'[13:23:37.359 02/09/2075]',-15.238,3.516,5.079,-3.126,1.563,0.391,-3.907,-7.424,10.549,-7.814,-14.066,-1.563,-0.391,-5.861,-2.344,-3.126,0.391,-16.020,-4.298,-12.894,9.768,8.205,-2.344
'[13:23:37.363 02/09/2075]',-13.675,2.735,2.735,-5.861,0.391,-2.344,-4.689,-6.642,14.457,-10.159,-13.284,-2.735,2.344,-6.642,-4.689,-2.735,0.391,-19.927,-1.954,-8.596,6.252,3.907,-4.689
'[13:23:37.367 02/09/2075]',-10.549,1.954,0.781,-5.470,2.735,-5.470,-6.642,-3.907,10.549,-7.814,-10.159,-2.735,4.689,-10.159,-5.079,-0.391,0.781,-17.582,0.000,-3.516,4.298,-1.563,-5.079
'[13:23:37.371 02/09/2075]',-5.861,7.424,-0.781,-1.172,13.284,-4.689,-5.470,-3.126,5.079,-5.861,-6.252,-3.516,4.298,-12.112,-5.079,0.391,1.954,-12.503,1.563,-9.768,8.596,0.781,-5.079
'[13:23:37.375 02/09/2075]',-8.596,12.112,-1.172,0.391,14.847,-1.954,-4.298,-5.079,9.377,-3.907,-2.735,-5.861,10.940,-10.940,-4.298,-0.391,1.954,-9.768,1.954,-11.722,11.331,3.907,-4.298
'[13:23:37.379 02/09/2075]',-8.596,14.457,-2.344,2.735,16.801,-0.781,-4.298,-3.907,1.563,-2.344,-1.172,-5.861,5.861,-11.722,-4.689,0.781,2.344,-7.424,3.126,-7.424,12.112,-1.563,-4.689
'[13:23:37.383 02/09/2075]',-8.205,14.066,-3.126,6.642,17.973,-1.563,-4.298,-2.344,-4.689,-5.079,-1.563,-4.298,1.563,-16.410,-6.252,3.907,3.516,-7.033,3.907,-9.377,14.847,-2.735,-6.252
'[13:23:37.387 02/09/2075]',-19.927,9.377,-3.126,3.907,4.689,-2.735,-4.298,-5.861,-4.689,-5.861,-3.516,-6.642,0.391,-18.755,-7.033,2.344,1.954,-9.768,3.907,-11.331,12.503,0.781,-7.033
'[13:23:37.391 02/09/2075]',-21.880,11.331,-1.172,0.781,4.298,-2.735,-3.126,-7.814,0.391,-3.907,-2.344,-10.159,4.689,-15.238,-5.470,-0.781,4.689,-10.549,1.954,-7.424,12.894,-3.126,-5.470
'[13:23:37.395 02/09/2075]',-15.238,14.457,0.000,0.391,10.549,-0.391,-2.344,-6.642,3.907,-2.344,-3.126,-7.424,9.377,-13.284,-4.298,-1.172,7.814,-8.596,0.781,-5.079,11.331,-6.642,-4.298
'[13:23:37.398 02/09/2075]',-17.973,17.582,-0.391,-1.954,6.642,3.126,-3.516,-9.377,6.642,-0.391,-2.344,-9.768,11.722,-10.549,-4.298,-3.516,7.814,-7.424,1.172,-9.377,8.205,-1.172,-4.298
'[13:23:37.402 02/09/2075]',-7.424,20.708,0.391,-5.470,14.457,6.252,-3.126,-10.549,10.159,2.735,-1.563,-12.112,19.145,-8.205,-4.298,-6.642,7.814,-5.470,0.391,-8.596,7.814,-1.172,-4.298
'[13:23:37.406 02/09/2075]',-4.689,17.192,0.000,-5.470,13.675,4.689,-6.252,-6.252,0.000,2.735,-2.344,-10.549,12.503,-8.596,-5.470,-8.205,7.033,-3.516,0.781,-1.563,5.470,-5.079,-5.470
'[13:23:37.410 02/09/2075]',-12.503,15.629,0.391,-8.205,2.344,3.516,-7.033,-3.907,-13.675,-1.172,-3.907,-10.159,-0.781,-11.331,-8.596,-8.987,3.126,-3.516,0.391,-6.642,7.814,-1.954,-8.596
'[13:23:37.414 02/09/2075]',-16.410,14.457,0.391,-11.331,-5.079,4.298,-7.424,-3.516,-14.457,-1.954,-3.126,-10.549,-1.172,-7.424,-9.768,-11.722,-0.391,-3.907,0.391,-7.033,8.596,1.954,-9.768
'[13:23:37.418 02/09/2075]',-10.549,14.457,2.735,-12.503,-0.781,4.298,-5.079,-2.344,-10.549,0.391,-1.172,-9.768,1.563,-2.735,-8.205,-12.503,0.000,-1.954,-1.954,-0.781,6.252,-1.172,-8.205
'[13:23:37.422 02/09/2075]',-18.364,16.020,3.516,-9.768,-7.814,7.424,-4.298,-2.344,-8.205,1.172,0.391,-7.033,2.344,-1.172,-6.252,-8.205,-0.391,0.391,-2.735,-6.642,7.814,0.781,-6.252
'[13:23:37.426 02/09/2075]',-15.238,18.364,2.735,-9.768,-5.079,12.894,-6.642,-3.516,1.563,4.298,0.391,-7.424,10.549,0.000,-3.907,-6.642,-0.391,1.563,-1.954,-11.331,2.735,5.470,-3.907
'[13:23:37.430 02/09/2075]',-7.424,19.145,2.344,-10.940,0.391,16.801,-6.252,-7.033,5.861,8.596,-1.172,-8.205,14.457,-0.781,-2.344,-6.252,1.563,1.954,-1.563,-6.642,-1.563,0.391,-2.344
'[13:23:37.434 02/09/2075]',-16.020,18.755,0.781,-8.596,-5.079,15.629,-8.987,-7.033,-2.344,6.642,-4.689,-8.205,3.907,-3.907,-5.470,-2.735,2.735,1.172,0.000,-5.470,-1.954,-1.954,-5.470
'[13:23:37.438 02/09/2075]',-15.238,19.536,-0.781,-8.596,-2.344,15.629,-8.987,-8.987,-5.470,5.470,-5.079,-10.549,0.391,-4.689,-7.814,-3.907,3.126,0.391,1.563,-9.768,-0.781,2.735,-7.814
'[13:23:37.441 02/09/2075]',-6.642,18.755,0.391,-10.940,4.689,14.066,-6.252,-10.940,-7.814,8.987,-5.079,-12.894,0.391,-3.907,-8.596,-5.470,2.735,0.000,0.391,-8.987,-0.781,4.298,-8.596
'[13:23:37.445 02/09/2075]',-17.582,17.973,0.781,-8.596,-3.516,11.331,-5.861,-8.205,-9.377,9.768,-5.470,-12.503,-1.954,-1.563,-9.377,-4.689,4.298,-1.563,0.000,-5.079,1.954,1.172,-9.377
'[13:23:37.449 02/09/2075]',-17.582,17.973,0.391,-3.907,-3.516,11.722,-5.079,-4.689,-5.079,10.549,-5.470,-12.112,1.954,-1.172,-3.907,-9.377,5.470,0.000,0.391,-8.987,5.861,5.470,-3.907
'[13:23:37.453 02/09/2075]',-17.582,17.192,1.563,-4.689,-5.470,12.503,-3.907,-5.079,-0.391,12.894,-5.470,-12.112,7.814,-0.781,-2.735,-8.596,5.861,0.000,-0.781,-10.159,2.344,9.377,-2.735
'[13:23:37.457 02/09/2075]',-21.880,16.801,1.954,-2.735,-8.205,11.722,-2.735,-5.470,-3.126,12.503,-6.252,-10.940,1.563,-0.391,-1.563,-7.814,8.987,-1.954,-1.172,-3.907,3.907,4.298,-1.563
'[13:23:37.461 02/09/2075]',-25.006,17.192,3.126,-1.954,-10.549,11.331,-1.954,-3.516,-5.470,11.331,-5.470,-9.768,-3.907,0.391,1.172,-7.033,10.549,-1.954,-2.344,-2.344,5.470,3.516,1.172
'[13:23:37.465 02/09/2075]',-18.364,17.192,4.298,-3.907,-5.861,10.940,0.000,-3.907,-8.596,12.112,-5.470,-8.205,-6.642,0.000,0.391,-5.079,9.377,-0.781,-3.516,-3.907,7.033,6.252,0.391
'[13:23:37.469 02/09/2075]',-17.192,16.020,6.252,-4.298,-6.252,10.549,1.172,-3.516,-5.079,13.675,-3.516,-9.768,1.563,-2.344,0.391,-5.861,10.159,-1.954,-5.470,-0.391,10.549,2.735,0.391
'[13:23:37.473 02/09/2075]',-21.490,14.847,5.470,0.391,-10.159,6.642,0.781,1.954,-8.205,10.549,-2.344,-6.642,0.781,-7.033,1.172,-2.735,9.768,-0.391,-4.689,0.391,10.940,0.391,1.172
'[13:23:37.477 02/09/2075]',-15.629,16.801,4.298,4.689,-5.079,6.252,1.563,7.424,-4.689,9.768,-1.563,-1.954,5.470,-6.252,1.172,0.391,9.377,1.563,-3.516,-2.344,7.814,2.344,1.172
'[13:23:37.480 02/09/2075]',-21.490,17.973,2.735,4.689,-10.940,7.424,1.954,6.642,-1.954,10.159,1.172,-0.781,6.252,-2.735,2.344,1.563,9.377,1.172,-1.954,-3.516,5.079,3.516,2.344
'[13:23:37.484 02/09/2075]',-19.145,19.145,2.735,4.298,-8.596,8.987,1.172,5.470,-3.516,8.987,4.689,1.563,0.391,1.563,5.861,3.126,11.331,0.391,-1.954,0.781,2.344,-0.391,5.861
'[13:23:37.488 02/09/2075]',-20.317,17.973,0.000,5.079,-9.377,6.642,0.000,5.470,-3.907,7.814,4.689,4.689,-0.781,3.126,6.642,3.126,9.377,0.781,0.781,-0.391,2.735,1.172,6.642
'[13:23:37.492 02/09/2075]',-20.317,16.801,-1.954,1.563,-10.159,6.642,-0.781,1.172,-3.126,7.814,3.516,3.126,0.391,4.298,5.079,0.391,6.642,-0.781,2.735,-3.516,6.252,5.079,5.079
'[13:23:37.496 02/09/2075]',-23.053,17.973,-1.172,0.000,-11.331,5.470,-0.781,0.000,0.391,5.861,2.344,1.563,5.470,0.391,4.298,-0.781,5.079,-2.344,1.954,0.000,8.987,-0.781,4.298
'[13:23:37.500 02/09/2075]',-26.178,16.410,-2.735,2.735,-10.940,1.954,-1.954,1.563,-0.781,1.954,0.391,0.781,2.344,-5.079,3.126,0.781,4.689,-1.954,3.516,0.391,9.377,-2.735,3.126
'[13:23:37.504 02/09/2075]',-19.927,12.503,-2.344,4.689,-5.470,0.391,0.000,1.172,-5.079,1.954,0.391,-0.391,-1.563,-8.596,3.126,3.126,3.516,-1.172,3.126,-3.126,8.596,-0.391,3.126
'[13:23:37.508 02/09/2075]',-19.536,10.159,-0.391,3.907,-6.642,0.000,2.344,-0.391,-5.470,1.172,1.954,-3.126,-2.735,-10.940,5.470,2.735,3.516,-0.781,1.172,-1.563,8.596,-3.516,5.470
'[13:23:37.512 02/09/2075]',-25.397,8.596,-0.781,8.987,-10.549,-0.781,1.563,1.954,-11.331,0.391,2.344,0.391,-11.722,-10.549,7.033,5.079,5.079,-0.781,1.563,0.781,8.596,-7.424,7.033
'[13:23:37.516 02/09/2075]',-25.788,5.861,-4.689,13.675,-11.331,-2.735,0.781,3.126,-14.457,0.391,2.344,1.172,-14.066,-8.987,6.252,5.470,4.298,-0.391,5.470,-1.954,10.549,-2.735,6.252
'[13:23:37.520 02/09/2075]',-32.430,4.689,-4.689,11.722,-16.020,-3.516,-0.391,1.172,-10.549,1.563,0.391,0.000,-7.033,-8.205,3.907,1.563,2.344,-1.954,5.470,-3.516,11.331,0.391,3.907
'[13:23:37.523 02/09/2075]',-37.900,4.689,-5.470,13.675,-17.192,-6.252,-1.954,1.954,-1.563,-1.172,-2.735,0.000,-1.563,-8.987,2.735,-0.391,2.735,-3.907,6.252,1.563,11.722,-3.126,2.735
'[13:23:37.527 02/09/2075]',-39.072,2.344,-6.642,14.457,-18.364,-9.768,-3.516,3.907,-1.954,1.172,-7.033,-0.781,0.000,-8.205,0.391,-1.563,0.391,-5.079,7.424,2.344,12.894,-3.126,0.391
'[13:23:37.531 02/09/2075]',-31.258,2.735,-5.079,11.331,-10.549,-12.503,-1.172,2.735,3.907,3.516,-10.940,-1.563,5.861,-6.642,-1.563,-3.516,-1.172,-5.861,5.861,0.391,14.457,1.954,-1.563
'[13:23:37.535 02/09/2075]',-26.178,5.079,0.000,7.033,-5.470,-11.331,1.954,1.954,2.344,3.907,-10.159,-2.344,2.344,-5.079,-1.172,-2.735,0.391,-7.033,0.781,2.344,14.066,1.172,-1.172
'[13:23:37.539 02/09/2075]',-21.099,5.079,0.391,9.768,-4.298,-9.768,3.907,5.470,-2.344,4.689,-8.987,1.954,0.391,-3.516,-2.735,0.781,3.516,-5.079,0.391,4.298,14.066,1.563,-2.735
'[13:23:37.543 02/09/2075]',-12.894,7.033,-0.391,11.722,1.172,-7.814,5.861,6.642,-5.079,3.516,-7.424,5.861,-1.954,-0.781,-4.689,5.079,5.079,-3.516,1.172,-0.781,16.410,5.861,-4.689
'[13:23:37.547 02/09/2075]',-25.397,6.642,0.000,10.549,-13.675,-7.033,8.205,4.298,-9.377,3.516,-3.516,3.126,-4.298,-0.391,-1.563,0.391,3.907,-3.516,0.781,2.735,15.238,3.126,-1.563
'[13:23:37.551 02/09/2075]',-33.602,1.563,-1.172,13.284,-22.662,-11.331,8.205,7.033,-12.894,1.563,-0.781,5.079,-3.126,-1.563,0.000,-0.781,2.344,-2.344,1.954,8.205,16.410,-3.126,0.000
'[13:23:37.555 02/09/2075]',-32.039,-3.126,-2.735,14.457,-19.145,-19.536,8.205,6.642,-11.722,2.344,-1.172,6.252,0.391,-3.126,0.000,-0.391,-0.781,-2.344,3.516,6.642,17.192,0.781,0.000
'[13:23:37.559 02/09/2075]',-33.602,-3.907,-1.172,9.377,-20.317,-22.271,8.205,3.907,-8.205,2.735,-1.563,4.298,4.689,-3.126,0.391,-3.907,-4.298,-4.298,1.954,5.470,18.755,5.079,0.391
'[13:23:37.563 02/09/2075]',-34.383,-5.079,0.391,7.033,-23.053,-23.834,8.205,6.252,-7.814,0.391,-1.563,5.470,4.298,-5.470,0.781,-3.907,-5.861,-5.470,0.391,10.159,19.145,0.391,0.781
'[13:23:37.566 02/09/2075]',-27.741,-3.516,-1.172,10.549,-16.020,-23.053,7.814,7.814,-7.424,-1.563,-1.563,6.642,1.172,-7.033,0.781,0.391,-7.033,-2.344,1.954,8.987,17.973,0.391,0.781
'[13:23:37.570 02/09/2075]',-27.741,-1.172,-0.781,10.549,-14.457,-21.099,9.377,6.252,-10.549,-3.907,1.954,4.298,-3.907,-7.814,2.344,0.391,-7.424,-1.172,1.563,3.126,18.364,3.516,2.344
'[13:23:37.574 02/09/2075]',-29.304,-1.172,-2.344,12.503,-16.801,-19.536,9.377,5.861,-10.159,-7.424,5.861,1.172,-5.470,-10.159,5.079,0.391,-7.814,-0.391,3.126,4.689,15.238,0.391,5.079
'[13:23:37.578 02/09/2075]',-20.317,-2.735,-2.735,16.020,-8.205,-19.536,8.596,8.596,-12.503,-9.377,5.079,4.689,-8.205,-10.940,3.516,3.516,-9.377,0.391,3.516,7.424,15.238,-2.344,3.516
'[13:23:37.582 02/09/2075]',-28.132,-5.861,-2.344,14.457,-17.973,-21.099,7.033,8.596,-13.284,-9.768,1.954,6.252,-8.987,-12.112,0.391,6.252,-11.722,-1.563,3.126,1.954,14.847,2.344,0.391
'[13:23:37.586 02/09/2075]',-32.039,-5.861,-0.391,12.112,-22.271,-19.145,7.033,7.424,-10.940,-6.252,0.391,3.516,-3.516,-13.675,0.000,4.689,-12.894,-1.954,1.172,2.344,11.722,2.344,0.000
'[13:23:37.590 02/09/2075]',-32.039,-4.298,0.000,12.112,-22.271,-19.145,6.642,9.377,-14.066,-7.814,0.000,3.907,-6.252,-14.847,-0.781,4.689,-14.066,0.000,0.781,5.079,10.159,-1.954,-0.781
'[13:23:37.594 02/09/2075]',-36.337,-3.126,-0.391,12.894,-28.913,-16.020,7.033,9.768,-17.192,-5.861,0.781,3.907,-7.814,-14.847,-0.391,5.079,-13.675,3.907,1.172,2.344,8.205,0.000,-0.391
'[13:23:37.598 02/09/2075]',-32.039,3.126,-0.781,11.722,-24.615,-8.987,9.377,5.861,-16.410,-1.563,5.470,-1.172,-4.298,-11.331,1.563,0.391,-10.549,8.205,1.563,0.391,6.252,3.126,1.563
'[13:23:37.602 02/09/2075]',-25.006,4.689,-3.126,10.159,-22.662,-5.470,9.768,4.689,-17.973,-2.344,10.549,-2.344,-4.298,-7.424,2.735,-2.344,-8.987,11.331,3.907,0.391,7.814,3.126,2.735
'[13:23:37.605 02/09/2075]',-23.053,2.344,-5.470,10.159,-26.178,-3.907,8.205,6.252,-28.132,0.781,10.159,0.781,-8.205,-7.814,1.172,-0.391,-7.424,13.284,6.252,0.781,10.159,0.391,1.172
'[13:23:37.609 02/09/2075]',-18.364,3.907,-7.424,7.033,-21.880,-2.344,5.470,3.907,-30.867,3.126,10.159,-0.781,-8.987,-5.470,0.391,-2.735,-7.033,14.066,8.205,-3.126,12.894,2.344,0.391
'[13:23:37.613 02/09/2075]',-19.145,3.516,-5.470,3.516,-26.960,0.000,6.252,3.126,-30.085,4.689,9.768,-1.172,-8.205,-5.079,0.781,-3.126,-7.424,16.020,6.252,1.563,11.331,-1.954,0.781
'[13:23:37.617 02/09/2075]',-14.457,3.516,-4.298,4.298,-23.053,-1.172,5.861,7.033,-30.476,5.079,8.596,0.781,-6.642,-7.424,0.391,0.000,-7.033,19.145,5.079,7.814,10.159,-8.205,0.391
'[13:23:37.621 02/09/2075]',-17.582,2.735,-3.907,6.642,-23.443,-4.689,6.642,8.596,-28.523,7.424,5.861,1.954,-5.470,-8.987,0.391,1.954,-8.205,19.927,4.689,5.079,5.861,-4.298,0.391
'[13:23:37.625 02/09/2075]',-22.271,2.735,-2.735,4.298,-30.085,-3.907,7.814,6.642,-23.834,9.768,3.516,0.391,-2.735,-7.814,1.172,0.000,-9.377,18.755,3.516,3.907,0.000,-1.563,1.172
'[13:23:37.629 02/09/2075]',-21.490,3.907,-1.563,3.907,-28.523,-3.516,7.814,7.814,-22.271,11.331,2.735,0.391,-1.172,-6.252,0.391,1.172,-7.033,16.801,2.344,3.516,1.172,-5.470,0.391
'[13:23:37.633 02/09/2075]',-23.834,6.642,-1.563,6.252,-26.569,-1.563,8.205,7.033,-23.834,10.159,0.781,2.735,-5.079,-4.689,-2.735,4.298,-4.298,16.020,2.344,-1.563,5.079,-5.079,-2.735
'[13:23:37.637 02/09/2075]',-16.801,9.768,-0.391,6.252,-18.755,3.126,10.940,2.344,-17.192,10.940,3.516,1.563,0.391,-1.954,-3.126,4.298,-1.954,18.364,1.172,-7.033,5.861,-1.172,-3.126
'[13:23:37.641 02/09/2075]',-13.675,8.987,0.391,5.861,-18.755,3.907,14.847,1.563,-19.927,9.377,8.205,1.563,-1.563,-0.391,-4.689,7.033,-0.781,21.490,0.391,-1.954,3.907,-4.689,-4.689
'[13:23:37.645 02/09/2075]',-10.159,7.033,0.000,8.205,-17.582,3.126,15.629,3.907,-25.006,5.079,8.596,5.861,-5.861,-2.735,-3.516,8.987,0.000,24.225,0.781,1.563,1.954,-8.205,-3.516
'[13:23:37.648 02/09/2075]',-8.205,3.907,0.000,5.861,-20.317,2.735,14.847,2.735,-26.960,1.954,8.987,7.424,-8.205,-4.689,1.954,3.516,-3.126,23.443,0.781,-0.781,-2.344,-4.689,1.954
'[13:23:37.652 02/09/2075]',-10.940,-0.391,0.391,1.563,-25.006,0.391,12.503,1.563,-30.476,0.000,8.987,5.470,-9.768,-8.205,3.516,-0.391,-5.470,18.755,0.391,1.172,-0.781,-7.033,3.516
'[13:23:37.656 02/09/2075]',-12.503,4.298,3.516,-0.391,-18.755,0.391,9.377,2.735,-29.304,0.000,7.033,7.033,-7.033,-8.205,4.298,-1.954,-2.735,14.847,-2.735,1.954,5.470,-9.377,4.298
'[13:23:37.660 02/09/2075]',-6.642,13.284,5.470,-1.172,-5.079,2.344,6.642,3.907,-17.192,0.391,6.252,10.159,0.000,-3.516,4.689,0.391,0.391,12.503,-4.689,-3.126,6.642,-5.079,4.689
'[13:23:37.664 02/09/2075]',-12.503,16.410,6.252,-4.298,-7.814,3.907,5.861,2.344,-12.894,2.735,6.252,9.377,0.391,0.391,3.516,1.563,0.781,10.159,-5.470,-3.516,1.172,-0.781,3.516
'[13:23:37.668 02/09/2075]',-5.861,17.192,6.642,-4.689,-0.781,5.079,5.470,1.954,-7.033,5.861,7.033,5.861,4.298,3.126,3.907,1.172,3.516,8.596,-5.861,0.391,-1.172,-2.735,3.907
'[13:23:37.672 02/09/2075]',-3.126,15.629,6.642,-4.689,0.391,4.689,2.344,4.689,-2.344,5.079,5.470,10.159,7.033,2.344,3.907,5.861,3.907,7.424,-5.861,-1.563,-5.861,-1.954,3.907
'[13:23:37.676 02/09/2075]',-8.596,12.894,5.470,-6.252,-5.470,3.516,0.781,3.516,-4.689,4.298,2.344,10.940,1.954,0.781,3.126,6.642,0.000,4.689,-4.689,-6.252,-5.861,1.563,3.126
'[13:23:37.680 02/09/2075]',-9.377,12.503,5.861,-7.814,-6.252,3.126,0.000,3.907,-10.940,3.516,1.954,10.159,1.563,-3.126,1.954,4.689,-2.344,1.172,-5.079,-2.735,-0.391,-4.298,1.954
'[13:23:37.684 02/09/2075]',-5.470,17.582,7.814,-7.814,0.391,3.907,-1.172,7.424,-9.768,0.391,2.735,14.457,1.563,-1.954,1.954,7.033,-2.735,2.344,-7.033,-1.954,-1.172,-4.689,1.954
'[13:23:37.688 02/09/2075]',-4.689,19.145,10.159,-6.252,1.954,4.689,0.391,8.987,-7.814,-0.781,6.642,15.238,0.391,1.172,4.689,7.033,-3.907,5.079,-9.377,-6.642,-5.861,3.516,4.689
'[13:23:37.691 02/09/2075]',0.781,21.099,10.940,-5.079,5.861,10.940,1.954,7.814,-3.126,3.907,11.722,10.549,6.642,6.252,7.424,2.344,-3.126,7.814,-10.159,-8.205,-5.470,6.252,7.424
'[13:23:37.695 02/09/2075]',7.424,23.834,13.675,-1.954,10.940,15.629,2.344,11.722,4.689,7.033,14.066,10.940,14.457,10.940,8.205,3.516,0.000,12.503,-12.894,-5.861,-7.424,4.298,8.205
'[13:23:37.699 02/09/2075]',0.391,24.225,11.722,1.563,4.298,17.582,1.172,13.284,7.424,7.814,12.503,10.549,17.582,9.377,5.861,5.470,1.954,14.847,-10.940,-8.596,-8.596,4.689,5.861
'[13:23:37.703 02/09/2075]',-5.079,25.397,10.940,0.781,-0.391,19.927,1.172,8.987,5.861,10.940,11.331,3.516,19.927,5.470,2.735,3.126,2.344,14.457,-10.159,-11.331,-6.252,6.252,2.735
'[13:23:37.707 02/09/2075]',1.563,25.788,10.159,0.391,6.642,20.708,1.563,7.814,0.391,10.549,10.940,0.391,16.020,2.735,2.344,1.172,4.689,14.457,-9.377,-6.252,-7.814,0.781,2.344
'[13:23:37.711 02/09/2075]',-4.298,21.880,8.987,-0.781,0.391,16.801,1.563,5.861,-8.987,6.252,6.642,0.391,0.781,0.000,1.563,2.344,3.516,12.112,-8.205,-5.079,-6.642,-1.954,1.563
'[13:23:37.715 02/09/2075]',-3.126,19.536,7.424,-3.907,0.781,15.629,2.735,-0.391,-7.814,8.987,4.298,-1.563,-1.172,1.563,2.735,1.172,1.954,10.549,-6.642,-10.549,-3.516,2.344,2.735
'[13:23:37.719 02/09/2075]',2.735,19.145,7.033,-4.298,6.642,15.629,5.079,-2.735,-5.861,13.284,4.298,-2.344,-0.391,4.689,4.689,0.000,4.689,7.814,-6.252,-7.814,-3.516,2.344,4.689
'[13:23:37.723 02/09/2075]',-0.391,17.582,7.814,-1.954,6.642,12.503,3.126,0.000,-2.735,12.894,2.344,0.391,1.954,3.516,5.470,1.172,5.861,7.424,-7.033,-4.689,0.391,-1.563,5.470
'[13:23:37.727 02/09/2075]',-1.954,15.629,4.298,-0.391,1.954,8.987,1.954,2.735,-0.391,10.940,0.391,3.516,2.735,2.735,4.298,3.516,5.470,6.642,-3.516,-5.470,0.000,0.391,4.298
'[13:23:37.730 02/09/2075]',1.954,15.629,3.516,-2.344,3.516,7.814,3.126,2.735,0.781,8.987,2.735,1.563,5.861,3.126,1.563,2.344,5.470,6.252,-2.735,-2.735,-3.907,3.907,1.563
'[13:23:37.734 02/09/2075]',7.033,18.755,6.642,-3.126,9.377,8.596,6.642,3.126,1.954,6.252,6.642,2.735,7.814,4.689,1.172,3.907,6.252,10.159,-5.861,1.172,-2.344,-0.391,1.172
'[13:23:37.738 02/09/2075]',10.549,16.020,4.689,0.000,11.331,7.033,7.814,4.298,5.861,3.516,7.424,7.033,12.503,2.735,-1.563,12.112,5.861,14.457,-3.907,-2.344,-2.344,0.391,-1.563
'[13:23:37.742 02/09/2075]',1.954,14.457,5.470,0.000,0.781,8.987,8.987,1.563,6.252,2.344,10.159,7.033,12.503,3.126,-2.735,14.457,3.907,16.410,-4.689,-7.814,-3.516,4.689,-2.735
'[13:23:37.746 02/09/2075]',4.689,18.755,7.814,1.954,6.642,14.066,8.987,2.344,5.470,1.954,12.112,10.159,11.331,3.516,2.735,10.940,4.298,16.801,-7.033,-5.470,-0.391,0.391,2.735
'[13:23:37.750 02/09/2075]',1.563,12.894,8.596,3.126,2.735,12.503,4.298,6.252,0.391,-0.781,10.549,15.629,3.516,0.391,5.079,15.238,4.298,13.675,-7.814,-5.470,-0.781,-3.516,5.079
'[13:23:37.754 02/09/2075]',1.563,8.987,7.424,0.000,0.391,8.987,1.954,5.470,-1.563,-2.344,9.377,16.801,0.781,0.391,6.642,12.894,1.954,8.596,-6.642,-7.424,-5.079,0.391,6.642
'[13:23:37.758 02/09/2075]',5.861,12.894,8.205,-5.861,6.252,7.814,2.735,1.954,1.563,0.391,10.549,14.847,3.126,5.470,9.377,8.205,1.563,6.642,-7.424,-5.079,-7.424,1.172,9.377
'[13:23:37.762 02/09/2075]',8.596,13.675,9.377,-8.205,9.377,7.033,1.954,4.298,4.298,0.391,9.377,17.192,4.689,8.987,8.987,8.596,3.126,7.033,-8.596,-1.954,-6.642,-1.172,8.987
'[13:23:37.766 02/09/2075]',13.284,12.112,5.079,-5.470,9.768,7.424,0.391,5.861,8.987,0.391,7.424,16.801,10.549,10.159,5.861,7.424,1.563,8.987,-4.298,-5.861,-7.033,3.516,5.861
'[13:23:37.770 02/09/2075]',15.238,9.377,4.689,-6.642,8.596,9.377,0.000,3.907,12.112,1.954,7.814,12.503,15.238,10.940,5.079,2.344,0.391,8.205,-3.907,-5.861,-6.252,7.033,5.079
'[13:23:37.773 02/09/2075]',17.582,7.033,3.907,-4.298,11.722,10.549,-2.344,3.907,6.252,0.000,5.079,10.940,7.814,8.205,3.516,1.172,1.563,5.470,-3.126,-0.781,-1.172,1.172,3.516
'[13:23:37.777 02/09/2075]',12.503,3.516,0.391,0.391,3.126,12.503,-4.689,5.470,4.298,-2.344,4.298,11.722,3.516,6.642,3.516,3.126,2.735,3.516,0.391,0.000,-3.516,0.391,3.516
'[13:23:37.781 02/09/2075]',9.377,6.252,1.172,0.000,1.172,15.629,-3.516,3.126,9.768,0.391,4.298,7.814,6.252,10.940,3.516,0.781,2.735,3.907,-0.391,-5.079,-1.563,4.298,3.516
'[13:23:37.785 02/09/2075]',12.894,5.470,2.344,-1.172,3.126,16.410,-1.172,1.563,14.457,1.172,6.252,3.907,9.768,14.066,5.079,-2.344,1.563,5.470,-1.563,-0.781,-1.954,1.954,5.079
'[13:23:37.789 02/09/2075]',14.457,1.563,1.172,1.954,2.735,14.066,-1.954,4.689,10.159,-0.391,5.079,7.814,7.424,12.112,3.516,0.000,-1.172,7.814,-0.391,0.781,-2.735,0.391,3.516
'[13:23:37.793 02/09/2075]',16.410,0.391,1.563,4.298,4.298,12.503,-2.344,7.033,8.987,-1.172,2.344,8.596,6.642,10.549,1.954,0.391,-4.689,9.377,-0.781,-3.516,-4.298,4.298,1.954
'[13:23:37.797 02/09/2075]',20.317,-0.781,2.735,1.954,7.424,11.722,-0.781,5.079,2.344,0.000,1.563,5.861,0.391,8.596,1.172,-0.391,-7.424,6.252,-1.954,0.391,-8.596,2.344,1.172
'[13:23:37.801 02/09/2075]',17.973,-0.391,4.689,5.470,7.033,12.112,0.000,7.814,-1.172,-0.781,-0.781,8.987,-5.861,6.642,1.563,2.735,-6.642,5.079,-3.907,4.298,-13.284,-0.781,1.563
'[13:23:37.805 02/09/2075]',15.629,3.907,5.079,8.205,7.033,14.457,-0.391,10.940,7.033,0.000,-3.126,8.205,-2.735,6.642,2.344,5.079,-5.861,5.861,-4.298,-1.563,-18.364,5.079,2.344
'[13:23:37.809 02/09/2075]',19.927,4.689,5.470,3.126,8.205,16.020,0.391,8.987,17.192,2.344,-4.689,3.907,2.344,9.377,3.907,1.954,-6.252,6.252,-4.689,-3.516,-22.271,9.768,3.907
'[13:23:37.813 02/09/2075]',17.192,1.563,5.079,0.781,2.735,12.112,1.172,8.596,21.880,2.735,-7.424,4.689,6.252,7.814,4.298,1.954,-5.861,7.033,-4.298,1.563,-23.443,4.298,4.298
'[13:23:37.816 02/09/2075]',12.503,0.391,3.516,1.172,0.000,7.424,1.172,9.377,18.364,-0.781,-9.768,5.470,1.563,3.907,1.172,5.861,-5.470,7.814,-2.735,1.172,-18.364,1.172,1.172
'[13:23:37.820 02/09/2075]',12.503,-0.391,5.079,-0.391,1.563,2.344,4.298,7.033,11.331,5.470,-9.377,3.516,0.781,1.954,0.000,7.424,-4.298,8.205,-4.298,-4.298,-15.238,2.344,0.000
'[13:23:37.824 02/09/2075]',17.582,-4.689,5.079,-3.126,3.907,-1.172,7.424,2.735,1.563,7.033,-7.814,1.954,-4.689,1.563,1.172,5.470,-4.689,7.424,-4.298,-1.172,-14.847,-3.516,1.172
'[13:23:37.828 02/09/2075]',17.192,0.000,5.079,-1.954,6.642,-1.563,8.987,4.689,1.954,6.252,-5.861,2.735,-7.033,4.298,0.000,8.596,-4.689,7.424,-4.298,-0.781,-16.410,-6.252,0.000
'[13:23:37.832 02/09/2075]',21.099,-1.563,1.563,-2.344,8.987,-3.126,7.424,3.907,3.516,5.079,-1.954,1.563,-5.470,8.596,-1.172,8.205,-7.033,8.596,-0.781,-3.907,-19.145,-1.954,-1.172
'[13:23:37.836 02/09/2075]',27.350,-7.033,0.000,-7.033,11.722,-7.033,6.642,0.391,2.735,0.391,1.172,-0.391,-4.689,7.424,-2.344,4.298,-12.894,7.424,0.781,0.391,-22.271,-3.126,-2.344
'[13:23:37.840 02/09/2075]',17.973,-12.894,-2.344,-7.814,1.563,-14.066,3.126,1.563,-1.172,-4.689,0.391,0.000,-5.470,1.954,-6.252,5.079,-16.801,5.079,3.126,6.252,-18.755,-8.205,-6.252
'[13:23:37.844 02/09/2075]',16.020,-16.410,-4.298,-5.861,0.391,-18.364,1.563,3.516,-7.033,-8.987,-1.172,0.391,-10.549,-0.781,-8.205,2.344,-18.755,4.298,5.079,7.033,-8.987,-8.596,-8.205
'[13:23:37.848 02/09/2075]',21.099,-18.755,-4.689,-8.205,5.470,-18.755,0.391,0.391,-9.768,-10.159,-1.954,-0.391,-13.675,-1.172,-1.954,-4.689,-19.927,0.391,5.470,5.470,-6.252,-3.907,-1.954
'[13:23:37.852 02/09/2075]',17.192,-18.755,-7.033,-10.549,1.954,-19.927,0.000,-1.954,-1.954,-9.377,-1.172,-1.172,-9.377,0.391,1.954,-8.596,-18.755,-1.563,7.814,5.861,-7.424,-1.954,1.954
'[13:23:37.855 02/09/2075]',20.708,-15.629,-7.033,-7.814,9.377,-18.755,-1.563,0.391,7.424,-9.768,0.000,1.954,-5.470,6.642,5.079,-6.642,-14.847,-1.563,7.814,7.424,-6.252,-1.954,5.079
'[13:23:37.859 02/09/2075]',22.271,-16.020,-7.424,-9.768,9.768,-16.410,-1.563,-1.954,13.675,-7.424,0.391,4.689,0.781,8.205,6.252,-4.298,-13.675,-1.563,8.205,3.126,-7.424,3.126,6.252
'[13:23:37.863 02/09/2075]',16.410,-20.317,-5.470,-12.894,-2.735,-15.238,-0.391,-3.126,12.503,-4.689,2.344,5.079,6.252,5.079,7.424,-3.907,-14.457,-1.172,6.252,8.205,-7.424,-2.735,7.424
'[13:23:37.867 02/09/2075]',16.410,-17.582,-1.172,-11.722,-2.344,-11.331,0.391,0.000,3.907,-1.954,5.079,8.205,2.344,5.470,8.596,-0.781,-9.377,1.563,1.954,12.503,-3.907,-8.205,8.596
'[13:23:37.871 02/09/2075]',27.741,-15.629,0.781,-7.424,6.252,-5.470,2.344,1.563,2.735,3.516,8.987,12.112,3.516,11.331,10.549,1.563,-7.424,7.424,0.000,7.033,-5.470,-0.391,10.549
'[13:23:37.875 02/09/2075]',36.337,-17.973,2.735,-6.642,8.205,-0.781,3.907,1.563,-2.735,5.861,13.284,12.894,-1.563,15.238,14.066,1.172,-5.470,10.159,-1.954,5.470,-7.424,1.563,14.066
'[13:23:37.879 02/09/2075]',37.900,-16.410,4.298,-3.516,8.987,1.563,4.298,4.689,-1.172,8.205,16.020,12.503,-0.781,18.755,15.238,2.735,-3.126,12.894,-3.516,8.596,-6.642,-1.954,15.238
'[13:23:37.883 02/09/2075]',42.979,-15.629,6.642,1.954,15.238,3.907,5.470,8.596,0.391,10.549,14.457,15.629,-1.563,21.880,13.284,8.205,-2.735,17.582,-5.861,5.861,-5.079,1.172,13.284
'[13:23:37.887 02/09/2075]',35.556,-19.536,7.424,3.126,4.689,4.689,7.814,7.424,6.252,10.549,13.675,13.284,2.344,21.880,12.112,7.033,-2.735,18.364,-6.642,5.470,-7.424,3.907,12.112
'[13:23:37.891 02/09/2075]',35.165,-21.880,7.424,0.391,0.781,4.689,8.596,6.252,7.424,12.894,11.722,7.814,8.987,18.364,10.159,2.344,-3.126,19.145,-6.642,10.549,-5.861,-1.563,10.159
'[13:23:37.895 02/09/2075]',31.258,-20.317,7.814,0.391,-3.126,5.079,10.159,5.861,2.344,14.457,8.205,9.377,7.424,16.410,6.642,1.954,-3.907,20.708,-7.033,12.503,-4.689,-3.516,6.642
'[13:23:37.898 02/09/2075]',36.728,-18.364,6.642,0.391,-0.781,8.596,11.331,4.689,4.298,14.066,7.424,8.987,9.768,17.582,6.642,1.172,-5.079,22.271,-5.861,7.814,-5.861,0.391,6.642
'[13:23:37.902 02/09/2075]',42.198,-15.629,3.907,1.172,3.907,9.377,11.331,4.689,1.954,14.066,6.252,7.814,5.861,17.973,6.642,0.000,-5.470,22.271,-3.126,6.642,-7.033,0.000,6.642
'[13:23:37.906 02/09/2075]',42.979,-14.847,1.563,5.861,6.642,6.252,10.940,8.596,1.172,10.940,3.516,10.940,4.689,14.847,4.298,2.344,-5.079,20.708,-0.781,9.768,-7.424,-3.907,4.298
'[13:23:37.910 02/09/2075]',40.635,-14.066,-1.172,10.159,6.252,5.470,8.205,12.894,0.781,8.205,0.391,12.503,3.907,12.503,1.172,5.079,-6.642,19.145,1.954,6.642,-4.298,-5.079,1.172
'[13:23:37.914 02/09/2075]',39.853,-9.377,-4.298,8.987,7.814,4.298,6.252,14.066,4.689,6.252,-1.172,11.722,7.814,12.894,-0.391,2.344,-7.814,16.801,5.079,4.298,-3.516,-4.298,-0.391
'[13:23:37.918 02/09/2075]',42.198,-12.894,-6.642,5.470,9.377,-0.781,5.079,12.112,6.252,2.344,0.000,8.987,10.940,10.159,-3.516,0.781,-9.377,13.675,7.424,10.159,-4.298,-9.768,-3.516
'[13:23:37.922 02/09/2075]',38.291,-16.801,-10.549,3.907,5.079,-7.424,2.344,12.503,7.033,0.391,0.391,7.033,12.112,9.377,-5.079,0.000,-11.331,13.675,11.331,8.987,-4.689,-10.159,-5.079
'[13:23:37.926 02/09/2075]',48.449,-17.192,-10.940,0.391,14.847,-9.768,2.344,10.549,5.079,0.391,0.781,5.470,7.814,11.722,-6.642,0.000,-10.549,12.112,11.722,4.689,-6.252,-5.079,-6.642
'[13:23:37.930 02/09/2075]',42.198,-19.145,-10.940,-3.126,6.642,-12.112,2.735,8.596,7.033,-3.516,2.735,4.689,4.689,11.722,-4.689,-0.391,-9.377,11.331,11.722,9.768,-12.894,-8.596,-4.689
'[13:23:37.934 02/09/2075]',38.291,-23.053,-8.987,-3.907,0.391,-10.549,1.172,9.768,-2.344,1.563,4.689,5.470,1.954,9.768,-3.516,1.563,-7.424,12.503,9.768,15.238,-14.066,-14.847,-3.516
'[13:23:37.938 02/09/2075]',43.761,-22.271,-7.424,-5.861,5.079,-7.424,0.391,6.642,-8.987,3.516,4.689,7.033,0.000,6.642,-4.689,5.470,-6.642,11.722,8.205,12.112,-12.112,-12.894,-4.689
'[13:23:37.941 02/09/2075]',35.946,-22.662,-6.252,-10.159,-1.172,-4.689,0.391,1.172,-5.470,0.391,5.861,7.424,0.391,3.907,0.391,3.516,-8.596,9.377,7.033,12.503,-12.503,-12.894,0.391
'[13:23:37.945 02/09/2075]',31.258,-23.834,-8.205,-7.814,-1.563,-5.470,-2.344,0.391,0.391,0.391,7.814,8.596,1.954,5.861,5.470,2.735,-10.159,6.642,8.987,17.582,-12.503,-16.410,5.470
'[13:23:37.949 02/09/2075]',35.946,-26.569,-11.331,-4.689,5.470,-8.205,-5.079,0.000,4.689,-3.907,7.814,12.503,2.344,5.470,5.861,6.252,-11.331,3.516,12.112,15.629,-10.549,-12.503,5.861
'[13:23:37.953 02/09/2075]',37.509,-27.741,-12.503,-4.689,9.768,-9.377,-5.470,-2.735,8.596,-5.470,8.987,11.331,3.516,6.642,8.205,3.907,-12.503,1.954,13.284,13.284,-10.940,-5.861,8.205
'[13:23:37.957 02/09/2075]',33.211,-26.569,-11.722,-3.907,11.331,-11.722,-5.079,-3.907,15.238,-5.079,10.940,10.940,7.814,9.377,10.549,3.126,-12.503,1.172,12.503,16.801,-9.768,-7.424,10.549
'[13:23:37.961 02/09/2075]',38.291,-29.304,-12.112,-2.344,15.629,-13.284,-5.861,-2.735,11.722,-4.689,8.596,12.894,7.814,7.814,7.424,4.689,-12.894,1.172,12.894,17.192,-6.252,-7.814,7.424
'[13:23:37.965 02/09/2075]',32.430,-29.304,-10.940,-2.735,9.768,-14.066,-2.735,-4.689,5.079,-7.033,8.205,10.549,3.907,5.079,3.516,3.126,-15.238,2.344,11.722,10.549,-0.781,-2.735,3.516
'[13:23:37.969 02/09/2075]',21.099,-27.741,-8.596,-2.735,0.781,-14.066,0.391,-5.861,2.735,-5.861,10.940,6.642,0.781,5.470,5.861,1.563,-16.801,3.516,9.377,8.987,-1.954,-0.391,5.861
'[13:23:37.973 02/09/2075]',25.788,-23.834,-7.424,0.391,5.079,-10.940,2.344,-2.735,1.954,-3.126,11.722,7.033,-1.563,8.596,5.470,4.689,-14.066,7.814,8.205,8.987,-3.516,0.000,5.470
'[13:23:37.977 02/09/2075]',30.085,-20.317,-3.516,3.126,5.470,-4.689,6.252,0.391,3.126,0.391,10.549,8.205,-0.781,10.159,3.907,8.987,-11.331,14.066,4.298,3.126,-3.907,3.516,3.907
'[13:23:37.980 02/09/2075]',28.132,-16.020,1.172,1.563,1.954,2.344,11.722,-1.563,10.940,6.252,11.722,0.391,3.126,14.066,5.470,6.252,-7.033,16.801,-0.391,0.781,-7.814,7.424,5.470
'[13:23:37.984 02/09/2075]',28.913,-11.722,6.642,3.126,5.079,7.033,14.847,0.391,17.582,11.722,12.112,-3.907,10.159,12.894,5.470,8.205,-2.344,19.927,-5.861,5.470,-8.596,2.344,5.470
'[13:23:37.988 02/09/2075]',29.304,-15.238,8.596,8.596,5.079,5.470,15.238,3.907,13.675,10.940,8.205,-2.344,11.722,4.689,1.172,11.722,-0.391,19.927,-7.814,1.954,-3.907,1.563,1.172
'[13:23:37.992 02/09/2075]',20.317,-16.801,10.940,11.331,1.954,2.735,15.629,5.079,7.814,8.205,7.814,-5.861,6.252,0.781,1.172,9.768,-0.781,17.192,-10.159,-3.126,1.172,4.689,1.172
'[13:23:37.996 02/09/2075]',21.099,-12.112,10.940,14.847,7.424,1.172,14.847,8.987,8.987,6.642,9.768,-3.516,2.735,3.907,3.907,10.159,1.563,14.457,-10.159,1.172,-0.391,1.563,3.907
'[13:23:38.000 02/09/2075]',28.523,-15.629,6.252,20.708,15.629,-1.563,11.331,13.284,8.987,3.126,5.861,1.563,0.391,3.126,3.516,13.284,4.689,11.722,-5.470,2.735,-1.172,0.000,3.516
'[13:23:38.004 02/09/2075]',22.662,-20.317,3.126,21.099,12.894,-7.033,9.768,10.159,11.722,1.563,5.470,-1.954,-1.954,6.642,2.735,8.987,4.298,7.814,-2.344,0.000,-1.563,5.079,2.735
'[13:23:38.008 02/09/2075]',16.801,-19.536,0.000,20.317,8.987,-8.205,8.987,5.861,18.364,1.954,3.907,-7.814,-1.954,12.112,0.781,5.079,6.252,3.516,0.781,1.954,-1.954,6.252,0.781
'[13:23:38.012 02/09/2075]',14.066,-22.271,-2.735,20.317,8.205,-10.159,4.689,5.079,10.159,7.033,-1.954,-10.549,-3.126,8.987,-3.126,1.954,7.033,0.391,3.516,6.252,2.344,0.781,-3.126
'[13:23:38.016 02/09/2075]',8.987,-23.834,-3.516,17.192,5.079,-13.284,3.126,1.563,10.940,8.205,-5.079,-14.847,0.000,8.987,-7.814,-1.563,6.252,-2.735,4.298,2.344,11.331,2.735,-7.814
'[13:23:38.020 02/09/2075]',13.284,-24.615,-5.079,13.675,9.377,-14.847,1.954,-0.391,10.159,9.768,-4.298,-18.755,0.391,9.768,-8.596,-4.689,5.861,-4.298,5.861,3.907,9.377,5.079,-8.596
'[13:23:38.023 02/09/2075]',19.145,-25.006,-7.424,7.814,11.722,-14.457,-0.391,-2.344,8.205,8.987,-1.172,-20.317,3.516,5.079,-7.033,-5.470,5.079,-5.079,8.205,11.722,4.298,-0.781,-7.033
'[13:23:38.027 02/09/2075]',16.410,-20.708,-9.377,7.033,12.112,-16.020,-0.391,-1.563,14.066,5.470,1.563,-15.629,5.861,7.424,-5.861,-1.563,4.689,-3.516,10.159,8.596,4.689,-1.172,-5.861
'[13:23:38.031 02/09/2075]',17.973,-16.801,-8.205,4.689,15.238,-16.020,0.391,-1.172,11.331,0.391,4.689,-13.284,-0.781,7.424,-3.907,0.391,2.735,-3.126,8.987,3.516,4.298,0.781,-3.907
'[13:23:38.035 02/09/2075]',21.099,-12.894,-10.159,2.735,17.582,-13.675,0.391,-3.126,3.126,-3.516,5.861,-12.112,-8.596,3.907,-2.735,0.391,0.391,-4.689,10.940,3.516,0.391,-1.172,-2.735
'[13:23:38.039 02/09/2075]',15.629,-9.768,-7.033,4.298,16.410,-14.066,-0.781,1.172,6.642,-7.033,3.907,-6.642,-6.642,4.298,-3.907,2.344,0.391,-5.861,7.814,0.000,5.079,-3.907,-3.907
'[13:23:38.043 02/09/2075]',12.503,-8.205,-7.424,4.298,14.847,-13.675,-2.735,1.563,4.298,-11.722,1.563,-3.907,-12.894,4.298,-0.781,0.000,-3.516,-7.424,8.205,-4.298,3.907,-0.391,-0.781
'[13:23:38.047 02/09/2075]',16.410,-10.159,-11.331,0.391,14.847,-11.331,-5.079,-3.516,3.126,-13.284,1.172,-7.424,-13.675,2.344,0.391,-4.689,-7.424,-9.768,12.112,-0.781,-1.954,-1.172,0.391
'[13:23:38.051 02/09/2075]',5.470,-12.503,-12.112,-2.344,2.344,-10.549,-7.814,-6.642,7.424,-13.675,1.954,-6.252,-9.377,1.563,3.126,-5.079,-8.205,-9.768,12.894,5.079,-5.470,-7.033,3.126
'[13:23:38.055 02/09/2075]',5.470,-13.675,-14.066,-2.344,0.391,-10.159,-7.424,-7.814,6.642,-14.847,2.735,-2.344,-8.205,0.391,4.298,-3.126,-10.159,-5.861,14.847,4.298,-7.424,-3.907,4.298
'[13:23:38.059 02/09/2075]',11.331,-16.020,-12.894,-5.861,0.391,-7.424,-5.861,-10.940,1.172,-12.112,3.126,-1.563,-8.987,-1.172,5.470,-3.516,-11.722,-3.516,13.675,2.735,-6.642,-1.563,5.470
'[13:23:38.063 02/09/2075]',7.814,-14.847,-10.549,-8.596,-6.642,-3.907,-6.642,-9.768,0.391,-10.940,3.907,0.391,-5.079,-1.563,4.298,-2.344,-10.549,-2.344,11.331,7.424,-4.689,-5.470,4.298
'[13:23:38.066 02/09/2075]',1.954,-12.894,-7.814,-8.205,-11.722,-3.126,-6.642,-5.079,-3.907,-10.940,3.126,6.252,-7.033,-2.735,2.735,1.172,-8.205,-0.391,8.596,7.033,-3.907,-6.252,2.735
'[13:23:38.070 02/09/2075]',7.814,-10.940,-3.516,-12.894,-6.642,0.000,-5.079,-6.252,-7.033,-7.424,2.344,6.252,-8.205,-2.344,1.954,2.344,-8.205,-0.391,4.298,2.344,-2.735,-2.344,1.954
'[13:23:38.074 02/09/2075]',12.894,-4.298,0.391,-16.020,-2.344,4.298,-3.516,-5.470,-3.516,-0.781,3.907,3.126,-7.424,4.689,3.516,1.172,-7.424,0.391,0.391,4.298,-8.205,-0.391,3.516
'[13:23:38.078 02/09/2075]',15.238,-4.689,2.344,-16.410,-3.126,6.252,-2.735,-3.126,-3.126,1.563,3.516,5.079,-6.642,6.252,5.079,2.344,-7.033,0.781,-1.563,5.079,-10.549,-1.954,5.079
'[13:23:38.082 02/09/2075]',24.225,-4.689,4.298,-14.066,4.298,8.205,-1.172,-1.563,0.391,5.079,2.344,4.689,-3.126,7.814,4.689,2.735,-10.159,4.298,-3.516,0.000,-8.205,3.126,4.689
'[13:23:38.086 02/09/2075]',20.317,-4.298,3.126,-11.722,0.391,7.424,-0.781,-0.781,-0.391,7.033,3.516,0.000,-2.344,6.642,4.689,0.391,-12.503,5.470,-2.344,-1.954,-8.205,6.252,4.689
'[13:23:38.090 02/09/2075]',9.377,-7.033,1.954,-6.642,-6.642,4.298,-1.954,1.954,-1.563,5.470,2.735,-1.563,-1.172,2.344,3.516,0.000,-12.503,5.079,-1.172,0.391,-5.861,1.954,3.516
'[13:23:38.094 02/09/2075]',5.079,-1.172,1.172,-1.954,-5.470,4.689,-2.344,6.642,0.391,4.689,1.172,-3.516,1.954,1.172,0.000,0.000,-12.503,6.252,-0.391,-3.516,-0.781,3.126,0.000
'[13:23:38.098 02/09/2075]',4.298,3.907,0.391,-0.781,-5.079,7.033,0.000,6.642,-1.172,5.861,3.126,-9.377,-0.781,4.689,-1.172,-4.298,-13.675,7.033,0.391,-8.596,0.000,9.768,-1.172
'[13:23:38.102 02/09/2075]',5.861,6.252,-0.391,4.298,-3.516,8.596,1.563,8.596,0.391,8.205,6.642,-11.331,0.000,10.940,-0.391,-5.079,-12.503,8.596,1.172,-9.377,-5.861,13.284,-0.391
'[13:23:38.105 02/09/2075]',10.549,3.516,-5.861,9.377,-3.907,7.033,0.391,13.675,-0.391,8.205,5.470,-7.033,-0.391,12.894,-1.563,-3.907,-12.503,10.549,6.642,-8.596,-8.205,10.940,-1.563
'[13:23:38.109 02/09/2075]',12.894,-0.391,-12.503,9.768,-6.252,3.907,-1.563,13.284,-14.457,6.252,1.954,-5.861,-14.066,10.549,-3.516,-4.298,-15.238,10.159,13.284,-9.377,-13.284,12.112,-3.516
'[13:23:38.113 02/09/2075]',13.675,-4.689,-17.192,7.424,-10.549,2.344,-3.126,9.768,-16.410,7.033,1.954,-5.079,-12.894,7.424,-1.954,-5.079,-14.457,7.033,17.973,-4.689,-18.755,5.470,-1.954
'[13:23:38.117 02/09/2075]',14.457,-5.861,-18.755,1.563,-8.596,0.781,-6.642,6.642,-20.708,3.126,-1.172,-2.344,-12.503,0.391,-2.735,-6.252,-12.894,5.861,19.536,0.391,-16.801,-4.298,-2.735
'[13:23:38.121 02/09/2075]',12.112,-0.781,-16.801,-2.344,-5.470,2.735,-7.424,1.563,-25.006,-1.172,-0.781,-2.344,-15.238,-4.689,-3.126,-6.252,-11.331,5.470,17.582,-6.252,-14.066,-1.563,-3.126
'[13:23:38.125 02/09/2075]',15.238,3.516,-12.112,-7.424,0.391,6.642,-4.298,-3.126,-13.675,0.391,1.563,-1.563,-4.689,-2.344,0.391,-6.252,-8.205,5.470,12.894,-7.814,-16.020,1.563,0.391
'[13:23:38.129 02/09/2075]',14.066,3.516,-11.331,-6.252,-1.172,7.033,-4.689,-1.563,-8.987,-1.563,3.516,4.298,0.391,-3.907,1.172,-0.781,-5.861,7.033,12.112,-1.563,-16.410,-3.907,1.172
'[13:23:38.133 02/09/2075]',5.861,1.954,-13.284,-1.563,-7.814,3.907,-4.689,0.781,-5.470,-5.079,4.298,8.596,2.344,-5.470,1.563,3.516,-5.079,7.033,14.066,-1.172,-12.112,-5.861,1.563
'[13:23:38.137 02/09/2075]',8.596,0.781,-14.847,-1.172,-2.344,0.781,-4.689,0.000,-0.391,-5.470,4.689,7.814,5.079,-6.252,0.781,5.861,-5.470,5.470,15.629,0.391,-12.112,-3.907,0.781
'[13:23:38.141 02/09/2075]',6.642,-0.391,-14.847,-2.344,-2.344,-1.563,-3.516,-3.126,1.172,-5.861,5.079,2.735,7.424,-7.424,0.391,2.735,-7.033,3.126,15.629,3.516,-8.987,-6.642,0.391
'[13:23:38.145 02/09/2075]',3.516,-1.954,-12.894,-3.126,-4.298,-1.563,-3.126,-4.298,-8.205,-12.112,5.861,-1.172,-9.768,-7.424,3.907,-1.172,-7.033,1.563,13.675,5.079,-4.689,-8.205,3.907
'[13:23:38.148 02/09/2075]',3.907,-1.954,-9.377,-6.252,-4.298,0.000,-1.563,-7.424,-14.066,-4.689,7.424,-5.470,-10.159,-5.079,3.126,-3.907,-8.596,2.344,10.159,0.000,-3.126,-0.781,3.126
'[13:23:38.152 02/09/2075]',1.563,0.781,-3.516,-8.987,-4.298,1.563,2.344,-10.159,-12.503,1.172,11.722,-8.987,-3.907,-2.735,4.689,-5.079,-6.642,4.689,4.298,-0.781,-1.954,2.344,4.689
'[13:23:38.156 02/09/2075]',-3.516,5.079,-0.391,-8.205,-6.252,2.735,3.126,-7.814,-10.549,6.252,14.847,-5.861,0.000,0.781,6.642,-2.735,-1.172,6.642,1.172,1.172,0.391,1.172,6.642
'[13:23:38.160 02/09/2075]',-5.470,11.331,0.391,-6.252,-1.563,2.735,2.344,-5.861,-2.344,10.940,12.503,-3.126,10.159,3.907,3.907,-0.781,0.391,8.596,0.391,-4.298,3.907,6.642,3.907
'[13:23:38.164 02/09/2075]',-5.470,14.847,0.000,-8.205,1.954,4.298,1.954,-7.814,0.000,12.112,9.768,-6.252,12.503,5.861,0.000,-3.126,0.391,6.252,0.781,-5.079,6.252,10.549,0.000
'[13:23:38.168 02/09/2075]',-5.470,14.847,-1.172,-11.722,2.735,3.516,0.000,-11.331,0.391,10.159,8.205,-11.331,9.768,4.689,-0.391,-6.252,0.781,3.126,1.954,-2.344,5.470,7.424,-0.391
'[13:23:38.172 02/09/2075]',-0.391,13.675,-3.907,-12.503,8.596,2.735,-2.735,-12.112,3.126,7.814,4.689,-12.894,9.377,2.344,-2.735,-5.470,0.391,3.126,4.689,-3.907,5.079,7.424,-2.735
'[13:23:38.176 02/09/2075]',-5.470,11.722,-5.861,-14.847,1.954,2.344,-3.126,-15.629,2.344,5.470,2.735,-15.629,5.470,0.000,-3.516,-4.298,-1.172,1.563,6.642,-8.987,2.344,9.768,-3.516
'[13:23:38.180 02/09/2075]',-5.861,11.722,-5.079,-18.364,1.954,1.172,-2.735,-18.364,5.861,4.689,3.516,-16.801,5.470,-0.781,-1.954,-4.298,1.172,0.781,5.861,-4.298,-1.172,3.907,-1.954
'[13:23:38.184 02/09/2075]',-5.079,11.722,-3.516,-14.847,5.861,0.391,-1.954,-16.410,5.470,3.516,2.735,-12.112,2.735,-1.172,-0.391,0.000,3.126,1.563,4.298,-0.391,-1.563,-0.781,-0.391
'[13:23:38.188 02/09/2075]',-6.252,10.159,-0.781,-9.768,7.033,0.781,0.000,-14.066,0.781,1.954,3.516,-8.987,-0.781,-3.126,0.391,1.954,3.907,3.907,1.563,-4.689,0.391,2.735,0.391
'[13:23:38.191 02/09/2075]',-9.768,9.377,4.689,-6.642,5.079,1.172,4.689,-14.847,0.391,4.298,5.079,-7.033,1.954,-4.298,2.344,1.563,3.907,5.861,-3.907,-1.563,4.298,0.000,2.344
'[13:23:38.195 02/09/2075]',-8.205,12.112,8.596,0.781,7.033,6.642,7.814,-7.424,-4.689,6.252,6.642,-1.954,0.781,-5.861,5.079,6.252,6.252,10.549,-7.814,1.954,5.861,-3.907,5.079
'[13:23:38.199 02/09/2075]',-8.987,14.847,10.940,10.940,5.861,9.768,11.722,-0.781,-1.563,8.205,5.861,4.298,3.907,-5.861,5.470,13.284,10.940,13.675,-10.159,-1.172,5.470,-1.172,5.470
'[13:23:38.203 02/09/2075]',-5.861,14.457,13.675,16.410,7.033,12.112,16.020,1.954,3.516,9.768,6.642,5.079,8.596,-4.689,5.470,15.629,14.457,14.066,-12.894,-1.954,4.689,0.391,5.470
'[13:23:38.207 02/09/2075]',-2.344,13.284,16.020,19.145,8.596,14.457,16.020,5.079,1.172,8.987,3.907,4.689,4.298,-6.252,3.907,17.192,18.364,12.894,-15.238,1.563,3.907,-3.516,3.907
'[13:23:38.211 02/09/2075]',-6.252,16.801,19.536,19.536,8.596,15.629,15.629,8.205,8.596,6.642,1.172,7.033,8.205,-5.470,1.172,19.927,21.880,8.987,-18.755,1.563,5.470,-4.689,1.172
'[13:23:38.215 02/09/2075]',-6.252,17.973,21.490,15.629,10.940,15.238,14.066,7.033,15.238,5.861,0.391,3.126,11.331,-3.907,1.172,16.410,20.708,5.470,-20.708,-2.344,6.252,-0.391,1.172
'[13:23:38.219 02/09/2075]',-14.457,20.708,19.927,8.205,8.205,10.549,10.940,3.516,14.066,4.689,-1.954,-0.391,10.549,-3.126,0.000,10.159,19.536,-1.172,-19.145,-3.126,7.033,0.781,0.000
'[13:23:38.223 02/09/2075]',-12.894,23.053,15.238,6.642,14.847,4.298,6.252,5.470,14.066,1.954,-4.298,-0.391,12.112,-1.563,-4.689,5.861,18.755,-8.596,-14.457,-0.391,10.159,0.000,-4.689
'[13:23:38.227 02/09/2075]',-14.457,23.443,6.252,3.516,12.894,0.391,0.391,5.470,16.410,-2.344,-8.596,-0.781,14.066,0.391,-10.159,0.391,14.847,-14.847,-5.470,-2.735,11.331,1.563,-10.159
'[13:23:38.230 02/09/2075]',-14.457,24.225,2.344,-2.735,11.722,-0.781,-3.516,0.391,14.457,-4.298,-10.549,-6.252,11.722,3.126,-15.629,-7.033,11.331,-21.099,-1.563,-4.689,12.112,6.252,-15.629
'[13:23:38.234 02/09/2075]',-6.642,24.225,-1.954,-9.768,14.066,0.781,-6.642,-3.516,12.112,-4.689,-12.112,-9.377,14.457,1.172,-19.536,-11.331,8.205,-22.662,2.735,0.781,10.549,-0.391,-19.536
'[13:23:38.238 02/09/2075]',-3.126,19.145,-3.907,-12.894,10.940,0.000,-8.596,-3.907,10.159,-7.033,-12.503,-7.424,15.629,-1.172,-21.880,-9.377,5.861,-20.317,4.689,0.391,7.814,-2.344,-21.880
'[13:23:38.242 02/09/2075]',-3.516,16.410,-6.642,-16.020,5.079,0.781,-7.814,-8.205,7.033,-5.079,-10.159,-9.768,14.457,-2.344,-16.020,-14.457,2.344,-17.192,7.424,-3.907,4.298,0.391,-16.020
'[13:23:38.246 02/09/2075]',0.781,14.847,-7.424,-14.847,7.424,0.391,-7.033,-9.377,-1.954,-1.954,-5.861,-9.377,10.549,-4.298,-11.331,-14.457,3.126,-14.457,8.205,1.563,4.689,-7.424,-11.331
'[13:23:38.250 02/09/2075]',-1.954,15.629,-5.861,-8.987,7.814,0.781,-5.861,-5.861,-1.954,-3.126,-1.172,-4.689,11.331,-6.252,-8.596,-8.596,5.861,-9.377,6.642,4.298,7.033,-13.284,-8.596
'[13:23:38.254 02/09/2075]',-10.549,20.317,-2.735,-4.298,6.642,3.516,-2.735,-6.642,2.344,-1.954,1.563,-4.298,13.675,-7.033,-4.689,-4.298,8.205,-7.033,3.516,-1.563,10.549,-8.596,-4.689
'[13:23:38.258 02/09/2075]',-8.205,22.662,0.391,-3.907,11.722,4.298,1.954,-8.987,-0.781,-0.391,2.344,-5.079,10.940,-11.722,-3.516,-0.781,9.768,-5.470,0.391,0.000,12.503,-11.722,-3.516
'[13:23:38.262 02/09/2075]',-11.722,16.020,2.344,-2.344,4.689,0.391,4.689,-7.424,-6.642,-3.907,-0.391,-3.516,4.298,-19.145,-4.689,3.126,10.549,-5.470,-1.563,4.689,12.503,-17.973,-4.689
'[13:23:38.266 02/09/2075]',-23.053,6.252,3.907,-0.391,-10.159,-3.126,7.033,-7.033,-7.033,-5.079,-2.344,-3.907,1.172,-22.271,-4.689,6.642,10.940,-3.516,-3.126,1.172,10.159,-13.284,-4.689
'[13:23:38.270 02/09/2075]',-16.801,1.172,5.861,-1.563,-8.205,-3.516,8.987,-8.596,-6.252,-0.781,-0.781,-7.814,0.391,-21.880,-3.907,7.424,12.112,-1.563,-5.079,0.781,4.689,-8.205,-3.907
'[13:23:38.273 02/09/2075]',-19.145,2.735,11.331,-0.781,-4.298,-3.516,9.768,-8.205,-6.252,0.781,1.172,-12.503,-1.954,-18.364,-2.344,6.642,16.410,-0.781,-10.549,5.470,7.424,-11.722,-2.344
'[13:23:38.277 02/09/2075]',-25.397,12.112,17.192,0.391,0.391,-0.781,10.159,-4.298,1.172,4.298,1.954,-12.503,1.563,-11.722,-1.172,7.424,20.317,1.954,-16.410,2.344,11.331,-7.814,-1.172
'[13:23:38.281 02/09/2075]',-26.960,20.708,20.317,0.781,6.252,0.391,12.112,-4.298,5.861,7.424,2.344,-14.847,6.252,-7.814,-0.781,3.907,19.927,0.781,-19.536,-1.172,16.801,-1.563,-0.781
'[13:23:38.285 02/09/2075]',-28.132,22.662,21.880,-0.391,7.424,-2.735,13.284,-2.735,5.470,6.642,1.172,-17.973,7.033,-7.424,-1.563,-0.781,17.192,0.391,-21.099,0.000,17.973,-1.563,-1.563
'[13:23:38.289 02/09/2075]',-27.741,17.582,17.192,3.907,4.298,-10.159,11.722,4.298,2.344,2.735,-1.563,-12.894,5.079,-7.424,-4.689,-1.172,14.066,-0.391,-16.410,1.563,17.582,-1.563,-4.689
'[13:23:38.293 02/09/2075]',-25.788,13.675,12.503,6.642,0.781,-12.503,10.549,8.205,5.861,1.172,-3.126,-12.112,8.596,-5.079,-7.033,-3.126,10.549,0.000,-11.722,-1.954,14.847,3.907,-7.033
'[13:23:38.297 02/09/2075]',-23.834,18.755,11.331,8.596,6.252,-8.596,9.377,8.205,4.689,1.563,-1.563,-14.847,5.470,-3.126,-7.033,-5.079,11.722,0.391,-10.549,-2.344,14.457,5.861,-7.033
'[13:23:38.301 02/09/2075]',-20.708,27.350,12.112,13.284,17.973,-4.689,9.768,8.987,4.298,1.954,-1.172,-12.112,5.861,-2.735,-5.470,-3.516,16.801,0.391,-11.331,-0.781,17.582,2.344,-5.470
'[13:23:38.305 02/09/2075]',-32.821,31.258,10.549,17.582,13.675,-2.344,7.033,7.424,4.298,1.172,-2.735,-10.549,6.642,-6.642,-6.642,-0.781,17.192,-0.781,-9.768,-5.861,22.271,6.252,-6.642
'[13:23:38.309 02/09/2075]',-35.946,30.085,6.642,17.192,10.940,1.172,4.298,1.172,8.205,1.172,-4.689,-12.503,10.159,-9.377,-8.205,0.000,17.973,-3.126,-5.861,-8.596,21.490,8.596,-8.205
'[13:23:38.313 02/09/2075]',-31.648,23.053,1.172,16.801,7.033,1.954,1.172,-1.563,8.596,0.391,-7.814,-8.596,11.722,-12.503,-8.596,1.563,17.192,-6.642,-0.391,-4.298,19.927,2.344,-8.596
'[13:23:38.316 02/09/2075]',-28.913,13.675,-4.689,15.238,1.563,-0.391,-4.298,-1.172,10.159,-3.126,-10.159,-5.470,12.503,-17.192,-8.596,3.907,13.675,-7.814,5.470,-2.344,15.629,-2.344,-8.596
'[13:23:38.320 02/09/2075]',-22.662,8.987,-5.861,8.596,2.735,-0.391,-7.033,-5.861,12.503,-3.907,-10.549,-6.252,13.675,-19.145,-5.470,2.344,11.331,-8.987,6.642,-4.689,7.814,0.391,-5.470
'[13:23:38.324 02/09/2075]',-15.629,18.364,-3.907,3.516,15.629,2.735,-6.252,-9.768,16.020,-2.735,-6.642,-7.424,14.847,-15.629,-0.781,0.391,12.503,-9.768,4.689,-3.907,5.861,-0.781,-0.781
'[13:23:38.328 02/09/2075]',-18.364,32.821,-2.344,0.781,23.443,5.079,-7.814,-8.596,15.629,-2.735,-7.814,-2.735,10.549,-13.675,1.954,1.172,14.457,-10.549,3.126,-2.344,4.298,-3.907,1.954
'[13:23:38.332 02/09/2075]',-20.708,36.728,-3.126,0.391,22.271,7.814,-8.205,-9.768,8.596,-0.391,-8.987,-1.563,6.642,-15.629,1.954,2.344,16.410,-11.331,3.907,-5.470,5.470,-1.563,1.954
'[13:23:38.336 02/09/2075]',-20.317,37.118,-4.689,0.000,18.755,10.549,-5.470,-13.675,11.331,2.735,-6.642,-3.516,11.722,-13.675,0.391,3.907,18.755,-11.331,5.470,-5.861,4.689,-0.391,0.391
'[13:23:38.340 02/09/2075]',-22.271,34.383,-3.907,1.563,13.675,10.159,-4.689,-10.159,11.722,2.344,-7.033,-2.344,10.549,-12.112,1.563,2.735,19.927,-12.112,4.689,-1.172,6.252,-4.689,1.563
'[13:23:38.344 02/09/2075]',-19.536,30.476,-3.126,0.391,9.768,8.205,-5.079,-5.470,13.675,1.954,-7.424,-2.344,14.457,-12.112,1.954,0.391,18.755,-12.894,3.907,-1.563,6.642,-4.689,1.954
'[13:23:38.348 02/09/2075]',-21.099,31.258,-2.344,-2.735,6.642,8.205,-3.516,-7.033,18.364,1.172,-6.252,-5.861,19.927,-8.987,2.344,-5.079,14.847,-13.675,3.126,-6.252,5.079,2.735,2.344
'[13:23:38.352 02/09/2075]',-18.364,39.853,-0.391,-5.470,15.629,8.596,-3.126,-6.642,23.834,-3.516,-3.126,-6.252,20.708,-3.516,3.126,-10.549,12.503,-15.629,1.172,-5.861,6.642,5.079,3.126
'[13:23:38.355 02/09/2075]',-23.053,44.933,-1.954,-6.252,12.894,7.033,-5.079,-2.735,15.238,1.172,-4.298,-0.781,21.490,-2.344,3.126,-11.722,9.377,-14.457,2.735,-5.079,5.861,5.079,3.126
'[13:23:38.359 02/09/2075]',-27.350,45.714,-3.126,-8.987,5.079,6.252,-2.735,-3.907,11.722,1.954,-3.907,1.954,25.397,-2.735,1.172,-11.722,5.470,-11.722,3.907,-10.940,9.377,8.987,1.172
'[13:23:38.363 02/09/2075]',-28.523,50.012,-2.344,-11.331,0.000,8.596,1.563,-4.689,8.205,4.689,0.000,3.126,25.788,0.000,1.563,-12.112,3.126,-8.596,3.126,-8.205,10.159,5.079,1.563
'[13:23:38.367 02/09/2075]',-25.788,53.919,-1.563,-12.503,-1.563,11.331,3.907,-1.172,5.861,6.642,0.391,6.642,28.523,0.391,2.344,-11.331,3.516,-5.861,2.344,-3.126,10.159,-0.391,2.344
'[13:23:38.371 02/09/2075]',-21.490,53.919,-3.907,-11.722,-1.954,11.331,3.907,0.391,1.954,4.298,0.000,8.987,28.132,-2.735,0.391,-9.377,1.563,-3.126,4.689,-6.642,10.940,0.000,0.391
'[13:23:38.375 02/09/2075]',-17.192,53.138,-4.298,-12.112,-1.563,13.284,5.079,-0.391,-3.516,1.172,0.391,8.987,26.569,-7.424,-0.781,-10.159,0.781,-4.689,5.079,-4.298,10.940,-0.781,-0.781
'[13:23:38.379 02/09/2075]',-25.788,51.966,-2.344,-10.940,-9.377,13.675,3.126,3.126,-5.861,0.391,-0.391,12.112,25.397,-8.205,-1.172,-8.987,1.172,-7.033,3.126,0.781,15.238,-7.033,-1.172
'[13:23:38.383 02/09/2075]',-30.085,50.012,-0.391,-5.079,-10.159,10.159,2.735,8.205,-9.768,-0.781,-0.781,17.973,23.053,-12.894,0.000,-3.516,2.344,-7.814,1.172,0.781,15.629,-7.814,0.000
'[13:23:38.387 02/09/2075]',-32.821,52.357,5.079,-3.907,-8.205,11.331,7.424,8.596,-10.549,-0.391,0.781,18.755,24.615,-16.410,-0.781,0.391,5.470,-7.033,-4.298,-3.126,19.536,-5.079,-0.781
'[13:23:38.391 02/09/2075]',-36.728,54.310,8.205,-0.781,-9.768,13.284,10.159,10.159,-4.689,2.735,2.344,16.020,30.476,-14.457,0.391,0.781,9.377,-6.252,-7.424,-0.781,23.443,-11.331,0.391
'[13:23:38.395 02/09/2075]',-36.728,59.389,10.159,1.172,-4.689,14.457,11.722,12.112,-2.344,1.172,3.126,16.020,30.085,-16.410,0.391,3.907,11.722,-3.126,-9.377,0.000,23.053,-14.847,0.391
'[13:23:38.398 02/09/2075]',-39.463,61.734,11.722,4.689,-2.735,17.192,10.940,12.112,1.563,0.781,2.344,13.284,33.211,-17.973,-2.735,6.642,12.894,0.391,-10.940,-4.689,23.834,-9.377,-2.735
'[13:23:38.402 02/09/2075]',-35.165,56.264,12.894,4.689,0.000,16.410,9.768,11.722,8.987,2.344,0.391,9.377,41.807,-20.317,-4.298,5.470,11.331,0.391,-12.112,-1.563,24.225,-11.331,-4.298
'[13:23:38.406 02/09/2075]',-35.165,49.231,10.940,6.252,-1.954,10.940,7.033,13.675,-1.172,-1.954,-2.735,9.768,29.304,-25.788,-6.642,6.252,7.814,0.000,-10.159,5.470,20.708,-15.238,-6.642
'[13:23:38.410 02/09/2075]',-38.681,44.933,8.987,8.205,-6.642,8.205,5.079,15.238,0.391,-1.954,-7.424,11.331,31.258,-27.350,-8.987,6.252,7.033,0.000,-8.205,3.907,21.490,-11.331,-8.987
'[13:23:38.414 02/09/2075]',-37.118,42.979,5.861,4.298,-8.596,8.596,4.298,12.112,-2.344,0.391,-9.768,7.424,33.602,-26.960,-10.940,-0.781,4.689,-2.735,-5.079,4.689,28.523,-11.331,-10.940
'[13:23:38.418 02/09/2075]',-46.886,45.324,2.735,1.954,-13.284,4.689,4.298,6.642,-6.252,0.391,-9.768,1.172,32.039,-26.960,-10.159,-9.377,5.079,-6.642,-1.954,7.814,32.821,-14.457,-10.159
'[13:23:38.422 02/09/2075]',-50.012,51.966,0.391,1.954,-5.470,3.126,2.344,3.907,2.344,0.391,-12.112,-1.563,41.416,-26.569,-14.066,-10.940,7.814,-8.596,0.391,5.470,37.118,-11.722,-14.066
'[13:23:38.426 02/09/2075]',-51.966,53.529,-0.391,-1.172,-3.907,2.344,0.391,0.391,5.079,0.000,-14.847,-6.252,46.105,-30.867,-19.536,-11.722,5.079,-10.549,1.172,3.516,38.291,-9.377,-19.536
'[13:23:38.430 02/09/2075]',-52.747,52.747,-1.172,-3.516,-4.298,1.563,0.391,-3.126,5.079,-2.344,-16.801,-10.549,45.714,-33.602,-21.490,-14.457,5.470,-13.284,1.954,9.377,36.728,-13.284,-21.490
'[13:23:38.434 02/09/2075]',-48.840,48.449,-3.907,-4.298,-5.861,1.563,-1.563,-4.298,7.033,-4.689,-17.192,-9.377,48.059,-37.118,-24.225,-10.549,5.079,-10.940,4.689,17.582,30.085,-17.582,-24.225
'[13:23:38.438 02/09/2075]',-53.529,46.105,-4.689,-5.470,-12.503,2.344,-1.954,-5.470,1.172,-5.079,-16.801,-8.596,44.151,-40.635,-26.178,-7.424,2.344,-8.596,5.470,13.675,27.741,-12.503,-26.178
'[13:23:38.441 02/09/2075]',-53.529,51.575,0.391,-5.861,-7.033,5.079,0.781,-7.033,2.735,-1.954,-12.112,-12.112,43.370,-35.946,-17.973,-12.894,3.516,-5.470,0.391,11.722,28.523,-8.596,-17.973
'[13:23:38.445 02/09/2075]',-49.231,54.310,0.781,-3.126,0.391,5.470,0.781,-5.079,1.172,-0.781,-10.159,-10.940,41.026,-35.556,-15.238,-10.549,5.470,-3.907,0.000,16.020,27.350,-11.722,-15.238
'[13:23:38.449 02/09/2075]',-51.966,51.184,2.344,-0.781,-0.781,1.954,0.391,-1.172,0.391,-1.172,-11.722,-8.987,39.072,-39.463,-14.847,-7.814,3.907,-3.516,-1.563,13.675,29.695,-11.722,-14.847
'[13:23:38.453 02/09/2075]',-55.092,51.966,5.079,-0.391,1.563,1.563,0.000,-2.344,5.079,-0.391,-11.722,-11.722,42.589,-38.291,-13.675,-9.377,3.907,-4.689,-4.298,10.159,33.211,-8.205,-13.675
'[13:23:38.457 02/09/2075]',-48.449,53.529,5.861,-1.172,11.722,1.954,-0.391,-4.298,13.675,-0.781,-11.331,-10.940,48.840,-35.946,-12.894,-8.987,7.814,-7.033,-5.079,13.284,35.165,-13.675,-12.894
'[13:23:38.461 02/09/2075]',-56.264,52.357,5.470,-1.954,4.298,2.344,-3.516,-3.907,13.284,-1.563,-11.331,-5.861,50.012,-38.681,-11.722,-5.861,7.424,-7.033,-4.689,13.675,35.165,-17.973,-11.722
'[13:23:38.465 02/09/2075]',-56.654,55.482,7.814,-4.298,5.470,6.252,-3.126,-6.252,13.284,-1.954,-9.377,-5.079,48.449,-37.900,-8.987,-5.079,7.424,-7.033,-7.033,7.033,32.821,-13.675,-8.987
'[13:23:38.469 02/09/2075]',-52.747,58.217,10.940,-3.126,11.722,11.331,-1.954,-8.596,14.457,0.391,-5.861,-5.861,49.231,-35.556,-6.252,-3.516,11.722,-5.470,-10.159,5.470,36.337,-12.894,-6.252
'[13:23:38.473 02/09/2075]',-53.919,59.389,10.940,1.172,12.503,12.503,-2.344,-4.689,12.503,0.391,-5.079,-1.563,45.324,-35.556,-3.516,0.781,14.847,-3.516,-10.159,7.424,34.774,-14.457,-3.516
'[13:23:38.477 02/09/2075]',-60.562,53.919,10.549,5.861,2.344,10.159,-1.954,-1.172,9.377,0.391,-7.814,2.344,41.416,-34.774,-5.861,3.907,14.066,-4.689,-9.768,6.642,39.072,-12.112,-5.861
'[13:23:38.480 02/09/2075]',-62.125,53.138,12.894,5.861,2.344,10.159,1.563,-4.298,14.066,1.172,-7.424,-1.954,45.324,-32.039,-6.642,0.391,14.066,-6.252,-12.112,1.954,44.933,-6.642,-6.642
'[13:23:38.484 02/09/2075]',-59.780,57.436,14.457,9.377,8.596,10.159,5.861,-3.907,19.536,0.781,-5.079,-3.907,44.542,-28.132,-4.298,0.000,15.629,-6.642,-13.675,5.079,43.370,-8.596,-4.298
'[13:23:38.488 02/09/2075]',-62.125,60.952,19.927,12.503,12.112,9.768,10.159,-0.781,14.066,3.126,-5.861,-3.516,41.807,-29.304,-5.079,0.391,15.629,-3.907,-19.145,0.000,46.496,-5.470,-5.079
'[13:23:38.492 02/09/2075]',-58.608,66.032,23.834,16.020,18.364,12.503,14.066,0.781,16.801,3.126,-4.689,-5.861,43.761,-28.132,-5.861,0.000,16.020,-0.781,-23.053,-8.205,49.231,0.391,-5.861
'[13:23:38.496 02/09/2075]',-57.436,69.158,23.834,21.099,19.145,15.238,16.410,4.689,19.927,3.907,-2.344,-4.298,46.105,-24.615,-5.079,0.781,18.364,1.172,-23.053,-5.861,48.449,-0.391,-5.079
'[13:23:38.500 02/09/2075]',-59.780,65.250,22.662,24.225,11.722,15.238,14.457,9.377,16.410,3.516,-4.298,2.344,48.449,-26.960,-5.861,4.689,18.364,3.907,-21.880,-2.735,48.840,-4.689,-5.861
'[13:23:38.504 02/09/2075]',-60.952,56.264,19.927,22.662,2.344,13.284,11.331,8.596,14.457,1.563,-2.735,3.907,51.966,-31.648,-7.814,6.252,12.503,3.907,-19.145,-4.298,47.668,-2.344,-7.814
'[13:23:38.508 02/09/2075]',-60.171,57.045,19.536,19.536,4.689,13.284,9.768,6.252,19.145,1.954,-1.954,3.126,53.919,-29.695,-5.861,5.861,10.549,0.781,-18.755,-4.298,47.668,-3.126,-5.861
'[13:23:38.512 02/09/2075]',-58.217,62.125,20.317,20.708,12.894,14.457,7.033,8.596,15.629,1.563,-3.126,5.861,46.886,-28.132,-3.126,6.252,12.112,0.000,-19.536,-0.781,48.840,-6.252,-3.126
'[13:23:38.516 02/09/2075]',-61.734,60.171,19.145,22.662,11.722,11.722,4.298,10.549,17.192,0.391,-5.079,5.470,47.277,-30.476,-3.126,5.861,11.331,-1.954,-18.364,-2.344,51.184,-4.689,-3.126
'[13:23:38.520 02/09/2075]',-57.827,56.654,17.582,22.662,12.894,12.112,4.298,8.205,15.629,1.172,-4.689,3.126,46.105,-30.085,-3.516,3.516,13.675,-4.689,-16.801,-0.391,47.668,-1.563,-3.516
'[13:23:38.523 02/09/2075]',-54.701,53.138,17.192,22.271,10.159,14.847,5.079,6.642,12.894,3.516,-4.298,3.126,46.105,-28.913,-3.907,3.907,17.192,-3.907,-16.410,6.642,43.370,-6.252,-3.907
'[13:23:38.527 02/09/2075]',-50.403,50.794,16.020,19.536,5.470,17.973,4.689,6.642,8.987,5.470,-5.079,5.861,48.449,-30.085,-6.252,5.470,17.192,-0.781,-15.238,9.377,41.026,-9.768,-6.252
'[13:23:38.531 02/09/2075]',-49.621,50.403,14.457,14.847,0.391,19.927,5.861,3.516,7.814,8.596,-3.516,3.907,53.529,-31.648,-8.987,5.470,17.973,0.391,-13.675,5.079,40.244,-7.814,-8.987
'[13:23:38.535 02/09/2075]',-49.621,57.827,16.801,10.940,4.689,23.443,6.252,0.781,7.814,12.503,-1.954,0.391,52.747,-27.350,-8.596,3.907,21.880,0.000,-16.020,2.735,42.979,-7.033,-8.596
'[13:23:38.539 02/09/2075]',-55.092,64.860,15.238,12.894,8.205,20.708,4.298,3.126,14.066,9.768,-1.954,-0.781,53.919,-25.006,-3.907,-2.735,24.225,-1.563,-14.457,-0.391,48.840,-6.642,-3.907
'[13:23:38.543 02/09/2075]',-62.125,67.985,15.238,12.112,8.205,17.192,3.516,2.735,18.755,7.033,-1.172,-2.344,57.045,-25.006,-3.516,-4.298,24.225,-3.126,-14.457,-8.205,54.310,-1.954,-3.516
'[13:23:38.547 02/09/2075]',-62.515,72.674,16.410,10.159,13.284,18.364,3.516,0.391,14.847,9.377,1.172,-6.642,50.794,-20.317,-1.172,-8.205,24.225,-3.516,-15.629,-9.377,54.310,0.391,-1.172
'[13:23:38.551 02/09/2075]',-56.264,69.939,14.457,8.205,14.066,17.192,1.563,1.563,10.940,5.861,0.391,-5.079,50.012,-25.397,-1.563,-7.424,19.927,-1.954,-13.675,-1.563,47.668,-7.033,-1.563
'[13:23:38.555 02/09/2075]',-55.482,63.297,12.112,3.126,6.642,16.020,0.000,0.391,5.470,3.126,-1.954,-2.735,49.621,-33.602,-5.470,-4.689,13.675,-0.391,-11.331,-3.516,42.589,-7.424,-5.470
'[13:23:38.559 02/09/2075]',-53.138,59.780,9.377,-1.563,1.563,16.020,-1.563,-2.344,1.563,3.126,-4.298,-3.907,47.668,-35.946,-6.252,-6.642,7.814,-1.172,-8.596,-6.252,36.728,-5.470,-6.252
'[13:23:38.563 02/09/2075]',-57.045,61.734,8.987,-4.298,-1.563,16.020,-1.172,-2.735,0.781,-0.391,-6.642,-3.126,44.542,-36.337,-6.642,-9.377,7.033,-5.470,-8.205,-1.954,36.728,-10.159,-6.642
