'Time and date','FP1-F7','F7-T7','T7-P7','P7-O1','FP1-F3','F3-C3','C3-P3','P3-O1','FP2-F4','F4-C4','C4-P4','P4-O2','FP2-F8','F8-T8','T8-P8','P8-O2','FZ-CZ','CZ-PZ','P7-T7','T7-FT9','FT9-FT10','FT10-T8','T8-P8','ECG'
'hh:mm:ss.mmm dd/mm/yyyy','uV','uV','uV','uV','uV','uV','uV','uV','uV','uV','uV','uV','uV','uV','uV','uV','uV','uV','uV','uV','uV','uV','uV','uV'
'[00:04:47.000 12/07/2079]',-23.443,-21.880,7.424,50.012,-0.391,7.814,-16.410,21.099,29.695,13.284,-17.192,15.629,55.873,-1.954,6.252,-18.755,21.490,-15.238,-6.642,12.503,119.170,-37.118,6.252,573.187
'[00:04:47.004 12/07/2079]',0.391,0.391,0.391,0.391,0.391,0.391,0.391,0.391,0.391,0.391,0.391,0.391,0.391,0.391,0.391,0.391,0.391,0.391,0.391,0.391,0.391,0.391,0.391,0.391
'[00:04:47.008 12/07/2079]',0.391,0.391,0.391,0.391,0.391,0.391,0.391,0.391,0.391,0.391,0.391,0.391,0.391,0.391,0.391,0.391,0.391,0.391,0.391,0.391,0.391,0.391,0.391,1.563
'[00:04:47.012 12/07/2079]',0.391,0.391,0.391,0.391,0.391,0.391,0.391,0.391,0.391,0.391,0.781,0.000,0.391,0.000,0.781,0.391,0.391,0.391,0.391,0.391,0.391,0.000,0.781,1.563
'[00:04:47.016 12/07/2079]',1.172,-0.391,0.781,0.781,0.781,0.391,0.391,0.781,0.391,0.391,0.781,0.391,0.391,1.563,-0.391,0.391,0.391,0.391,0.000,0.781,0.391,0.391,-0.391,-0.391
'[00:04:47.020 12/07/2079]',-0.391,0.781,-0.391,1.172,0.000,0.391,0.391,0.781,0.781,0.391,-1.563,2.735,0.391,3.126,-1.563,0.391,0.391,1.172,1.172,-0.391,1.954,2.344,-1.563,-7.033
'[00:04:47.023 12/07/2079]',-3.516,3.907,-2.344,0.000,-1.954,0.391,0.391,-0.781,1.172,0.391,-3.907,2.735,0.000,0.391,0.391,-0.781,-0.781,0.781,3.126,-2.735,1.954,1.954,0.391,-19.145
'[00:04:47.027 12/07/2079]',-0.781,1.563,0.000,-1.172,-0.781,0.000,0.781,-0.781,0.391,0.000,0.391,-1.172,0.391,-2.344,2.344,-1.172,0.391,-0.391,0.781,0.391,0.000,-0.781,2.344,-31.648
'[00:04:47.031 12/07/2079]',5.079,-4.298,4.689,1.172,2.735,0.391,0.391,2.735,-0.781,0.000,6.252,-2.735,0.781,-0.391,0.391,2.344,1.954,-0.391,-3.907,5.079,-3.126,-1.563,0.391,-32.821
'[00:04:47.035 12/07/2079]',3.126,-2.344,2.735,2.735,1.563,1.563,-0.391,3.907,0.781,0.391,0.781,2.344,0.391,1.563,-0.781,3.516,0.391,1.172,-1.954,1.954,-3.126,1.954,-0.781,-35.556
'[00:04:47.039 12/07/2079]',-5.861,5.861,-4.298,1.172,-3.907,1.172,0.391,-0.781,2.344,0.391,-9.768,9.768,-1.172,8.596,-3.126,-0.391,-1.954,2.735,5.079,-4.298,2.344,8.596,-3.126,-93.773
'[00:04:47.043 12/07/2079]',-10.940,7.814,-9.377,7.033,-9.768,3.126,0.000,0.781,4.298,0.000,-19.536,23.053,-1.172,28.132,-18.755,0.000,-3.516,8.205,10.159,-7.424,15.238,22.662,-18.755,-218.803
'[00:04:47.047 12/07/2079]',-24.615,19.145,-17.973,6.642,-18.364,0.391,1.172,0.391,6.642,-3.516,-33.993,31.648,-1.563,18.755,-12.894,-2.344,-9.377,10.549,18.755,-18.755,16.801,24.615,-12.894,-432.527
'[00:04:47.051 12/07/2079]',-30.085,20.708,-16.020,0.781,-25.788,0.781,3.907,-3.126,8.596,-5.861,-32.821,26.569,-1.172,10.940,-3.516,-8.596,-11.331,7.424,16.801,-14.066,5.861,21.490,-3.516,-690.403
'[00:04:47.055 12/07/2079]',-13.284,10.940,-4.298,1.563,-19.536,1.563,4.298,7.814,5.470,-7.814,-17.973,23.834,-2.344,8.987,0.391,-3.126,-7.033,5.861,5.079,-2.735,-19.145,24.225,0.391,-926.007
'[00:04:47.059 12/07/2079]',-8.205,6.642,5.079,4.689,-16.020,3.516,2.344,18.755,0.391,-11.331,-12.503,28.132,-13.675,0.391,1.954,15.629,-7.814,7.033,-4.298,4.689,-54.701,28.913,1.954,-1086.203
'[00:04:47.063 12/07/2079]',-3.516,13.675,4.689,-1.563,-12.503,6.252,4.298,14.457,5.470,-7.033,-12.503,27.741,-13.675,-1.563,8.596,19.927,-7.424,6.642,-3.907,0.781,-75.800,33.993,8.596,-1151.453
'[00:04:47.066 12/07/2079]',-1.954,17.582,5.079,4.689,-8.596,5.861,8.205,19.536,0.781,-5.079,-11.331,33.602,-17.973,5.861,-0.391,29.695,-5.079,10.940,-4.298,2.344,-71.111,34.774,-0.391,-1126.447
'[00:04:47.070 12/07/2079]',-1.954,20.708,12.894,6.252,-1.172,5.079,11.331,22.662,-0.391,-1.954,-7.424,32.039,-14.847,-1.563,-4.689,43.370,0.000,15.238,-12.112,-3.907,-64.860,31.258,-4.689,-1016.654
'[00:04:47.074 12/07/2079]',-0.781,25.006,11.722,8.987,3.907,8.205,14.847,17.192,5.861,7.033,-3.907,24.225,-8.596,-3.126,15.629,31.258,3.516,17.973,-10.940,-12.503,-55.482,25.006,15.629,-819.341
'[00:04:47.078 12/07/2079]',-1.563,32.039,14.066,11.331,7.033,12.112,19.927,15.629,10.159,11.331,0.391,22.271,-3.516,5.470,17.582,24.615,10.159,21.880,-13.284,-14.457,-41.807,25.006,17.582,-580.220
'[00:04:47.082 12/07/2079]',-0.781,36.337,10.940,14.457,9.377,16.410,17.582,16.801,8.205,11.331,4.298,28.523,-10.159,15.238,20.708,26.960,16.801,25.788,-10.159,-19.536,-49.231,33.211,20.708,-358.681
'[00:04:47.086 12/07/2079]',3.907,33.211,9.377,14.066,10.549,19.536,16.410,13.675,9.768,9.768,11.722,28.132,-14.457,19.927,23.053,31.258,18.755,27.741,-8.596,-22.662,-63.297,45.324,23.053,-186.764
'[00:04:47.090 12/07/2079]',5.861,30.867,7.814,16.801,9.768,20.708,17.582,12.894,8.596,7.814,15.238,24.615,-13.675,12.112,21.490,37.509,21.490,24.615,-7.033,-19.536,-60.952,34.774,21.490,-82.051
'[00:04:47.094 12/07/2079]',1.172,25.788,12.503,15.238,4.298,19.927,16.410,14.066,5.079,4.298,13.284,30.867,-15.238,6.252,17.192,46.105,25.006,22.271,-11.722,-13.284,-59.780,26.960,17.192,-26.569
'[00:04:47.098 12/07/2079]',-2.344,33.211,13.675,7.814,3.126,19.536,17.973,12.112,3.907,4.298,12.503,27.350,-18.755,8.987,17.192,42.198,23.834,19.927,-12.894,-22.271,-65.641,37.509,17.192,7.424
'[00:04:47.102 12/07/2079]',-5.861,37.118,7.033,8.596,0.781,19.927,16.801,8.987,5.470,4.689,8.596,23.834,-14.457,10.159,13.675,35.165,21.099,16.801,-6.252,-23.834,-52.747,33.211,13.675,41.026
'[00:04:47.105 12/07/2079]',-5.470,30.867,9.377,12.112,0.781,18.755,14.066,13.284,8.987,1.563,10.940,25.397,-7.814,16.410,8.987,30.476,19.927,15.629,-8.596,-13.675,-42.589,27.741,8.987,73.455
'[00:04:47.109 12/07/2079]',-1.563,31.648,5.470,13.284,1.563,17.582,10.549,18.364,10.159,0.391,11.331,31.258,-9.768,31.258,2.735,28.913,16.410,16.801,-4.689,-16.801,-42.979,36.728,2.735,101.197
'[00:04:47.113 12/07/2079]',-7.033,26.569,0.781,12.112,-2.344,10.549,8.205,15.238,1.954,-0.781,2.735,32.039,-19.536,10.940,16.801,27.741,8.987,12.894,0.000,-23.443,-39.072,25.397,16.801,115.263
'[00:04:47.117 12/07/2079]',-5.861,17.192,4.689,14.847,-2.735,8.596,8.596,14.457,4.298,3.126,6.642,28.132,-15.629,11.331,23.834,23.443,10.159,8.987,-3.907,-15.629,-30.476,14.847,23.834,121.514
'[00:04:47.121 12/07/2079]',-5.079,24.615,4.689,14.457,0.000,10.159,7.033,19.927,-2.344,2.735,13.675,30.476,-21.880,10.940,26.178,29.304,12.503,7.814,-3.907,-15.238,-40.244,12.894,26.178,122.295
'[00:04:47.125 12/07/2079]',-8.596,26.960,3.126,12.503,-1.172,8.596,7.814,17.582,-8.205,2.344,12.112,27.741,-25.006,3.126,26.960,28.913,8.205,7.424,-2.344,-23.053,-36.728,13.675,26.960,123.858
'[00:04:47.129 12/07/2079]',-9.768,25.397,3.126,16.020,-1.172,9.768,8.987,16.410,-3.516,1.172,10.549,28.132,-18.364,6.252,25.006,23.053,5.861,7.033,-2.344,-20.708,-27.350,15.629,25.006,130.891
'[00:04:47.133 12/07/2079]',-12.894,20.708,5.470,14.457,-4.298,9.377,5.079,17.582,-5.079,-3.907,11.722,31.648,-19.145,10.159,22.271,20.317,4.689,7.814,-4.689,-8.596,-31.648,15.629,22.271,133.626
'[00:04:47.137 12/07/2079]',-10.940,14.066,6.642,10.940,-3.907,7.033,1.954,16.410,-5.470,0.391,1.954,27.350,-21.099,6.252,15.629,23.443,0.781,6.642,-5.861,-8.205,-29.695,12.503,15.629,136.752
'[00:04:47.141 12/07/2079]',-10.940,10.940,11.331,8.596,-5.861,6.642,3.516,15.238,-3.126,1.172,1.172,23.053,-17.582,5.861,16.801,18.364,0.000,5.079,-10.549,-8.987,-27.741,14.457,16.801,132.454
'[00:04:47.145 12/07/2079]',-18.755,14.847,10.549,10.940,-10.549,6.642,3.907,17.582,-0.391,1.172,2.735,22.271,-15.629,9.768,10.940,19.927,1.954,2.344,-9.768,-6.642,-31.648,16.801,10.940,131.673
'[00:04:47.148 12/07/2079]',-14.457,25.397,9.768,8.987,-5.470,8.596,7.033,18.364,0.391,1.563,2.735,22.271,-16.020,10.159,9.768,23.053,3.907,5.079,-8.987,-16.020,-33.993,21.490,9.768,137.534
'[00:04:47.152 12/07/2079]',-13.675,27.350,13.675,5.470,-4.689,7.814,10.549,18.364,0.391,1.954,3.516,20.708,-16.801,3.907,14.457,24.615,2.735,5.861,-12.894,-27.350,-25.788,18.364,14.457,146.520
'[00:04:47.156 12/07/2079]',-6.252,22.662,11.331,9.377,-0.391,5.470,9.768,21.099,-1.563,-1.563,8.987,18.755,-21.099,1.172,17.973,26.178,3.516,3.516,-10.549,-17.192,-39.072,15.238,17.973,161.368
'[00:04:47.160 12/07/2079]',0.391,23.053,11.331,6.642,5.470,4.689,12.894,17.973,-1.954,1.563,8.205,16.801,-24.615,5.079,22.271,22.271,4.689,6.252,-10.549,-13.675,-38.681,11.331,22.271,161.758
'[00:04:47.164 12/07/2079]',-5.079,23.834,11.331,7.814,0.391,2.735,14.457,19.927,-2.735,3.126,0.781,23.834,-25.006,8.596,10.940,28.523,2.735,7.814,-10.549,-21.099,-27.741,16.020,10.940,145.739
'[00:04:47.168 12/07/2079]',-4.689,22.662,10.159,9.377,-1.563,4.298,14.847,18.755,3.907,1.954,5.861,19.536,-12.503,5.861,16.801,21.490,2.344,7.033,-9.377,-16.410,-32.430,16.801,16.801,111.746
'[00:04:47.172 12/07/2079]',-7.424,13.675,18.755,10.159,-3.907,5.470,14.066,17.973,4.298,-0.391,9.768,17.192,-7.033,3.907,15.238,18.364,5.079,7.033,-17.973,-8.205,-17.582,10.549,15.238,91.819
'[00:04:47.176 12/07/2079]',-3.907,21.099,11.331,8.987,-3.907,8.596,10.940,21.099,4.689,-4.298,5.861,23.443,-1.954,2.735,5.079,24.225,4.689,9.768,-10.549,-13.284,-19.927,11.722,5.079,108.620
'[00:04:47.180 12/07/2079]',-1.172,20.317,3.907,1.954,-5.079,7.424,8.596,12.503,0.391,-5.079,6.252,16.410,-11.331,-3.126,16.020,15.238,3.907,8.205,-3.126,-16.801,-40.635,17.192,16.020,173.480
'[00:04:47.184 12/07/2079]',-2.735,22.271,1.172,3.907,-0.391,7.033,10.159,6.642,3.907,-1.172,7.033,10.549,-13.284,0.391,16.020,16.801,9.768,8.596,-0.391,-14.457,-42.198,16.020,16.020,246.545
'[00:04:47.188 12/07/2079]',1.954,25.397,0.391,9.768,7.814,8.987,11.331,8.205,8.987,4.298,6.642,10.549,-10.940,3.907,16.410,21.099,14.457,10.940,0.391,-17.973,-35.165,15.238,16.410,292.259
'[00:04:47.191 12/07/2079]',-3.126,28.913,-1.954,12.503,9.377,6.252,12.112,7.033,12.112,8.987,3.126,5.861,-8.987,10.159,16.020,12.112,12.503,9.377,2.735,-29.304,-26.960,26.960,16.020,282.491
'[00:04:47.195 12/07/2079]',-2.735,21.099,4.689,15.238,12.503,7.424,12.894,3.516,16.410,8.987,1.954,4.689,-2.344,20.317,11.331,3.126,14.457,5.079,-3.907,-23.053,-7.814,30.476,11.331,248.498
'[00:04:47.199 12/07/2079]',-2.735,19.536,3.516,13.284,12.503,5.470,11.722,2.344,11.331,2.735,-2.344,6.252,-5.861,20.708,1.172,2.344,11.722,1.954,-2.735,-16.801,-7.814,30.476,1.172,218.022
'[00:04:47.203 12/07/2079]',-3.907,17.192,0.000,12.503,11.722,3.516,7.424,1.172,14.066,-1.563,-2.735,1.563,-2.735,24.225,-10.940,1.172,7.814,0.000,0.781,-20.708,-8.205,37.509,-10.940,224.274
'[00:04:47.207 12/07/2079]',-5.861,7.814,0.000,10.159,7.033,0.000,5.861,-1.563,13.284,-5.861,-0.781,-4.298,-1.563,15.238,-7.814,-3.126,3.126,-4.298,0.781,-16.020,-5.861,25.397,-7.814,254.359
'[00:04:47.211 12/07/2079]',-3.516,13.284,1.563,9.768,12.112,0.391,6.642,0.781,16.410,-2.735,-5.079,-1.954,-2.344,1.954,2.735,2.344,0.781,-4.298,-0.781,-13.284,-9.768,9.768,2.735,295.775
'[00:04:47.215 12/07/2079]',-3.126,18.364,-3.126,7.814,10.159,0.781,4.298,3.126,19.536,0.391,-13.284,1.563,-1.954,4.298,2.344,3.126,-5.079,-3.126,3.907,-21.490,-21.099,18.755,2.344,322.735
'[00:04:47.219 12/07/2079]',4.298,15.238,-0.391,7.424,13.675,0.781,4.689,5.861,10.940,-0.781,-11.331,3.126,-7.424,6.642,-0.391,2.344,-11.722,-4.298,1.172,-23.834,-19.145,23.053,-0.391,332.503
'[00:04:47.223 12/07/2079]',10.940,10.940,1.954,3.907,16.801,1.954,2.735,5.470,6.642,-0.391,-9.768,0.781,-8.596,7.424,-4.298,3.516,-13.675,-6.252,-1.172,-16.020,-16.410,16.020,-4.298,336.801
'[00:04:47.227 12/07/2079]',12.112,3.126,3.126,7.033,16.410,-0.391,1.563,8.205,6.252,-2.344,-9.377,6.252,-6.252,21.490,-13.284,-0.781,-17.192,-4.689,-2.344,-7.814,-11.331,23.834,-13.284,357.118
'[00:04:47.230 12/07/2079]',1.954,-3.516,0.000,7.424,6.252,-5.861,-0.781,6.642,5.470,-7.814,-9.377,5.470,0.391,11.722,-13.675,-2.735,-24.615,-5.470,0.781,-11.722,0.391,21.490,-13.675,385.250
'[00:04:47.234 12/07/2079]',-0.781,-7.814,1.172,4.689,3.126,-10.159,-0.781,5.079,4.298,-4.298,-7.033,2.344,-1.954,10.549,-1.563,-11.331,-26.960,-8.205,-0.391,-7.814,11.331,8.205,-1.563,414.164
'[00:04:47.238 12/07/2079]',5.079,-7.814,6.252,1.563,7.033,-11.722,0.000,8.596,7.424,-1.954,-4.298,1.954,6.252,6.642,5.079,-13.675,-27.741,-9.377,-5.470,-1.563,8.987,1.563,5.079,411.819
'[00:04:47.242 12/07/2079]',2.735,-9.768,1.172,10.159,5.079,-11.722,-3.126,14.066,4.298,-3.907,-6.642,6.642,5.861,8.205,-0.391,-12.503,-31.648,-7.424,-0.391,-6.252,10.549,11.331,-0.391,411.819
'[00:04:47.246 12/07/2079]',-2.344,-5.861,3.907,6.252,1.172,-11.722,0.000,10.549,0.391,-2.344,-8.596,5.470,2.344,15.629,-2.735,-19.927,-35.556,-7.033,-3.126,-9.768,23.443,15.238,-2.735,381.343
'[00:04:47.250 12/07/2079]',2.344,2.344,4.689,2.735,5.470,-8.205,0.391,14.066,2.344,-4.689,-10.159,10.940,6.642,14.457,-10.940,-11.722,-33.602,-5.861,-3.907,-0.391,12.503,12.503,-10.940,370.403
'[00:04:47.254 12/07/2079]',4.298,0.391,6.252,3.907,6.642,-8.987,0.391,17.192,3.516,-7.033,-7.424,9.377,8.987,8.987,-7.033,-11.722,-33.602,-2.735,-5.470,-0.781,8.596,14.066,-7.033,357.118
'[00:04:47.258 12/07/2079]',-3.907,3.907,2.735,3.907,2.344,-12.894,1.172,15.238,5.079,-7.814,-9.377,6.642,8.596,7.424,-15.629,-6.642,-35.946,-3.516,-1.954,-8.596,17.973,10.940,-15.629,352.821
'[00:04:47.262 12/07/2079]',7.033,1.563,-3.126,0.000,8.987,-14.066,-1.563,12.112,6.642,-9.377,-9.377,5.861,8.596,3.516,-16.801,-1.172,-32.430,-8.205,3.907,-4.298,1.563,6.642,-16.801,321.563
'[00:04:47.266 12/07/2079]',5.079,5.470,-12.112,-0.781,11.722,-15.629,-2.344,3.907,9.377,-6.252,-9.768,-1.563,8.205,8.596,-7.424,-18.364,-30.867,-6.642,12.894,-14.457,4.298,15.629,-7.424,275.458
'[00:04:47.270 12/07/2079]',-2.344,-5.470,-7.814,7.033,9.768,-16.410,-3.516,1.563,6.252,-7.814,-9.377,-2.344,6.252,15.238,-25.006,-10.940,-29.304,-5.470,8.596,-15.629,26.569,23.834,-25.006,259.048
'[00:04:47.273 12/07/2079]',3.516,-2.344,-3.907,1.172,13.675,-10.940,-3.516,-0.391,5.861,-6.642,-5.470,-8.987,8.205,0.391,-18.364,-5.470,-26.960,-4.689,4.689,-9.768,7.424,14.847,-18.364,238.339
'[00:04:47.277 12/07/2079]',3.126,-6.252,-0.391,1.954,12.894,-8.987,-1.172,-3.907,7.814,-7.424,-0.781,-13.675,7.424,1.954,-9.377,-15.629,-23.053,0.000,1.172,-0.391,5.861,14.457,-9.377,212.943
'[00:04:47.281 12/07/2079]',-5.470,-2.735,2.344,3.126,7.033,-5.470,1.563,-4.689,7.814,-4.298,-4.298,-11.722,0.391,-2.344,-5.470,-3.516,-19.145,5.470,-1.563,-8.596,3.126,16.801,-5.470,144.567
'[00:04:47.285 12/07/2079]',3.516,5.079,-0.391,0.391,13.284,1.172,1.954,-8.596,13.675,0.391,-1.954,-19.145,3.516,-7.424,-10.549,7.033,-12.894,7.814,1.172,-12.112,-7.424,11.722,-10.549,71.111
'[00:04:47.289 12/07/2079]',10.159,10.549,-3.907,-2.344,18.755,6.642,0.781,-12.503,17.582,3.516,5.470,-28.132,1.954,-3.516,3.126,-2.735,-2.344,6.252,4.689,-9.377,-23.053,12.894,3.126,2.344
'[00:04:47.293 12/07/2079]',7.033,10.940,-3.126,-0.781,17.973,6.252,1.172,-11.331,15.629,3.126,1.172,-22.662,4.298,-2.344,-1.954,-1.172,1.172,7.424,3.907,-9.377,-11.331,12.112,-1.954,-50.794
'[00:04:47.297 12/07/2079]',8.205,10.549,-7.033,-1.954,16.801,5.079,-3.516,-9.768,13.284,-2.735,-3.907,-16.801,5.079,-8.987,-15.238,7.814,1.563,2.344,7.814,-13.675,-11.331,14.066,-15.238,-94.945
'[00:04:47.301 12/07/2079]',1.954,5.470,-2.735,-7.814,10.549,3.516,-3.516,-13.675,10.159,-6.252,-1.563,-24.225,3.907,-16.020,-9.768,0.391,1.563,-2.735,3.516,-5.079,-14.066,7.814,-9.768,-159.805
'[00:04:47.305 12/07/2079]',0.391,0.391,0.781,-2.735,7.814,1.563,-4.298,-6.642,2.735,-6.252,-1.172,-16.020,-4.298,-12.112,-8.987,5.470,1.172,-3.907,0.000,0.781,-10.549,1.954,-8.987,-233.651
'[00:04:47.309 12/07/2079]',2.735,3.516,-4.689,0.000,9.377,1.563,-5.861,-3.907,5.079,-7.814,-3.516,-11.331,-3.907,-12.894,-7.814,7.814,-1.954,-3.516,5.470,-8.596,-8.987,3.126,-7.814,-306.325
'[00:04:47.313 12/07/2079]',1.563,4.689,-9.377,1.172,8.987,1.172,-5.861,-6.252,11.331,-6.252,-3.907,-9.768,-1.172,-6.642,-5.079,4.298,-2.735,-4.298,10.159,-10.159,-15.238,11.331,-5.079,-351.648
'[00:04:47.316 12/07/2079]',0.000,6.252,-8.987,2.735,4.298,0.000,-3.516,-0.391,11.331,-8.205,-5.470,0.000,-0.781,-2.735,-2.735,4.298,-5.861,-2.344,9.768,-2.735,-17.192,5.861,-2.735,-384.469
'[00:04:47.320 12/07/2079]',3.516,4.298,-7.814,1.563,6.252,-2.735,-5.470,3.907,7.424,-12.503,-5.861,5.079,1.172,-10.549,-2.735,5.861,-8.987,-1.172,8.596,-4.298,-16.801,6.642,-2.735,-415.336
'[00:04:47.324 12/07/2079]',1.172,6.252,1.954,-4.689,3.126,-0.391,-1.563,3.126,6.642,-12.894,-0.781,6.252,3.907,-7.033,-5.470,8.205,-11.722,0.000,-1.172,-6.252,-11.722,8.205,-5.470,-443.077
'[00:04:47.328 12/07/2079]',0.000,3.907,7.424,-6.642,0.000,0.391,-3.907,7.424,0.000,-11.722,0.781,10.549,-1.563,1.563,-4.298,4.298,-13.284,-0.781,-6.642,4.298,-19.536,11.331,-4.298,-467.692
'[00:04:47.332 12/07/2079]',-1.563,5.470,3.126,-6.642,-4.689,-1.172,-4.689,10.549,-4.298,-11.331,3.516,15.238,-3.126,5.079,0.000,0.391,-17.192,0.391,-2.344,4.298,-20.317,12.503,0.000,-479.805
'[00:04:47.336 12/07/2079]',1.563,1.954,3.907,-2.344,-1.563,0.391,-4.298,11.331,0.391,-7.814,4.689,15.629,4.298,13.284,-0.781,-4.298,-18.755,1.172,-3.126,0.391,-3.907,17.973,-0.781,-477.460
'[00:04:47.340 12/07/2079]',9.768,-2.344,5.470,-3.907,-1.563,-0.391,-4.689,15.238,-0.391,-6.252,7.033,15.238,6.642,25.006,-13.284,-3.907,-20.317,-0.391,-4.689,10.159,-7.033,19.927,-13.284,-464.957
'[00:04:47.344 12/07/2079]',12.894,-2.344,2.344,-0.391,-4.298,0.391,-5.079,22.271,-1.172,-6.642,3.516,20.708,8.205,8.596,0.391,-3.126,-23.053,0.781,-1.563,16.801,-8.205,-0.391,0.391,-447.375
'[00:04:47.348 12/07/2079]',6.252,4.689,8.987,-5.861,-5.470,0.781,-0.391,19.536,0.000,-3.516,-3.516,23.053,11.722,8.205,0.000,-5.079,-25.006,4.689,-8.205,4.689,6.642,2.344,0.000,-434.090
'[00:04:47.352 12/07/2079]',6.252,12.112,9.768,-16.020,-9.377,3.126,1.172,16.410,-2.344,-1.954,0.391,17.973,14.066,10.549,-3.516,-8.205,-25.788,5.079,-8.987,0.391,7.424,-2.735,-3.516,-426.276
'[00:04:47.355 12/07/2079]',6.642,10.940,7.033,-7.814,-7.814,3.126,0.391,21.099,-3.907,-1.954,2.344,21.880,12.503,5.079,4.689,-5.079,-26.178,6.252,-6.252,8.596,2.735,-14.457,4.689,-415.726
'[00:04:47.359 12/07/2079]',3.516,12.112,5.470,-5.470,-8.205,0.781,1.172,21.490,-3.516,-1.954,-0.391,26.178,14.847,8.987,5.079,-10.159,-27.350,10.549,-4.689,3.516,11.722,-8.987,5.079,-396.581
'[00:04:47.363 12/07/2079]',6.252,11.722,5.861,-4.298,-4.298,0.391,2.735,21.490,-6.642,-3.126,-0.391,30.085,11.722,18.364,-3.516,-7.814,-28.523,10.549,-5.079,-1.172,19.145,0.391,-3.516,-365.714
'[00:04:47.367 12/07/2079]',7.033,8.205,3.126,-1.172,-7.814,-0.391,1.172,23.834,-7.033,-1.954,-1.954,33.211,7.424,10.940,7.424,-5.470,-26.960,7.424,-2.344,8.596,-1.172,-3.516,7.424,-337.973
'[00:04:47.371 12/07/2079]',1.172,0.391,5.079,-0.391,-12.112,-1.954,0.000,23.053,-10.940,-4.689,0.391,29.304,2.735,7.033,3.516,-0.781,-24.225,5.861,-4.298,13.675,-4.689,-1.563,3.516,-309.451
'[00:04:47.375 12/07/2079]',-1.563,-0.781,5.079,-5.470,-16.020,-2.344,0.391,16.410,-12.112,-3.126,1.172,19.927,1.954,0.781,-5.079,6.252,-23.443,4.298,-4.298,7.033,-6.642,-1.172,-5.079,-292.650
'[00:04:47.379 12/07/2079]',-0.391,5.079,2.735,-11.722,-14.847,-0.391,2.735,8.987,-9.377,0.391,0.391,13.284,1.172,-0.391,-1.563,5.470,-17.973,3.907,-1.954,2.344,-16.801,0.000,-1.563,-274.676
'[00:04:47.383 12/07/2079]',-2.735,13.675,-3.126,-11.331,-14.457,1.563,1.954,6.642,-7.814,2.735,1.172,12.503,-0.391,1.954,-0.781,7.033,-10.549,7.033,3.907,3.907,-21.880,-3.126,-0.781,-260.611
'[00:04:47.387 12/07/2079]',0.000,9.768,-0.781,-5.470,-9.377,1.172,1.954,8.205,-3.516,3.516,2.735,12.112,10.159,1.563,-4.298,7.814,-5.470,12.503,1.563,-1.563,-2.344,-3.126,-4.298,-244.200
'[00:04:47.391 12/07/2079]',4.689,12.503,0.000,-10.159,-7.033,4.689,4.298,3.516,-1.172,6.642,7.424,7.424,11.331,9.768,0.391,-2.735,-2.344,16.410,0.781,-7.033,-2.344,6.642,0.391,-222.320
'[00:04:47.395 12/07/2079]',6.642,2.735,0.391,-6.252,-7.814,7.424,0.391,3.126,-1.954,5.470,7.424,8.987,9.768,12.503,0.391,-3.126,0.000,17.192,0.391,10.940,-13.284,7.424,0.391,-180.904
'[00:04:47.398 12/07/2079]',6.252,-5.861,-2.344,-1.954,-9.768,3.907,-1.172,1.172,-7.033,0.391,5.861,6.252,1.954,-1.563,-0.781,5.470,-2.735,18.364,3.126,10.549,-15.629,4.298,-0.781,-136.361
'[00:04:47.402 12/07/2079]',6.642,-0.781,-0.781,-7.814,-7.033,7.033,-0.781,-1.172,-4.298,1.954,5.861,0.391,3.126,-12.112,1.563,10.549,-1.954,17.973,1.563,3.126,-22.271,3.907,1.563,-89.866
'[00:04:47.406 12/07/2079]',17.192,-0.391,-1.954,-5.861,0.781,7.424,-2.735,1.563,-2.344,3.126,6.252,-2.735,-0.391,-12.894,0.781,16.410,3.126,11.722,2.735,11.722,-35.946,-1.172,0.781,-62.906
'[00:04:47.410 12/07/2079]',14.457,-0.781,-3.907,-2.344,0.781,5.470,-2.344,2.735,-0.391,0.000,6.642,1.954,0.781,-14.457,5.861,15.238,6.252,11.722,4.689,11.722,-29.695,-7.814,5.861,-47.668
'[00:04:47.414 12/07/2079]',0.391,-0.781,-0.781,-1.954,-4.689,2.344,-1.954,0.391,3.516,0.000,-3.126,3.126,5.470,-14.457,-1.563,13.284,8.205,8.205,1.563,-2.735,-10.159,0.391,-1.563,-47.277
'[00:04:47.418 12/07/2079]',6.252,1.172,-1.172,-9.377,0.781,6.252,-1.954,-8.987,0.391,0.391,-4.689,-0.781,-1.563,-6.252,-1.172,3.516,12.112,1.954,1.954,-3.126,-14.457,5.079,-1.172,-57.827
'[00:04:47.422 12/07/2079]',6.252,0.781,0.000,-7.814,2.344,5.861,-1.563,-7.424,-1.172,-2.735,-1.563,0.391,-2.344,-11.331,0.781,5.861,15.238,-0.391,0.781,1.563,-12.503,-10.549,0.781,-74.628
'[00:04:47.426 12/07/2079]',0.391,1.563,3.516,-10.159,-3.126,5.861,-1.172,-6.642,-3.126,-5.079,-3.516,5.861,-5.470,-11.331,1.172,7.814,10.940,1.563,-2.735,-3.907,-8.596,-10.549,1.172,-88.303
'[00:04:47.430 12/07/2079]',9.768,8.596,1.563,-12.503,4.298,9.377,0.391,-7.424,-2.735,-1.563,-1.563,8.205,-5.470,-4.298,9.377,3.126,11.331,2.344,-0.781,-5.861,-21.880,-0.781,9.377,-90.256
'[00:04:47.434 12/07/2079]',7.033,7.814,-1.563,-16.410,-3.516,3.907,2.735,-7.424,-4.689,-5.861,0.000,9.377,-5.079,3.516,-1.954,1.172,5.861,3.516,2.344,3.126,-26.960,3.126,-1.954,-81.270
'[00:04:47.438 12/07/2079]',-0.391,-3.907,0.781,-5.861,-7.033,-0.391,0.391,-1.172,-8.987,-8.205,-2.344,11.331,-9.377,2.735,-6.252,4.298,1.563,4.298,0.000,8.987,-14.066,0.781,-6.252,-57.045
'[00:04:47.441 12/07/2079]',1.172,-4.689,-6.252,-7.033,-8.205,-0.781,-2.344,-4.689,-7.814,-6.642,-6.642,5.079,-8.987,-3.907,-7.814,4.298,-2.735,0.781,7.033,3.516,-21.099,7.424,-7.814,-30.476
'[00:04:47.445 12/07/2079]',2.344,-1.563,-11.331,-7.424,-8.596,-2.344,-3.126,-3.907,-6.252,-9.377,-12.503,5.861,-5.470,-1.172,-17.582,1.172,-6.252,-3.516,12.112,2.735,-14.457,6.252,-17.582,-7.033
'[00:04:47.449 12/07/2079]',-5.079,-7.814,-7.033,-3.516,-16.020,-2.344,-5.861,0.391,-4.298,-10.940,-15.238,9.768,-4.689,-3.126,-12.112,-0.781,-9.377,-5.079,7.814,11.722,-5.079,-5.079,-12.112,-3.516
'[00:04:47.453 12/07/2079]',0.391,-3.907,-10.159,-2.344,-12.112,1.172,-10.940,4.689,-4.298,-13.284,-8.205,13.675,0.391,0.391,-7.814,-3.907,-10.159,-5.079,10.940,3.907,0.000,-3.516,-7.814,-21.490
'[00:04:47.457 12/07/2079]',5.470,-5.861,-9.377,-3.907,-9.768,1.172,-11.722,5.470,-2.735,-12.112,-5.079,10.549,3.907,11.722,-11.331,-14.457,-11.722,-7.033,10.159,7.814,-0.781,6.252,-11.331,-55.873
'[00:04:47.461 12/07/2079]',-1.563,-12.503,-2.735,-1.172,-16.801,-0.781,-10.940,10.549,-8.205,-14.847,-1.172,16.410,1.563,7.814,-7.424,-10.549,-11.331,-7.424,3.516,18.364,10.940,-11.331,-7.424,-88.303
'[00:04:47.465 12/07/2079]',-1.563,-5.861,-12.112,-0.391,-13.284,-3.126,-13.284,9.768,-13.284,-12.894,-8.205,16.801,-3.516,1.954,-4.689,-12.112,-14.066,-8.987,12.894,7.424,14.066,-9.768,-4.689,-110.183
'[00:04:47.469 12/07/2079]',-0.391,-8.205,-16.410,-9.377,-17.192,-5.079,-16.020,3.516,-11.722,-11.331,-13.284,9.377,0.000,-8.987,-5.470,-12.112,-18.755,-11.722,17.192,3.126,0.781,-5.470,-5.470,-109.402
'[00:04:47.473 12/07/2079]',-0.391,-10.940,-11.331,-9.768,-17.192,-5.861,-16.020,6.642,-14.066,-12.894,-12.503,8.205,0.000,-14.457,-8.205,-7.424,-18.364,-14.457,12.112,14.066,-2.735,-15.238,-8.205,-87.131
'[00:04:47.477 12/07/2079]',-2.735,-12.112,-17.582,-10.159,-20.317,-7.033,-19.145,3.907,-16.410,-14.847,-18.364,8.987,-1.954,-19.145,-10.549,-8.205,-22.271,-12.894,18.364,16.410,1.172,-21.880,-10.549,-58.217
'[00:04:47.480 12/07/2079]',-3.516,-11.722,-21.099,-15.238,-21.490,-6.642,-21.880,-1.172,-19.927,-17.582,-17.973,4.298,-9.768,-14.847,-11.331,-14.847,-25.006,-13.675,21.880,11.331,-17.973,-2.344,-11.331,-35.165
'[00:04:47.484 12/07/2079]',0.391,-12.894,-16.020,-14.066,-17.973,-5.470,-18.364,-0.391,-17.192,-14.847,-12.112,1.172,-5.861,-9.377,-7.033,-19.927,-21.099,-13.675,16.801,14.847,-9.377,-5.861,-7.033,-43.370
'[00:04:47.488 12/07/2079]',-0.391,-16.020,-15.238,-6.642,-15.238,-7.424,-18.364,2.344,-15.238,-12.894,-8.987,1.172,-5.079,-10.549,-5.861,-13.284,-17.192,-12.894,16.020,18.755,-1.954,-15.629,-5.861,-63.687
'[00:04:47.492 12/07/2079]',-5.470,-16.020,-12.894,-5.861,-16.020,-8.987,-17.192,1.563,-13.284,-10.940,-11.331,0.391,-3.907,-16.410,-3.126,-11.722,-17.192,-11.331,13.675,10.159,-0.781,-8.596,-3.126,-90.256
'[00:04:47.496 12/07/2079]',0.391,-9.768,-6.252,-11.722,-8.596,-5.470,-12.503,0.391,-6.642,-7.424,-7.424,-0.391,-2.735,-11.722,-1.563,-5.861,-12.112,-10.159,7.033,5.470,-12.894,0.000,-1.563,-96.117
'[00:04:47.500 12/07/2079]',-8.987,-6.252,-0.391,-12.894,-13.675,-6.252,-8.205,0.391,-5.470,-6.642,-5.861,1.563,-2.735,-4.689,-7.424,-1.172,-8.205,-6.642,1.172,7.033,-10.549,1.172,-7.424,-85.177
'[00:04:47.504 12/07/2079]',-7.033,-3.516,-1.172,-4.689,-8.205,-3.907,-7.424,3.516,-16.410,-7.424,-3.126,1.563,-12.894,-16.801,-2.735,6.642,-3.126,-4.298,1.954,3.516,-15.629,-0.781,-2.735,-57.827
'[00:04:47.508 12/07/2079]',-2.344,-4.298,1.172,-3.516,-3.126,-1.954,-5.470,2.735,-12.894,-6.252,2.344,-1.172,-10.940,-5.079,-8.205,5.861,1.563,-4.298,-0.391,-0.391,-7.814,6.252,-8.205,-37.509
'[00:04:47.512 12/07/2079]',-3.907,-1.563,-2.344,-0.781,-2.344,-3.516,-3.516,0.391,-9.768,-3.516,2.344,-3.516,-9.768,-5.470,0.391,1.172,6.642,-4.298,3.126,-1.172,1.563,-3.126,0.391,-34.383
'[00:04:47.516 12/07/2079]',-7.814,-1.563,-3.126,5.861,-0.781,-3.907,-1.563,0.391,-7.814,-0.391,-4.689,-0.781,-11.722,-16.020,2.344,10.549,10.159,-4.298,3.907,-0.391,3.126,-7.814,2.344,-50.403
'[00:04:47.520 12/07/2079]',-8.596,-5.079,3.907,0.781,0.000,-0.781,-1.172,-5.861,0.000,0.391,0.391,-5.470,-9.768,-4.689,5.861,3.126,12.894,-4.298,-3.126,-3.516,7.814,0.391,5.861,-73.846
'[00:04:47.523 12/07/2079]',-5.470,0.391,7.424,-2.344,1.954,3.126,2.344,-6.642,1.954,1.563,4.298,-7.814,-5.861,-6.252,9.377,3.126,17.192,-3.907,-6.642,-5.079,-0.391,0.781,9.377,-90.647
'[00:04:47.527 12/07/2079]',-3.126,-8.205,8.205,5.470,-0.781,3.907,1.563,-2.735,-1.563,-1.954,4.689,-1.172,-10.940,-3.907,1.563,12.503,19.927,-3.907,-7.424,6.252,-13.675,5.079,1.563,-96.508
'[00:04:47.531 12/07/2079]',-4.298,0.000,7.814,1.172,0.000,7.814,1.172,-5.079,-4.689,-3.516,3.907,-1.563,-16.410,-12.894,8.596,14.457,19.536,-3.516,-7.033,-2.735,-21.099,4.298,8.596,-88.303
'[00:04:47.535 12/07/2079]',0.781,6.252,9.377,-3.126,5.079,11.331,5.470,-8.987,0.391,1.172,5.079,-7.424,-11.722,-9.377,8.596,11.722,22.662,-1.954,-8.596,-8.205,-21.880,7.814,8.596,-90.647
'[00:04:47.539 12/07/2079]',4.298,1.172,14.457,1.954,9.377,12.112,6.252,-5.470,1.954,6.642,5.861,-9.377,-7.033,-9.768,12.112,10.549,26.960,-2.344,-13.675,-1.563,-5.861,-3.907,12.112,-92.601
'[00:04:47.543 12/07/2079]',0.000,1.563,17.192,6.642,8.205,11.331,8.205,-2.344,5.861,5.470,4.689,-5.079,-5.861,-10.549,15.238,12.503,25.788,1.172,-16.410,-5.079,-0.391,-2.735,15.238,-92.991
'[00:04:47.547 12/07/2079]',-2.735,4.298,16.020,7.424,7.033,11.722,10.940,-3.907,11.722,6.642,2.735,-3.516,0.781,-1.954,10.549,8.596,24.615,4.298,-15.238,-10.549,6.642,6.252,10.549,-79.316
'[00:04:47.551 12/07/2079]',-6.642,1.954,14.066,6.252,1.563,9.768,9.377,-4.689,3.907,2.735,3.907,-3.907,-3.126,-3.126,8.596,5.861,21.099,0.781,-13.284,-7.033,11.331,1.954,8.596,-57.436
'[00:04:47.555 12/07/2079]',3.907,1.172,8.205,3.126,5.470,8.596,3.126,0.000,3.126,-0.391,6.642,-1.172,-4.298,-3.907,14.457,2.735,16.801,0.781,-7.424,3.126,-10.549,0.000,14.457,-37.900
'[00:04:47.559 12/07/2079]',10.940,8.596,5.079,-3.907,9.377,12.112,1.954,-2.735,1.172,2.735,7.424,-3.126,-9.768,5.861,14.847,-1.563,12.112,2.344,-4.298,-3.907,-26.569,16.801,14.847,-23.053
'[00:04:47.563 12/07/2079]',10.549,8.596,2.344,-5.079,10.159,8.987,2.344,-5.079,1.563,5.079,5.079,-4.298,-6.252,17.192,16.801,-19.145,7.814,1.563,-1.563,-9.768,4.298,14.066,16.801,-20.708
'[00:04:47.566 12/07/2079]',14.066,1.954,-1.172,1.563,8.987,5.861,1.172,-0.391,0.781,6.252,1.954,1.954,-3.907,10.159,21.490,-14.457,5.861,1.954,1.954,-1.172,6.252,0.391,21.490,-18.755
'[00:04:47.570 12/07/2079]',3.907,-1.563,2.735,10.159,5.079,3.126,1.172,4.298,2.735,8.205,0.391,1.563,-4.689,5.861,14.847,-3.126,5.079,3.907,-1.954,-1.172,11.331,1.563,14.847,-15.629
'[00:04:47.574 12/07/2079]',-1.172,-3.126,0.781,14.847,3.907,0.781,3.516,2.344,4.689,8.205,-0.391,-4.298,3.126,3.907,12.894,-11.331,3.516,1.954,0.000,-6.642,37.900,-3.126,12.894,-8.596
'[00:04:47.578 12/07/2079]',-6.252,-8.987,7.033,10.159,-3.126,0.781,1.563,2.344,4.689,7.033,-0.781,-3.126,5.470,5.079,11.722,-14.847,3.126,-1.172,-6.252,5.470,37.118,-7.424,11.722,-1.172
'[00:04:47.582 12/07/2079]',-5.470,-2.344,1.563,7.033,-4.298,3.126,0.391,0.781,5.470,7.814,-5.079,-0.781,6.642,10.159,8.205,-16.801,1.172,0.781,-0.781,7.424,18.755,5.470,8.205,0.391
'[00:04:47.586 12/07/2079]',-4.298,-3.516,-1.563,4.689,-6.642,5.079,-0.781,-1.954,4.689,6.642,-7.033,-1.954,10.549,14.457,2.344,-25.006,0.391,0.391,2.344,-0.781,31.648,13.284,2.344,3.126
'[00:04:47.590 12/07/2079]',1.954,-5.861,-1.172,1.172,-5.861,5.470,-2.344,0.000,2.735,3.516,-2.735,0.391,13.675,21.880,-10.159,-20.317,0.000,-1.563,1.954,7.033,26.178,13.284,-10.159,0.000
'[00:04:47.594 12/07/2079]',7.814,-3.126,-4.689,1.954,-2.735,5.861,-4.298,1.954,2.344,3.126,-4.298,0.781,9.377,9.377,-3.907,-11.722,0.391,0.391,5.470,12.894,10.940,0.391,-3.907,2.735
'[00:04:47.598 12/07/2079]',1.954,0.000,-5.861,4.689,-3.907,4.689,-1.172,1.172,5.470,2.344,-4.689,1.563,5.861,11.722,-0.781,-11.331,0.391,3.126,6.642,1.172,16.801,6.642,-0.781,7.814
'[00:04:47.602 12/07/2079]',8.987,3.907,-2.344,0.781,5.079,8.987,1.954,-5.861,8.596,5.470,8.205,-5.861,5.861,30.867,5.861,-25.788,5.861,3.516,3.126,-3.126,27.350,13.284,5.861,14.847
'[00:04:47.605 12/07/2079]',12.112,-0.391,2.344,1.563,8.205,7.424,3.516,-4.298,10.549,11.331,10.940,-6.252,11.722,32.430,8.596,-25.006,10.549,5.079,-1.563,2.735,32.430,10.159,8.596,19.536
'[00:04:47.609 12/07/2079]',2.735,1.172,0.391,2.344,-1.954,5.861,6.252,-3.907,5.861,10.549,7.033,2.344,8.205,31.648,8.205,-20.708,10.940,9.768,0.391,-4.298,35.165,12.503,8.205,21.099
'[00:04:47.613 12/07/2079]',6.642,1.563,2.735,-1.172,1.563,5.861,7.814,-5.470,3.126,8.987,7.033,4.689,10.159,32.430,0.391,-17.582,11.722,9.377,-1.954,-9.377,33.993,21.880,0.391,26.569
'[00:04:47.617 12/07/2079]',-0.391,-1.172,2.735,-5.470,-8.987,3.126,6.642,-5.079,-5.079,6.252,5.861,4.298,0.391,21.099,-4.689,-3.907,9.377,6.252,-1.954,2.735,8.987,12.894,-4.689,29.304
'[00:04:47.621 12/07/2079]',1.954,4.298,3.516,-12.112,-6.252,4.689,5.470,-5.470,-5.861,5.079,8.596,0.391,-1.563,1.172,7.814,1.172,11.722,5.861,-2.735,3.907,-5.861,-6.252,7.814,44.933
'[00:04:47.625 12/07/2079]',3.516,11.331,0.391,-5.470,0.000,7.814,5.079,-4.298,-1.954,5.861,12.503,1.172,-0.391,8.205,11.331,-1.172,14.457,5.470,0.391,-8.205,-3.516,6.252,11.331,55.092
'[00:04:47.629 12/07/2079]',6.252,11.722,-2.344,-5.079,5.470,7.814,5.079,-7.814,2.735,9.768,15.238,-1.172,3.516,22.662,16.410,-15.238,17.973,2.344,3.126,-11.722,8.205,8.596,16.410,59.780
'[00:04:47.633 12/07/2079]',10.159,19.145,-7.033,-6.642,8.596,6.252,5.861,-6.642,3.516,5.861,13.284,6.642,4.298,18.364,11.722,-3.907,20.708,4.689,7.814,-15.629,3.126,3.907,11.722,38.291
'[00:04:47.637 12/07/2079]',8.596,20.317,-6.252,3.126,13.284,5.861,7.033,-1.172,1.563,5.079,12.503,7.033,0.391,7.424,12.112,6.252,23.053,5.079,7.033,-26.960,7.424,4.298,12.112,7.033
'[00:04:47.641 12/07/2079]',20.317,4.689,1.954,-3.126,19.145,7.033,2.344,-6.252,-1.563,5.079,16.801,0.000,-4.298,1.172,13.675,8.987,21.880,0.000,-1.172,-12.503,-14.847,0.781,13.675,-15.238
'[00:04:47.645 12/07/2079]',14.847,5.470,0.391,-7.424,15.629,7.033,-0.781,-8.596,-5.861,2.344,13.284,-4.298,-8.596,-11.722,7.033,19.145,19.927,-3.907,0.391,-5.861,-20.317,-12.503,7.033,-12.894
'[00:04:47.648 12/07/2079]',5.861,-2.735,-1.563,0.781,10.159,4.689,-5.079,-7.814,-3.907,0.000,8.205,-2.344,-10.549,-10.940,1.954,20.708,14.457,-5.861,2.344,-5.079,-18.755,-3.907,1.954,10.940
'[00:04:47.652 12/07/2079]',8.987,-4.689,0.391,-5.861,11.722,5.079,-6.642,-11.722,1.172,-2.735,7.814,-2.735,-7.814,-6.252,6.252,12.112,8.596,-7.033,0.391,-5.470,-23.053,6.252,6.252,39.072
'[00:04:47.656 12/07/2079]',11.722,-5.861,-0.781,-5.079,10.940,4.298,-7.424,-7.424,1.172,-8.596,13.284,-0.391,-8.205,-3.126,0.000,17.192,4.689,-8.205,1.563,1.563,-31.258,5.470,0.000,46.886
'[00:04:47.660 12/07/2079]',9.377,-5.861,-2.344,2.344,7.033,3.516,-6.252,-1.172,3.126,-14.066,10.159,6.252,-5.079,-5.079,-4.298,22.271,3.126,-3.126,3.126,1.563,-27.741,5.079,-4.298,30.867
'[00:04:47.664 12/07/2079]',14.847,6.642,-3.516,-8.596,8.987,7.814,-4.689,-3.126,-0.781,-16.020,7.814,8.987,-19.927,-19.927,18.755,20.708,1.563,-2.344,4.298,-5.470,-59.780,2.344,18.755,-9.768
'[00:04:47.668 12/07/2079]',18.755,4.298,-0.781,-10.159,10.940,9.377,-5.079,-3.907,-1.954,-14.457,10.940,4.298,-17.582,-16.410,16.020,17.192,0.391,-2.344,1.563,-0.781,-46.886,-8.596,16.020,-59.780
'[00:04:47.672 12/07/2079]',6.252,3.126,-0.781,-2.735,5.861,4.298,-6.642,1.172,-0.781,-12.112,8.987,3.516,-12.112,-15.629,8.596,18.364,0.781,-3.907,1.563,-1.172,-22.271,-19.145,8.596,-105.495
'[00:04:47.676 12/07/2079]',6.252,4.298,-6.252,-1.563,6.252,0.781,-8.596,3.516,-3.126,-9.377,0.781,7.424,-18.755,-22.271,14.066,22.271,-1.954,-4.298,7.033,-7.814,-30.085,-16.410,14.066,-127.375
'[00:04:47.680 12/07/2079]',4.689,0.391,-5.470,-3.516,5.470,-1.563,-7.814,0.781,-2.344,-7.424,-1.954,3.907,-18.364,-13.284,3.126,19.145,-4.689,-6.252,6.252,-8.596,-32.039,-0.781,3.126,-125.031
'[00:04:47.684 12/07/2079]',-0.781,-9.768,-3.516,-5.861,-1.954,-7.814,-9.377,-0.391,-5.861,-9.377,-5.079,1.172,-20.317,-14.066,-2.735,18.755,-5.079,-9.377,4.298,2.735,-33.211,-3.907,-2.735,-109.402
'[00:04:47.688 12/07/2079]',3.907,-10.549,-8.205,-3.516,0.000,-5.861,-9.377,-3.126,-7.814,-11.331,-3.126,-6.252,-26.569,-18.364,0.391,15.629,-1.954,-8.987,8.987,3.907,-47.277,-1.172,0.391,-97.289
'[00:04:47.691 12/07/2079]',5.079,-10.159,-7.424,-0.781,3.907,-3.516,-7.424,-5.470,-3.907,-10.940,-2.735,-7.033,-21.880,-12.894,0.000,10.159,-0.391,-6.642,8.205,-0.781,-33.211,3.126,0.000,-102.369
'[00:04:47.695 12/07/2079]',-3.126,-7.814,-6.252,-0.781,0.000,-4.689,-5.079,-8.987,-1.563,-11.331,-2.735,-9.768,-16.801,-10.549,-0.391,2.344,-1.954,-5.861,7.033,-0.391,-19.145,0.781,-0.391,-119.560
'[00:04:47.699 12/07/2079]',-5.079,11.722,-6.642,-2.344,2.344,0.000,-1.563,-3.126,1.172,-9.768,-1.563,-1.954,-13.675,-14.457,3.516,10.940,0.391,0.391,7.424,-10.159,-28.913,1.172,3.516,-143.394
'[00:04:47.703 12/07/2079]',-4.689,22.662,-4.298,-0.391,4.689,3.907,1.172,1.172,1.563,-6.252,0.781,1.172,-12.112,-12.894,5.470,17.192,1.172,6.252,5.079,-23.053,-21.880,4.689,5.470,-151.600
'[00:04:47.707 12/07/2079]',0.391,9.768,4.298,0.000,5.470,5.079,0.781,3.126,-0.391,-2.344,2.735,-2.735,-13.675,-7.424,0.781,16.410,1.563,4.689,-3.516,-8.987,-21.490,3.516,0.781,-144.176
'[00:04:47.711 12/07/2079]',8.987,10.549,5.861,-4.298,10.159,5.470,1.563,3.126,-3.907,-0.781,3.126,-3.907,-12.503,-6.642,0.781,12.503,5.079,4.298,-5.079,-0.391,-25.397,-0.391,0.781,-125.421
'[00:04:47.715 12/07/2079]',0.781,0.781,1.172,1.954,1.172,0.391,0.000,5.079,-5.861,-3.907,-2.735,0.391,-13.675,-10.159,0.781,10.159,3.907,2.735,-0.391,-1.563,-18.755,2.344,0.781,-112.918
'[00:04:47.719 12/07/2079]',-4.689,-1.172,2.735,4.689,-2.344,-0.391,0.391,4.689,-6.252,-1.954,-1.172,-1.172,-8.987,12.503,-15.629,0.391,2.735,1.954,-1.954,-1.954,-9.377,28.132,-15.629,-110.183
'[00:04:47.723 12/07/2079]',1.954,7.814,2.344,-8.987,0.781,0.781,-1.172,2.735,-8.205,-4.689,7.424,-7.424,-5.861,-1.563,-4.689,-0.781,4.298,0.391,-1.563,1.954,-24.615,8.205,-4.689,-113.309
'[00:04:47.727 12/07/2079]',-11.331,7.814,5.861,-8.205,-13.284,-0.391,-1.563,9.377,-7.814,-8.596,6.642,0.000,-6.642,-8.205,-0.781,6.642,2.344,3.907,-5.079,-0.391,-25.788,4.689,-0.781,-112.137
'[00:04:47.730 12/07/2079]',-7.424,17.192,3.907,-8.205,-8.205,3.907,0.391,6.642,-8.205,-1.563,10.159,-5.079,-8.987,5.079,0.391,-1.563,3.907,6.642,-3.126,-11.722,-10.549,9.377,0.391,-88.303
'[00:04:47.734 12/07/2079]',-3.126,17.973,10.940,-12.894,-4.298,5.470,2.735,6.642,-5.079,1.954,13.284,-3.126,-8.205,10.159,12.503,-7.424,5.470,8.205,-10.159,-8.205,-3.516,2.344,12.503,-25.006
'[00:04:47.738 12/07/2079]',0.391,11.722,13.675,-3.126,-0.781,4.298,1.563,16.020,-4.689,0.781,13.675,5.470,-8.205,5.470,19.536,-1.563,7.033,9.377,-12.894,-4.689,-2.344,-4.298,19.536,100.024
'[00:04:47.742 12/07/2079]',3.516,9.377,13.675,7.424,7.033,5.861,2.344,18.364,-3.516,2.344,12.894,8.596,-7.033,16.410,12.894,-2.344,9.377,12.503,-12.894,-7.814,6.252,8.205,12.894,275.849
'[00:04:47.746 12/07/2079]',6.642,8.205,8.205,7.424,8.987,7.033,-0.391,14.457,-4.298,-0.781,11.722,8.205,-3.907,13.284,6.642,-1.954,8.987,9.377,-7.424,-6.642,7.814,7.424,6.642,459.096
'[00:04:47.750 12/07/2079]',-2.735,-4.298,-0.781,5.470,-2.344,0.391,-5.861,6.252,-7.814,-7.424,3.516,3.907,-4.689,-1.563,-2.735,1.954,5.861,4.689,1.563,3.516,10.549,-7.814,-2.735,573.187
'[00:04:47.754 12/07/2079]',-5.861,-5.470,-7.814,6.642,-4.298,0.000,-9.377,1.954,-10.159,-8.205,3.126,-0.391,-3.516,-6.642,-8.987,3.126,7.033,2.344,8.596,5.079,13.284,-11.331,-8.987,566.935
'[00:04:47.758 12/07/2079]',-6.252,-8.596,-13.284,3.516,-6.642,-0.781,-10.549,-6.252,-8.205,-3.516,3.126,-9.768,1.172,-5.079,-1.563,-12.894,6.252,0.781,14.066,2.344,30.867,-17.973,-1.563,430.965
'[00:04:47.762 12/07/2079]',-5.470,-12.894,-18.755,3.126,-7.033,-2.344,-12.503,-11.331,-8.205,-6.252,1.954,-8.596,3.126,3.126,-7.814,-20.708,5.079,-3.516,19.536,11.331,36.728,-15.629,-7.814,228.962
'[00:04:47.766 12/07/2079]',-5.470,-10.549,-22.271,5.079,-5.079,-3.516,-11.722,-12.503,-7.814,-8.205,-1.172,-7.424,4.298,7.033,-9.768,-26.569,4.689,-3.907,23.053,8.596,41.026,-9.768,-9.768,-6.252
'[00:04:47.770 12/07/2079]',2.735,-10.549,-23.053,1.563,0.391,-3.907,-12.112,-12.503,-8.987,-10.940,-2.344,-6.252,5.079,-3.126,-11.722,-19.536,2.344,-7.424,23.834,5.470,31.258,-9.377,-11.722,-247.717
'[00:04:47.773 12/07/2079]',-2.735,-10.159,-19.145,-4.298,-6.642,-7.033,-11.331,-10.940,-10.159,-12.112,-2.344,-8.987,2.735,-6.252,-20.317,-9.768,0.391,-13.675,19.927,11.331,14.457,-11.331,-20.317,-464.957
'[00:04:47.777 12/07/2079]',0.000,-11.722,-13.675,-6.642,-4.689,-8.205,-11.331,-7.424,-15.238,-13.675,-6.642,-8.596,-2.735,-13.675,-28.132,-0.391,-1.172,-13.675,14.457,15.238,5.470,-14.066,-28.132,-636.484
'[00:04:47.781 12/07/2079]',-2.344,-9.768,-7.814,-12.894,-9.768,-7.814,-11.722,-3.907,-17.582,-13.284,-10.940,-2.735,-13.675,-28.132,-10.940,7.814,-3.907,-13.284,8.596,13.284,-29.304,-11.331,-10.940,-737.289
'[00:04:47.785 12/07/2079]',3.126,1.954,-6.252,-19.927,-5.079,-1.172,-8.205,-5.470,-7.033,-5.470,-5.470,-7.424,-12.503,-10.549,-2.735,-0.391,-3.516,-10.940,7.033,5.861,-37.900,-4.689,-2.735,-728.694
'[00:04:47.789 12/07/2079]',8.205,0.391,-0.781,-12.503,2.344,0.781,-7.033,-1.954,-1.954,-8.596,3.126,-8.987,-8.205,1.172,-5.470,-3.907,-2.344,-10.159,1.563,8.205,-27.350,1.172,-5.470,-631.013
'[00:04:47.793 12/07/2079]',0.391,1.954,1.172,-7.814,0.000,-2.344,-4.689,2.344,1.563,-13.284,0.000,0.391,-5.079,-12.112,2.735,1.954,-4.689,-7.033,-0.391,1.563,-21.490,-7.424,2.735,-487.619
'[00:04:47.797 12/07/2079]',-0.391,10.940,0.781,-6.642,5.861,0.391,-1.954,0.781,5.470,-9.377,-2.735,0.000,-2.344,-6.642,-1.954,4.298,-5.470,-6.642,0.000,-5.861,-14.847,0.781,-1.954,-330.159
'[00:04:47.801 12/07/2079]',-6.642,5.470,1.563,-4.298,1.563,-1.563,-1.954,-2.344,2.344,-10.549,-1.172,-5.470,-1.954,-12.894,-8.987,8.205,-4.689,-8.596,-0.781,0.000,-5.470,-5.861,-8.987,-202.002
'[00:04:47.805 12/07/2079]',0.781,3.516,2.735,-9.768,5.861,-1.563,-3.126,-2.735,1.563,-8.205,-2.735,-8.205,1.954,-24.225,-9.377,13.284,-1.172,-8.596,-1.954,8.987,-14.847,-18.755,-9.377,-76.581
'[00:04:47.809 12/07/2079]',4.298,9.377,1.954,-8.596,9.377,2.344,-1.563,-3.126,1.563,-5.861,0.781,-8.596,-3.516,-10.549,-6.252,7.814,0.781,-7.033,-1.172,-3.516,-16.801,3.126,-6.252,1.172
'[00:04:47.813 12/07/2079]',3.516,11.722,1.563,-15.238,5.861,0.781,0.000,-5.079,8.205,-5.470,4.298,-9.377,-0.391,-4.689,-5.079,7.424,2.344,-7.814,-0.781,-7.814,-18.364,3.126,-5.079,57.436
'[00:04:47.816 12/07/2079]',2.344,11.331,3.126,-13.284,6.642,-1.563,1.172,-2.735,2.344,-7.814,3.516,-6.642,-8.987,-7.033,-0.781,8.596,4.298,-5.470,-2.344,-7.033,-12.894,-2.344,-0.781,88.303
'[00:04:47.820 12/07/2079]',1.563,12.112,7.033,-6.642,11.722,-0.391,1.563,1.172,6.642,-2.735,5.079,-6.252,-3.516,-0.391,4.298,1.563,4.298,-0.391,-6.252,-12.894,2.344,5.079,4.298,106.667
'[00:04:47.824 12/07/2079]',0.391,10.159,6.252,-5.861,10.549,0.391,0.000,0.391,8.987,-0.391,4.689,-7.814,0.391,-1.954,0.000,7.033,5.079,-0.781,-5.470,-12.894,0.391,6.642,0.000,122.295
'[00:04:47.828 12/07/2079]',3.516,7.814,0.000,-3.126,13.675,1.172,-2.735,-3.516,8.205,0.391,0.391,-9.377,3.516,-7.814,-2.344,7.033,5.079,-2.735,0.781,-3.126,-3.516,1.563,-2.344,142.613
'[00:04:47.832 12/07/2079]',2.735,7.814,-2.735,-3.516,11.331,2.344,-3.907,-5.861,11.331,0.781,-3.126,-8.596,5.470,-2.735,-4.689,2.344,2.735,-1.954,3.516,-1.172,-13.675,13.284,-4.689,163.712
'[00:04:47.836 12/07/2079]',1.563,5.470,-0.391,-2.735,9.377,1.563,-3.516,-4.298,14.066,-2.735,-3.126,-6.252,4.689,-2.344,-7.814,7.033,0.391,-2.735,1.172,-6.252,-20.708,23.443,-7.814,173.871
'[00:04:47.840 12/07/2079]',5.470,1.954,-1.172,-1.954,10.159,-0.391,-1.563,-4.689,8.596,1.172,-1.172,-10.159,0.000,-6.252,-0.781,6.642,0.391,-5.861,1.954,-1.563,-16.020,5.470,-0.781,183.248
'[00:04:47.844 12/07/2079]',5.861,-1.563,1.172,-0.781,11.331,-2.344,0.781,-4.298,7.814,1.172,0.391,-13.675,2.344,-6.252,1.172,-1.954,1.954,-4.298,-0.391,1.563,0.000,-3.516,1.172,196.532
'[00:04:47.848 12/07/2079]',-7.814,-1.172,5.079,5.861,7.033,-2.344,1.172,-3.126,7.424,0.391,-2.344,-10.940,5.470,-0.391,-3.907,-7.033,3.126,-3.516,-4.298,-10.549,28.132,7.424,-3.907,205.910
'[00:04:47.852 12/07/2079]',-3.907,3.126,0.781,3.126,10.940,-1.172,3.907,-10.549,5.861,0.391,3.126,-14.847,7.814,9.377,-14.066,-9.377,7.814,-7.814,0.000,-16.020,39.853,11.331,-14.066,216.068
'[00:04:47.855 12/07/2079]',-0.781,1.563,5.861,1.172,14.457,0.391,1.954,-8.205,10.159,-2.735,5.079,-13.675,11.331,8.987,-13.284,-8.596,12.503,-9.377,-5.079,-1.563,24.615,8.596,-13.284,218.022
'[00:04:47.859 12/07/2079]',-3.516,1.172,7.033,3.907,11.331,0.000,1.563,-3.907,9.768,-3.907,0.391,-6.252,8.987,8.987,-10.940,-7.814,10.159,-5.079,-6.252,-3.516,17.582,15.629,-10.940,217.631
'[00:04:47.863 12/07/2079]',-4.298,-1.563,3.907,0.391,5.079,-1.563,2.735,-7.814,4.689,-1.172,-1.954,-2.735,8.987,10.940,-9.768,-11.331,3.516,-3.907,-3.126,-4.689,14.066,23.053,-9.768,222.711
'[00:04:47.867 12/07/2079]',-1.172,-5.861,2.344,1.954,2.735,-2.344,2.344,-5.470,-1.954,0.781,-2.344,-1.954,7.814,-8.205,2.344,-7.033,3.516,-1.172,-1.563,5.079,8.987,-1.563,2.344,227.009
'[00:04:47.871 12/07/2079]',-8.205,-10.159,0.391,5.470,-5.861,-3.516,0.391,-1.563,-7.814,-0.781,-0.781,-3.516,9.377,-11.722,-7.033,-4.298,0.391,0.391,0.391,5.079,24.225,-8.205,-7.033,227.399
'[00:04:47.875 12/07/2079]',-6.252,-8.596,-0.781,1.563,-8.205,-2.344,-0.391,-2.344,-10.549,1.563,-1.563,-4.689,4.689,-3.907,-9.768,-7.033,-2.344,0.000,1.563,-3.516,31.258,-4.689,-9.768,214.505
'[00:04:47.879 12/07/2079]',-0.391,0.781,-3.907,0.000,-5.079,0.000,0.391,2.344,-2.735,1.954,-2.735,-1.563,7.424,4.689,-11.722,-6.252,0.000,-1.172,4.689,0.000,17.973,-1.954,-11.722,193.797
'[00:04:47.883 12/07/2079]',-3.907,1.954,-3.516,-1.954,-9.377,-1.954,-0.391,5.470,-1.954,-3.126,-5.470,3.907,4.689,9.377,-14.847,-6.642,-1.954,-0.781,4.298,5.861,17.192,-3.907,-14.847,177.387
'[00:04:47.887 12/07/2079]',-1.954,-0.391,1.954,-7.814,-9.768,-1.954,-1.172,5.861,-5.861,-3.516,-3.516,3.516,-1.563,7.814,-10.549,-6.252,-5.470,0.391,-1.172,1.172,7.814,3.516,-10.549,171.917
'[00:04:47.891 12/07/2079]',5.470,1.172,-0.781,-3.907,-5.079,0.391,-1.954,8.987,-4.298,-1.954,1.563,2.735,3.126,2.735,-4.689,-3.516,-3.907,0.391,1.563,2.344,-5.470,2.735,-4.689,185.592
'[00:04:47.895 12/07/2079]',4.298,-1.954,-1.563,-5.861,-6.252,-0.781,-1.563,4.689,-6.642,-5.861,7.424,0.000,1.563,-7.424,5.861,-6.642,-4.298,1.172,2.344,8.205,-5.470,-13.284,5.861,201.221
'[00:04:47.898 12/07/2079]',-0.391,-3.516,-5.861,-1.954,-8.596,-3.516,-3.126,3.516,-12.112,-5.861,2.735,1.954,-7.033,-3.126,0.781,-5.470,-6.252,1.172,6.642,-0.781,0.781,-2.735,0.781,205.910
'[00:04:47.902 12/07/2079]',4.689,1.172,-8.987,-5.079,-4.298,0.000,-2.735,0.000,-4.689,-2.735,5.079,-3.126,-3.907,-0.391,2.735,-5.079,-4.689,0.391,9.768,-9.768,-7.033,1.563,2.735,188.327
'[00:04:47.906 12/07/2079]',6.252,3.126,-6.642,-0.391,1.172,1.172,-1.954,1.954,-1.563,-3.907,7.033,-3.126,1.563,-7.424,0.391,2.344,-0.391,-0.391,7.424,1.172,-7.424,-7.424,0.391,170.354
'[00:04:47.910 12/07/2079]',5.079,1.172,-5.470,1.954,1.954,1.172,-3.126,2.735,-4.689,-2.735,1.954,-2.735,-5.861,-3.907,-11.722,12.503,0.391,0.391,6.252,0.391,-7.033,-2.735,-11.722,164.884
'[00:04:47.914 12/07/2079]',1.954,9.377,-1.172,-3.907,4.298,5.079,-1.172,-1.563,3.516,0.391,-1.563,-5.079,-2.344,-7.814,-4.298,11.331,1.563,1.172,1.954,-12.503,-7.424,0.391,-4.298,182.466
'[00:04:47.918 12/07/2079]',10.940,9.377,1.954,-3.126,13.675,8.205,0.781,-4.298,8.596,1.954,3.907,-12.112,3.126,-11.722,1.172,10.159,2.344,3.126,-1.172,-1.563,-21.490,-2.344,1.172,210.208
'[00:04:47.922 12/07/2079]',5.079,5.470,7.814,1.954,14.847,4.689,2.735,-0.781,5.079,1.563,7.424,-10.549,-2.344,-13.284,8.205,11.722,1.563,5.470,-7.033,-1.172,-11.331,-8.987,8.205,232.869
'[00:04:47.926 12/07/2079]',-4.298,-3.516,11.331,10.940,7.814,-0.391,5.470,1.563,5.861,0.000,6.642,-5.470,-1.954,-10.549,13.284,5.861,-3.126,6.642,-10.549,-10.549,9.377,-2.344,13.284,244.200
'[00:04:47.930 12/07/2079]',0.781,-3.516,7.814,11.722,11.722,-0.781,8.205,-1.172,1.172,-1.954,7.814,-6.252,-3.516,-10.159,10.940,3.907,-6.252,5.079,-7.033,-10.549,7.814,4.298,10.940,246.545
'[00:04:47.934 12/07/2079]',-10.940,-1.563,8.205,15.629,3.907,-5.079,9.377,3.516,-1.954,-2.735,4.298,1.172,-8.205,-10.159,6.252,11.722,-6.252,3.907,-7.424,-7.033,11.722,0.391,6.252,266.471
'[00:04:47.938 12/07/2079]',-7.814,-7.033,2.344,20.708,2.735,-5.861,7.033,3.516,-3.126,-2.344,7.424,0.391,-9.377,3.907,-1.954,8.205,-7.424,3.126,-1.563,-7.033,22.271,2.344,-1.954,301.636
'[00:04:47.941 12/07/2079]',7.033,5.470,1.954,9.377,14.457,1.563,7.033,0.391,-1.954,-0.781,10.940,-3.126,-9.377,5.861,-5.079,12.894,-7.814,3.516,-1.172,-6.252,-14.066,14.847,-5.079,359.072
'[00:04:47.945 12/07/2079]',7.814,11.331,3.907,8.596,17.582,3.126,8.987,1.954,0.391,1.563,11.722,-1.563,-6.642,1.954,3.907,12.894,-5.861,5.079,-3.126,-3.907,-15.629,3.516,3.907,415.336
'[00:04:47.949 12/07/2079]',0.391,8.987,7.033,10.159,12.503,3.516,9.768,0.391,1.563,0.391,11.331,1.563,-7.424,5.861,8.205,8.987,-8.205,9.377,-6.252,-4.689,-7.814,7.814,8.205,459.487
'[00:04:47.953 12/07/2079]',-1.563,9.768,8.205,8.205,9.377,5.079,10.159,0.391,2.344,-2.344,11.331,1.172,-1.563,-2.344,5.470,11.722,-9.768,8.987,-7.424,-12.112,-5.470,11.331,5.470,477.851
'[00:04:47.957 12/07/2079]',-0.391,9.377,7.814,6.642,7.814,3.126,10.940,0.391,4.298,-3.907,16.020,-2.735,2.735,-3.126,5.861,7.814,-9.377,7.033,-7.033,-11.331,3.907,3.126,5.861,490.354
'[00:04:47.961 12/07/2079]',-7.814,10.159,4.298,6.252,-1.172,0.391,10.159,4.298,5.079,-7.033,14.457,3.126,3.126,-7.033,11.722,7.424,-10.549,7.033,-3.516,-8.987,1.954,-3.516,11.722,508.327
'[00:04:47.965 12/07/2079]',-10.159,13.675,1.563,3.516,-5.079,-1.563,10.549,5.079,0.391,-7.424,8.205,9.377,-4.689,0.000,12.894,2.735,-14.847,6.252,-0.781,-19.145,4.298,2.735,12.894,525.128
'[00:04:47.969 12/07/2079]',-0.781,20.317,0.391,1.563,3.907,-0.781,13.284,5.079,-3.907,-3.907,8.596,7.814,-7.033,-1.563,18.364,0.000,-17.192,7.424,0.391,-21.880,6.642,0.391,18.364,530.598
'[00:04:47.973 12/07/2079]',2.735,4.689,4.689,6.642,7.033,-2.344,7.814,7.033,-2.735,-1.954,6.252,10.549,-6.642,0.391,14.066,3.907,-17.973,3.907,-3.907,-4.298,10.549,-7.814,14.066,526.691
'[00:04:47.977 12/07/2079]',-7.424,-10.940,9.768,12.894,-3.126,-6.642,4.689,8.205,-5.470,-2.344,-1.563,12.503,-2.735,4.689,-0.781,1.563,-21.099,4.689,-8.987,5.861,21.099,4.298,-0.781,494.652
'[00:04:47.980 12/07/2079]',0.000,-4.298,-3.516,9.768,1.172,-5.079,0.391,5.861,-6.642,-3.126,0.000,13.675,-1.563,0.391,0.000,4.298,-22.662,3.907,4.298,-1.563,8.987,6.252,0.000,440.733
'[00:04:47.984 12/07/2079]',0.391,-1.954,-0.391,0.781,-0.781,-4.298,0.781,2.344,-5.861,-4.298,4.298,9.768,0.391,0.000,0.000,2.735,-19.927,3.126,1.172,6.252,5.470,-3.126,0.000,388.376
'[00:04:47.988 12/07/2079]',-3.126,0.000,2.344,0.000,-5.079,-5.079,0.781,8.987,-5.079,-5.470,6.252,13.675,2.735,-4.689,4.298,5.470,-18.364,4.298,-1.563,3.126,1.563,-7.424,4.298,362.979
'[00:04:47.992 12/07/2079]',-1.954,0.391,-0.391,0.391,-5.079,-5.079,0.000,9.377,-12.112,-6.252,6.252,14.457,-6.252,-5.861,8.987,5.470,-19.927,5.861,1.172,-3.126,-1.954,-2.344,8.987,364.933
'[00:04:47.996 12/07/2079]',0.391,0.000,0.781,-2.735,-2.735,-5.079,2.344,2.735,-3.516,-6.252,2.735,12.112,-1.563,-2.344,5.079,3.516,-18.755,4.298,0.000,-2.344,5.470,-3.516,5.079,332.112
'[00:04:48.000 12/07/2079]',-6.642,-8.205,-0.391,1.563,-10.549,-8.987,1.563,4.298,0.781,-5.861,0.391,13.675,3.907,3.126,0.391,1.954,-18.364,4.689,1.172,3.516,13.284,-1.172,0.391,281.709
'[00:04:48.004 12/07/2079]',-10.159,-8.205,-0.391,6.252,-12.503,-8.987,1.563,5.861,-3.907,-4.689,4.689,15.238,-0.781,14.847,-3.126,0.391,-16.410,8.987,1.172,-0.781,23.834,8.596,-3.126,191.062
'[00:04:48.008 12/07/2079]',1.954,-2.735,-3.516,0.781,-4.689,-3.126,1.954,3.126,0.781,-0.391,6.642,12.112,3.126,4.689,6.252,5.079,-13.284,9.377,4.298,-0.391,11.331,-4.689,6.252,97.680
'[00:04:48.012 12/07/2079]',5.861,-1.172,-3.516,3.516,-2.735,-1.563,2.735,5.861,-3.907,-0.781,8.987,15.238,-0.391,10.549,1.954,6.252,-10.549,10.549,4.298,7.424,1.172,-0.391,1.954,-2.735
'[00:04:48.016 12/07/2079]',-0.391,1.563,-3.516,3.907,-6.252,1.172,1.954,5.079,-11.331,-1.172,5.470,18.755,-11.722,1.954,10.159,9.768,-10.549,13.284,4.298,1.954,-5.861,0.781,10.159,-92.601
'[00:04:48.020 12/07/2079]',8.596,-2.344,-1.563,3.126,2.344,1.172,1.954,1.563,-8.987,-0.391,4.298,12.503,-8.987,-5.470,10.549,10.940,-10.940,13.675,2.344,-0.391,-7.814,0.391,10.549,-180.513
'[00:04:48.023 12/07/2079]',7.424,-7.424,1.172,1.954,0.781,-0.391,3.516,-0.391,0.781,0.391,7.814,5.861,3.907,-5.079,10.549,4.689,-8.987,11.722,-0.391,5.470,-0.781,-5.079,10.549,-266.081
'[00:04:48.027 12/07/2079]',1.563,-6.642,7.033,1.172,0.781,-1.954,5.079,0.000,2.735,0.391,7.033,7.424,7.033,0.781,10.940,-0.781,-8.205,13.284,-6.252,3.126,13.675,-3.516,10.940,-336.020
'[00:04:48.031 12/07/2079]',1.563,-5.470,4.298,3.126,2.344,-5.079,3.907,2.735,6.642,-1.954,5.079,11.722,11.331,3.516,6.642,-1.563,-10.940,14.066,-3.516,-3.126,14.066,5.861,6.642,-382.906
'[00:04:48.035 12/07/2079]',0.391,-3.907,5.470,-0.781,0.781,-3.907,4.689,0.000,12.894,0.391,5.079,6.252,14.847,7.424,6.642,-5.079,-10.549,10.159,-4.689,1.563,7.424,5.470,6.642,-404.396
'[00:04:48.039 12/07/2079]',1.954,-3.126,7.814,-0.781,2.344,-3.126,3.126,2.344,1.172,-2.735,8.205,5.861,4.298,7.424,0.391,-0.781,-11.331,7.814,-7.033,3.126,0.781,8.987,0.391,-421.587
'[00:04:48.043 12/07/2079]',1.172,-5.861,4.689,3.907,3.126,-6.642,0.781,7.033,-2.735,-8.596,-0.391,12.112,-1.954,0.391,-5.861,7.033,-16.020,8.987,-3.907,3.516,0.000,7.033,-5.861,-443.077
'[00:04:48.047 12/07/2079]',0.781,-11.722,8.205,-1.172,1.563,-6.642,1.172,-0.781,0.000,-8.596,-4.298,3.907,-4.689,-8.205,-0.391,5.079,-16.801,6.252,-7.424,5.470,-3.907,0.000,-0.391,-480.586
'[00:04:48.051 12/07/2079]',-0.391,-7.814,6.252,-3.126,1.172,-4.689,0.781,-2.344,1.954,-11.722,-3.126,3.126,-2.735,-9.377,-6.642,9.377,-13.284,1.954,-5.470,12.112,-16.410,1.172,-6.642,-522.002
'[00:04:48.055 12/07/2079]',6.252,-10.940,3.516,-1.954,5.861,-4.689,-2.344,-0.781,1.563,-17.192,-1.954,0.781,-5.079,-22.271,2.735,7.814,-11.722,2.344,-2.735,13.675,-25.788,-6.252,2.735,-551.306
'[00:04:48.059 12/07/2079]',12.112,-11.331,6.642,-4.689,10.159,-1.954,-3.907,-0.781,8.596,-12.503,-0.781,-1.954,-0.781,-16.801,9.377,0.391,-11.331,1.563,-5.861,8.987,-34.383,4.689,9.377,-552.088
'[00:04:48.063 12/07/2079]',8.987,-7.424,1.954,-7.424,7.033,-1.172,-3.907,-4.689,12.894,-9.377,-0.391,-3.516,3.126,-7.814,5.470,-2.735,-10.940,-0.391,-1.172,3.126,-25.006,5.470,5.470,-525.910
'[00:04:48.066 12/07/2079]',3.516,-9.768,2.344,-5.861,4.689,-6.252,-5.079,-1.563,8.596,-9.768,-9.768,-0.391,3.126,-9.768,-1.172,-3.126,-13.284,0.391,-1.563,3.907,-3.126,-1.954,-1.172,-486.838
'[00:04:48.070 12/07/2079]',3.907,-12.503,4.298,-3.126,6.252,-9.377,-5.861,2.344,11.722,-5.861,-12.112,3.907,6.252,-3.907,0.391,-4.298,-14.847,0.000,-3.516,1.954,6.252,-1.954,0.391,-446.984
'[00:04:48.074 12/07/2079]',4.689,-12.503,-5.079,0.391,5.079,-9.768,-8.596,1.563,5.079,-8.596,-7.814,3.126,4.689,1.172,-10.940,-3.126,-16.020,-5.079,5.861,8.205,1.954,0.391,-10.940,-412.991
'[00:04:48.078 12/07/2079]',0.000,-14.847,-8.987,0.391,1.954,-14.847,-10.159,0.000,2.344,-11.722,-17.192,1.954,7.424,-13.675,-13.675,-4.298,-18.364,-9.377,9.768,15.238,4.298,-7.424,-13.675,-387.595
'[00:04:48.082 12/07/2079]',7.033,-17.973,-17.582,1.172,4.298,-17.192,-17.192,2.735,0.000,-14.847,-19.927,6.642,3.126,-16.020,-1.172,-14.066,-23.443,-11.722,18.364,17.192,-18.364,2.735,-1.172,-368.840
'[00:04:48.086 12/07/2079]',7.814,-21.490,-19.536,-7.033,3.126,-21.099,-18.755,-3.907,-6.252,-15.238,-20.708,-4.689,-1.954,-11.722,-16.410,-16.801,-27.350,-15.629,20.317,15.629,-21.490,14.066,-16.410,-354.383
'[00:04:48.090 12/07/2079]',6.252,-25.788,-10.549,-12.112,3.907,-22.662,-16.801,-7.033,-2.344,-10.940,-20.317,-13.284,1.563,-7.424,-24.615,-17.582,-25.788,-16.020,11.331,16.801,-3.126,8.987,-24.615,-328.987
'[00:04:48.094 12/07/2079]',9.768,-14.847,-7.033,-13.675,7.814,-20.317,-12.112,-1.563,8.205,-4.689,-16.801,-9.377,11.331,9.768,-17.582,-27.350,-21.490,-8.987,7.814,10.159,10.159,10.159,-17.582,-303.980
'[00:04:48.098 12/07/2079]',5.079,-5.079,-14.066,-13.675,1.954,-19.536,-10.159,0.391,7.814,-3.516,-18.364,-3.516,15.238,21.099,-32.039,-22.271,-21.880,-2.735,14.847,-0.781,20.708,18.755,-32.039,-270.769
'[00:04:48.102 12/07/2079]',1.954,-8.987,-12.894,-12.894,-4.298,-15.238,-8.596,-3.516,10.549,-5.079,-16.801,-8.987,29.695,7.814,-30.085,-28.523,-23.443,-0.781,13.675,5.079,37.118,3.126,-30.085,-248.498
'[00:04:48.105 12/07/2079]',2.735,-10.940,-14.066,-12.503,-10.159,-14.847,-9.768,0.391,9.377,-6.642,-17.582,-5.470,37.900,-2.735,-29.695,-25.397,-23.443,1.954,14.847,15.238,32.039,-8.987,-29.695,-223.492
'[00:04:48.109 12/07/2079]',-3.907,-28.913,-14.066,-5.079,-20.317,-16.410,-14.066,0.000,-5.470,-13.284,-25.006,-5.470,27.350,-19.145,-39.463,-18.755,-26.960,1.172,14.847,26.178,29.695,-9.377,-39.463,-205.128
'[00:04:48.113 12/07/2079]',-2.344,-28.132,-10.159,-15.629,-22.271,-12.112,-10.940,-10.940,-11.331,-10.940,-21.099,-13.675,6.252,-20.708,-32.039,-11.722,-24.615,1.172,10.940,23.053,5.079,-7.814,-32.039,-178.559
'[00:04:48.117 12/07/2079]',8.205,-25.788,-0.391,-14.066,-6.642,-9.768,-6.642,-8.205,-3.126,-6.642,-16.020,-9.377,-0.781,-12.894,-23.443,0.781,-11.722,3.126,1.172,21.880,-6.252,-8.987,-23.443,-155.507
'[00:04:48.121 12/07/2079]',12.112,-23.443,-9.377,-1.563,-3.907,-8.205,-9.377,-1.172,2.344,-3.126,-9.768,-5.079,-1.563,0.781,-19.145,3.907,-4.689,3.516,10.159,12.894,-8.987,-3.516,-19.145,-133.236
'[00:04:48.125 12/07/2079]',28.132,-32.430,-6.252,-3.126,7.033,-6.252,-10.549,-3.126,6.252,-2.735,-2.735,-5.470,-3.126,9.377,-15.238,2.735,-2.735,1.954,7.033,14.066,-10.940,-2.735,-15.238,-123.858
'[00:04:48.129 12/07/2079]',31.258,-33.993,-3.516,-3.516,9.377,-7.424,-9.768,-2.344,6.252,-1.172,-6.252,-3.126,1.172,8.987,-12.503,-2.735,-3.126,0.000,4.298,17.582,-7.814,-3.907,-12.503,-114.872
'[00:04:48.133 12/07/2079]',22.271,-32.430,-8.205,-3.907,0.781,-8.987,-10.940,-2.344,4.298,-1.563,-7.424,0.391,2.735,17.973,-11.331,-12.503,-4.689,-0.391,8.987,19.145,-10.549,3.126,-11.331,-112.137
'[00:04:48.137 12/07/2079]',30.476,-27.741,-0.781,-9.377,10.940,-6.252,-9.768,-2.344,0.000,-1.172,-3.126,3.516,-11.722,13.284,0.000,-1.172,-3.907,0.000,1.563,12.503,-34.383,7.814,0.000,-110.183
'[00:04:48.141 12/07/2079]',27.350,-25.006,3.516,-11.331,9.768,-6.252,-6.252,-1.563,-1.563,-1.172,-0.781,0.781,-11.722,3.907,-4.689,9.768,-3.516,0.391,-2.735,12.894,-41.807,3.516,-4.689,-105.885
'[00:04:48.145 12/07/2079]',22.271,-25.006,0.000,-8.205,5.861,-8.596,-8.205,0.391,-1.172,-6.252,0.391,4.298,-13.284,0.781,-7.814,17.973,-0.781,-0.391,0.781,15.629,-48.449,0.000,-7.814,-101.978
'[00:04:48.148 12/07/2079]',22.662,-26.569,-6.252,-5.861,4.298,-7.033,-8.596,-3.907,-5.470,-10.940,3.516,4.689,-20.317,-2.735,-5.079,19.927,-0.781,0.000,7.033,10.549,-51.575,0.391,-5.079,-94.945
'[00:04:48.152 12/07/2079]',26.569,-26.178,-5.861,-5.861,8.205,-2.735,-7.424,-8.596,-5.079,-7.424,3.126,0.391,-18.364,-5.861,1.172,13.675,2.344,-0.391,6.642,9.768,-42.589,-3.126,1.172,-88.303
'[00:04:48.156 12/07/2079]',27.350,-26.569,-0.781,-7.814,8.987,-0.781,-4.298,-11.331,-6.252,-5.470,7.814,-3.907,-20.708,-15.238,19.145,8.205,8.205,0.000,1.563,14.457,-39.072,-20.708,19.145,-78.535
'[00:04:48.160 12/07/2079]',27.741,-19.536,-5.079,-7.424,7.814,0.781,-4.298,-8.596,-11.722,-7.814,9.768,2.344,-30.867,-16.020,30.867,8.205,9.768,1.172,5.861,7.424,-53.138,-14.457,30.867,-70.330
'[00:04:48.164 12/07/2079]',19.145,-12.503,-1.172,-11.722,2.344,2.735,-1.172,-10.549,-8.987,-0.781,3.516,1.172,-33.211,-7.814,25.006,10.159,9.768,3.126,1.954,-1.563,-49.231,-3.907,25.006,-74.628
'[00:04:48.168 12/07/2079]',18.364,-8.987,6.252,-17.582,3.516,2.735,0.391,-9.377,-7.814,-4.298,8.205,0.391,-30.085,-8.205,9.768,22.662,12.503,0.000,-5.470,-0.391,-46.886,-6.642,9.768,-78.926
'[00:04:48.172 12/07/2079]',16.801,-8.205,-7.033,-9.377,0.000,2.344,-4.298,-5.470,-2.344,-4.689,12.112,-4.298,-21.880,0.391,-1.954,23.834,13.675,-2.344,7.814,6.642,-59.780,1.172,-1.954,-75.018
'[00:04:48.176 12/07/2079]',20.317,-22.662,-3.126,-0.391,4.689,2.735,-7.814,-5.861,4.298,-3.516,6.252,-3.907,-18.364,3.907,-6.252,24.225,11.331,-3.516,3.907,9.768,-47.668,5.861,-6.252,-50.403
'[00:04:48.180 12/07/2079]',14.066,-25.788,-1.563,3.126,3.907,0.781,-5.470,-8.596,10.940,-2.344,1.172,-7.424,-12.503,-4.298,1.954,17.192,10.159,-5.470,2.344,8.987,-29.695,-1.954,1.954,-26.569
'[00:04:48.184 12/07/2079]',6.642,-26.569,-7.033,7.814,-1.563,-3.907,-5.079,-7.814,8.987,0.391,-2.344,-5.470,-16.410,-6.642,13.284,11.722,8.205,-5.470,7.814,15.629,-28.523,-8.987,13.284,-14.847
'[00:04:48.188 12/07/2079]',9.768,-29.695,-0.781,9.768,2.344,-5.470,-3.126,-3.126,2.344,-0.781,-1.954,-2.344,-26.960,-1.954,11.722,14.066,6.642,-3.907,1.563,12.503,-26.569,-1.563,11.722,-23.053
'[00:04:48.191 12/07/2079]',11.331,-23.443,5.861,4.298,6.642,-4.298,0.391,-2.735,3.516,-2.735,4.298,-7.033,-23.834,-0.781,10.940,11.331,5.470,-2.735,-5.079,6.642,-22.271,0.391,10.940,-35.946
'[00:04:48.195 12/07/2079]',7.814,-22.271,2.344,0.391,-0.781,-6.252,0.781,-3.126,0.000,-4.298,5.470,-8.205,-22.271,-1.954,7.814,8.205,4.298,-4.298,-1.563,14.066,-32.430,0.391,7.814,-31.258
'[00:04:48.199 12/07/2079]',7.033,-22.271,1.954,0.000,-0.781,-5.861,-0.781,-5.079,5.861,-10.549,3.126,-10.159,-19.536,9.768,-4.298,3.126,3.907,-4.298,-1.172,14.457,-48.059,27.350,-4.298,-14.847
'[00:04:48.203 12/07/2079]',3.126,-30.085,0.391,8.205,-5.470,-7.033,-0.391,-3.907,9.768,-14.066,4.298,-12.894,-14.066,-1.954,-1.563,5.079,0.391,-2.735,0.391,9.377,-29.304,16.410,-1.563,-1.954
'[00:04:48.207 12/07/2079]',-5.861,-34.383,5.470,6.252,-10.549,-8.596,2.344,-10.159,0.000,-7.033,6.252,-23.834,-16.801,-9.768,3.907,-1.954,1.563,-5.861,-4.689,14.457,-11.722,5.079,3.907,-14.847
'[00:04:48.211 12/07/2079]',-7.424,-24.225,5.470,9.377,-6.252,-6.642,5.470,-7.424,0.000,-0.391,2.735,-18.364,-20.708,-0.781,0.391,4.298,6.252,0.391,-4.689,16.801,-14.457,7.033,0.391,-41.026
'[00:04:48.215 12/07/2079]',-7.424,-14.457,8.987,8.205,-1.954,-3.126,11.331,-9.377,4.689,4.298,0.391,-16.801,-17.582,5.079,0.391,5.079,8.596,5.079,-8.205,2.344,2.735,10.159,0.391,-65.250
'[00:04:48.219 12/07/2079]',-13.284,-6.642,12.503,0.000,-5.861,-1.563,16.801,-15.238,2.344,6.642,0.000,-21.880,-15.238,3.516,-0.781,0.391,8.987,5.861,-11.722,-2.735,13.284,6.252,-0.781,-64.078
'[00:04:48.223 12/07/2079]',-10.159,-6.642,13.675,-2.735,-3.907,-3.126,17.192,-14.847,8.205,8.596,-1.172,-22.662,-7.814,10.940,-8.596,0.391,11.331,4.689,-12.894,4.298,3.907,14.066,-8.596,-49.621
'[00:04:48.227 12/07/2079]',-12.894,-7.424,12.503,1.563,-7.814,-4.298,16.410,-8.987,7.814,1.172,-1.172,-12.894,-4.689,9.377,-9.377,0.000,7.814,6.252,-11.722,0.391,10.940,12.503,-9.377,-35.165
'[00:04:48.230 12/07/2079]',-12.503,-8.205,7.424,5.470,-11.722,-5.079,16.020,-5.470,1.954,-0.781,0.781,-9.377,-4.298,-1.172,-2.344,1.563,5.079,5.861,-6.642,-5.861,10.940,8.987,-2.344,-35.165
'[00:04:48.234 12/07/2079]',-17.192,-14.847,18.364,5.861,-12.894,-3.126,16.801,-7.424,-2.344,3.126,8.987,-10.940,-11.331,7.814,6.252,-4.689,7.033,5.861,-17.582,7.033,9.377,8.987,6.252,-56.264
'[00:04:48.238 12/07/2079]',-8.205,-8.987,16.020,12.503,-5.470,2.735,14.457,-1.172,1.172,4.689,13.284,-5.470,-10.940,13.675,7.033,3.126,12.503,10.549,-15.238,7.424,10.940,0.000,7.033,-77.363
'[00:04:48.242 12/07/2079]',-8.205,-8.596,12.112,12.503,-7.033,5.470,11.722,-1.954,-3.516,5.470,11.331,-6.252,-15.238,10.159,0.781,10.549,10.159,10.549,-11.331,-1.563,5.079,7.814,0.781,-85.568
'[00:04:48.246 12/07/2079]',-7.033,-8.205,13.284,2.344,-7.033,5.470,12.894,-10.940,-1.954,5.861,10.940,-10.549,-14.847,11.722,0.391,6.252,11.331,8.205,-12.503,0.391,1.563,7.424,0.391,-80.879
'[00:04:48.250 12/07/2079]',-5.470,-0.391,8.205,0.000,-5.079,6.252,8.987,-9.377,-3.126,2.735,11.722,-6.642,-14.066,15.629,-6.252,9.377,12.112,9.377,-7.424,0.000,-10.159,12.894,-6.252,-70.720
'[00:04:48.254 12/07/2079]',-3.907,-5.470,3.516,7.424,-4.689,5.861,5.861,-5.470,-4.298,0.000,15.629,0.000,-8.987,2.344,2.735,14.066,12.112,10.549,-2.735,-0.391,-12.503,5.470,2.735,-71.502
'[00:04:48.258 12/07/2079]',-2.344,-6.642,9.768,9.768,-1.563,9.377,8.205,-6.252,-1.172,0.781,22.271,-1.172,-4.298,-2.735,16.020,10.940,14.847,11.722,-8.987,1.954,-7.424,-4.298,16.020,-79.316
'[00:04:48.262 12/07/2079]',5.470,0.781,7.814,11.722,6.642,14.457,7.814,-3.516,4.689,3.907,24.225,4.298,1.954,2.344,22.271,10.159,19.536,13.284,-7.033,5.470,-7.814,-12.112,22.271,-105.885
'[00:04:48.266 12/07/2079]',1.563,3.907,1.954,16.801,5.079,14.457,6.642,-1.954,5.079,5.861,18.755,10.159,3.516,7.814,18.364,9.768,21.490,14.066,-1.172,-2.344,9.377,-11.331,18.364,-130.501
'[00:04:48.270 12/07/2079]',3.516,16.801,5.861,5.470,8.596,17.973,8.596,-3.516,1.954,8.205,19.927,7.033,0.000,11.331,15.238,10.940,23.053,12.894,-5.079,-15.238,5.079,-2.735,15.238,-144.567
'[00:04:48.273 12/07/2079]',11.331,12.503,5.079,2.735,12.503,17.973,5.079,-3.516,2.735,10.159,24.225,1.172,4.298,18.755,13.675,1.172,25.397,7.814,-4.298,-5.079,0.781,-2.344,13.675,-124.640
'[00:04:48.277 12/07/2079]',4.298,8.205,10.159,-0.781,4.689,15.629,2.344,-1.172,-5.470,7.033,22.271,3.126,-1.954,20.317,10.159,-0.781,21.099,8.205,-9.377,-0.391,1.172,0.781,10.159,-85.568
'[00:04:48.281 12/07/2079]',1.172,13.284,3.516,1.172,2.344,14.847,0.781,0.781,-5.861,4.298,19.536,7.033,-3.516,8.205,21.099,-0.781,16.410,7.033,-2.735,-5.079,-10.940,3.516,21.099,-34.774
'[00:04:48.285 12/07/2079]',2.735,8.987,5.470,-4.298,0.000,12.503,1.172,-0.781,1.172,8.205,16.801,0.391,5.861,8.987,16.410,-3.516,13.284,3.516,-4.689,1.954,-15.238,3.907,16.410,3.907
'[00:04:48.289 12/07/2079]',-1.563,9.377,8.987,-1.172,-1.563,10.940,0.781,5.079,-5.861,7.424,17.973,-0.781,0.000,8.205,9.377,0.391,10.940,3.516,-8.205,1.954,-3.516,0.000,9.377,12.894
'[00:04:48.293 12/07/2079]',-8.205,11.331,1.172,2.735,-8.205,4.689,3.126,7.033,0.391,5.079,11.722,0.781,2.344,11.331,3.516,0.781,7.814,3.907,-0.391,-8.987,13.284,-0.391,3.516,6.252
'[00:04:48.297 12/07/2079]',-9.377,7.814,6.642,1.172,-7.033,3.126,6.642,3.907,7.424,7.814,4.298,-0.391,3.907,11.331,1.172,1.563,5.861,3.126,-5.861,-7.424,15.629,1.172,1.172,0.781
'[00:04:48.301 12/07/2079]',-8.596,0.000,10.549,0.000,-8.205,1.954,4.298,2.344,-3.126,1.954,6.642,-1.172,-1.954,10.940,-1.563,-2.735,4.689,1.563,-9.768,7.814,18.364,-3.516,-1.563,11.722
'[00:04:48.305 12/07/2079]',-14.847,-3.907,10.549,6.252,-9.377,-1.172,1.172,7.424,0.000,-0.781,6.252,1.954,0.391,3.126,1.172,1.172,4.689,1.172,-9.768,8.205,24.225,-8.987,1.172,28.523
'[00:04:48.309 12/07/2079]',-12.112,-2.344,13.675,4.689,-5.470,-1.563,3.126,7.814,3.907,0.000,7.033,0.391,3.516,6.642,-2.735,3.516,3.126,1.172,-12.894,5.470,15.238,3.516,-2.735,36.728
'[00:04:48.313 12/07/2079]',-9.768,-2.735,15.629,-1.563,-7.424,-5.079,4.689,7.814,-0.391,-1.172,4.298,0.781,-3.516,17.582,-9.768,0.391,2.344,-0.781,-14.847,8.987,6.642,12.112,-9.768,26.960
'[00:04:48.316 12/07/2079]',-16.020,-3.907,7.814,4.689,-16.020,-5.079,4.689,8.205,-3.516,-0.781,6.252,1.954,-8.596,14.847,-5.079,2.344,4.298,0.781,-7.033,7.424,14.847,0.000,-5.079,8.596
'[00:04:48.320 12/07/2079]',-8.596,-0.781,12.503,2.735,-7.814,0.000,5.861,7.033,-0.781,4.689,1.954,0.000,-0.781,0.391,-1.954,8.987,7.424,1.563,-11.722,0.000,14.457,0.000,-1.954,-1.563
'[00:04:48.324 12/07/2079]',-3.126,-7.814,11.722,5.079,-8.596,1.172,5.079,6.642,-1.563,4.689,8.596,-4.689,6.252,-4.298,9.768,-3.907,8.205,0.391,-10.940,9.377,7.814,-3.907,9.768,9.768
'[00:04:48.328 12/07/2079]',-5.861,-3.907,10.549,9.768,-4.298,-2.735,7.424,8.596,-6.252,7.424,11.331,4.298,13.284,-5.470,13.675,-3.126,12.112,2.735,-9.768,7.033,25.006,-8.205,13.675,33.993
'[00:04:48.332 12/07/2079]',-7.033,7.424,9.377,2.344,-2.735,-1.563,10.159,6.642,1.172,8.596,4.298,3.907,20.317,-10.159,3.126,5.861,10.940,3.126,-8.596,-6.252,21.880,-1.172,3.126,42.589
'[00:04:48.336 12/07/2079]',-1.172,12.894,-0.781,0.391,-2.344,-3.907,12.503,4.298,3.516,8.596,4.298,1.563,13.675,8.987,-0.391,-3.126,8.596,1.172,1.563,-15.629,12.894,15.629,-0.391,32.430
'[00:04:48.340 12/07/2079]',0.391,4.689,2.344,4.298,-5.470,-7.814,17.582,8.205,-2.735,4.298,11.722,3.907,-2.735,26.178,-10.940,4.298,10.549,0.391,-1.563,-5.079,12.503,15.238,-10.940,23.443
'[00:04:48.344 12/07/2079]',0.000,8.205,0.391,2.344,-10.159,11.331,3.126,7.033,-12.894,5.470,8.205,4.298,-11.722,21.490,-18.755,14.457,10.940,0.391,0.391,-3.126,5.470,9.377,-18.755,46.496
'[00:04:48.348 12/07/2079]',-0.781,4.689,1.563,3.907,-6.252,10.159,0.391,5.861,-3.516,2.735,7.814,3.126,-3.126,26.178,-11.722,-0.391,10.159,0.391,-0.781,-1.954,6.252,19.927,-11.722,109.011
'[00:04:48.352 12/07/2079]',-4.298,3.126,0.391,0.000,-10.159,9.377,-1.954,1.563,-9.377,-1.563,16.801,2.344,-8.596,26.569,-4.298,-3.516,7.814,-1.172,0.391,4.298,-4.298,16.410,-4.298,164.884
'[00:04:48.355 12/07/2079]',-4.689,4.298,1.563,-3.907,-8.987,11.722,-3.516,-2.344,-1.563,-0.781,14.457,1.954,0.000,11.331,7.033,-4.689,10.940,0.781,-0.781,5.861,8.987,-8.205,7.033,178.559
'[00:04:48.359 12/07/2079]',0.000,4.298,2.735,-6.642,-8.596,12.503,-0.781,-2.735,11.331,-10.940,8.987,2.344,0.391,5.470,22.271,-15.238,10.549,3.516,-1.954,-5.861,16.801,-8.987,22.271,134.799
'[00:04:48.363 12/07/2079]',-4.298,2.344,-5.079,0.000,-18.364,12.503,3.126,-5.079,7.424,-10.549,9.768,5.079,-10.549,12.503,21.099,-10.940,11.331,6.642,5.861,-8.596,8.987,-1.563,21.099,58.217
'[00:04:48.367 12/07/2079]',-3.516,5.079,-0.391,3.126,-20.708,20.708,2.344,1.172,-0.781,-11.331,8.596,13.284,-14.847,7.424,8.205,7.424,14.457,10.940,1.172,-2.735,11.722,-11.722,8.205,8.596
'[00:04:48.371 12/07/2079]',7.814,5.079,0.000,3.516,-6.642,19.536,0.391,4.689,0.391,2.735,10.159,11.722,0.391,-3.126,13.284,14.847,17.582,12.503,0.781,-1.954,-3.126,-16.410,13.284,5.079
'[00:04:48.375 12/07/2079]',16.410,11.331,-2.344,-5.079,3.907,16.020,-1.954,1.954,-2.735,12.503,11.722,9.377,4.689,4.298,1.563,19.145,12.894,7.814,3.126,-4.689,-35.165,5.470,1.563,41.416
'[00:04:48.379 12/07/2079]',11.722,7.814,-0.391,-9.377,1.563,11.331,-1.954,-1.563,1.172,9.377,12.503,6.642,7.424,3.126,5.470,14.457,9.377,3.126,1.172,4.298,-35.165,-5.079,5.470,60.952
'[00:04:48.383 12/07/2079]',13.675,8.205,0.391,-8.596,10.159,4.689,-1.172,-0.391,10.549,9.377,6.642,7.424,8.205,6.252,14.066,5.861,8.987,2.344,0.391,-1.172,-19.536,-7.814,14.066,49.231
'[00:04:48.387 12/07/2079]',7.424,5.470,0.391,-3.516,6.252,1.172,-1.172,2.735,8.205,3.516,7.814,9.768,0.000,19.145,8.596,3.126,7.424,1.954,0.391,-8.987,-10.549,7.033,8.596,2.735
'[00:04:48.391 12/07/2079]',6.642,5.470,4.689,-2.735,5.470,3.516,0.391,3.126,5.470,-0.391,13.675,5.470,-2.735,13.284,12.112,1.563,8.987,0.391,-3.907,-3.126,-3.907,-5.470,12.112,-48.449
'[00:04:48.395 12/07/2079]',6.252,7.424,6.642,-2.344,3.907,1.954,3.126,8.205,7.033,1.563,10.940,12.112,0.391,5.470,17.973,8.987,11.722,1.563,-5.861,4.689,-6.252,-19.145,17.973,-84.005
'[00:04:48.398 12/07/2079]',8.987,16.801,-2.344,-6.642,5.079,3.126,1.172,6.252,0.000,7.424,9.377,14.457,-5.079,8.596,12.112,15.238,10.549,2.344,3.126,-4.298,-25.006,-6.642,12.112,-99.634
'[00:04:48.402 12/07/2079]',7.814,16.410,-0.391,-12.894,3.516,3.126,4.298,-0.391,3.516,4.689,12.894,6.252,-5.861,7.424,14.066,12.503,8.596,0.781,1.172,-3.516,-30.867,-6.252,14.066,-109.402
'[00:04:48.406 12/07/2079]',5.861,8.987,5.470,-8.596,0.781,0.781,6.252,2.735,6.252,1.563,17.192,2.735,-5.079,16.020,6.252,11.331,10.159,0.000,-4.689,5.470,-25.006,-2.735,6.252,-122.686
'[00:04:48.410 12/07/2079]',1.954,9.377,3.907,-1.172,1.954,-4.298,7.814,8.205,-5.079,2.735,13.675,6.642,-10.940,9.768,3.907,14.457,8.205,2.735,-3.126,-5.861,-5.079,-2.735,3.907,-142.613
'[00:04:48.414 12/07/2079]',-5.861,0.000,6.252,0.000,-3.907,-7.424,8.987,2.344,-0.781,1.954,12.503,3.516,-7.033,12.503,6.252,4.689,6.642,4.298,-5.470,-2.735,0.000,5.861,6.252,-149.646
'[00:04:48.418 12/07/2079]',-1.954,0.391,9.377,-5.861,-3.516,-3.907,9.768,-0.391,0.781,5.079,16.020,-3.516,-4.689,12.894,10.549,0.391,8.596,3.907,-8.596,7.033,-12.112,3.126,10.549,-153.162
'[00:04:48.422 12/07/2079]',2.735,8.596,5.861,-2.735,1.954,0.391,9.377,1.954,3.126,12.503,17.192,-1.954,0.391,13.284,17.973,-0.781,12.503,6.642,-5.079,7.424,-12.503,-2.344,17.973,-141.441
'[00:04:48.426 12/07/2079]',6.252,3.516,7.033,-3.126,5.861,0.391,5.861,0.391,3.516,11.331,14.847,-2.344,-3.516,18.755,19.536,-7.033,10.940,7.424,-6.252,3.516,-12.894,9.768,19.536,-118.388
'[00:04:48.430 12/07/2079]',2.344,1.954,5.079,-3.907,0.781,0.391,5.470,-1.172,0.391,5.861,12.503,-4.689,-10.159,16.801,14.066,-5.470,8.205,3.516,-4.298,3.907,-13.675,10.549,14.066,-98.071
'[00:04:48.434 12/07/2079]',2.344,7.814,6.252,-5.861,0.391,0.391,7.033,1.172,0.781,8.987,6.252,-1.954,-4.298,8.596,9.377,0.000,9.377,3.126,-5.470,3.126,-8.205,0.781,9.377,-83.223
'[00:04:48.438 12/07/2079]',5.470,3.907,5.861,-5.079,3.516,-1.172,6.252,2.344,-2.344,7.033,7.814,-1.563,-0.391,8.205,4.298,-0.781,8.205,3.516,-5.079,-0.781,3.516,-0.781,4.298,-77.753
'[00:04:48.441 12/07/2079]',3.907,1.954,6.642,-2.344,0.391,0.391,9.768,0.000,-0.391,10.159,13.284,-5.861,4.689,21.099,-2.735,-5.079,9.377,4.298,-5.861,3.516,5.079,6.642,-2.735,-76.190
'[00:04:48.445 12/07/2079]',10.159,9.377,5.470,-6.642,1.954,4.689,10.549,0.391,6.642,12.894,12.894,-1.954,14.066,17.582,3.907,-4.298,12.894,3.907,-4.689,7.424,1.172,-8.205,3.907,-75.409
'[00:04:48.449 12/07/2079]',4.689,11.722,-0.781,-4.298,-2.344,1.954,8.987,1.172,-3.907,8.596,11.722,3.516,1.954,24.615,2.735,-9.377,8.596,7.033,1.563,0.391,3.516,5.470,2.735,-77.363
'[00:04:48.453 12/07/2079]',4.298,3.516,-0.391,-3.907,-4.298,1.172,6.252,-1.172,-6.252,4.298,10.940,0.391,-3.126,12.112,6.642,-5.079,6.642,5.079,1.172,-2.735,0.781,5.079,6.642,-72.283
'[00:04:48.457 12/07/2079]',12.112,0.781,-1.954,-6.252,-1.954,2.344,3.907,-1.563,-5.470,3.907,15.238,-3.907,-2.344,-0.391,12.503,0.391,10.159,1.563,2.735,4.298,-18.755,-1.954,12.503,-56.264
'[00:04:48.461 12/07/2079]',18.364,4.298,-5.470,-3.126,2.344,5.470,3.126,0.000,-3.907,7.814,16.410,-2.735,0.000,3.126,17.973,-3.126,14.847,5.079,6.252,5.470,-21.099,-3.516,17.973,-11.331
'[00:04:48.465 12/07/2079]',19.927,9.377,-4.689,-2.344,7.033,11.331,5.079,-2.735,1.954,12.503,15.238,-1.954,5.079,14.847,9.768,-0.391,21.490,8.596,5.470,-1.563,-14.847,5.861,9.768,73.846
'[00:04:48.469 12/07/2079]',19.927,11.331,-5.470,0.391,6.642,15.629,6.252,-3.516,8.596,17.192,14.457,-2.735,10.940,30.085,1.563,-4.298,26.178,7.033,6.252,-1.172,-8.987,12.112,1.563,196.532
'[00:04:48.473 12/07/2079]',17.973,9.377,-3.907,0.000,4.298,16.020,5.861,-4.689,7.424,17.582,13.284,-2.735,13.284,23.834,6.252,-7.424,28.132,7.424,4.689,1.172,0.000,0.781,6.252,340.708
'[00:04:48.477 12/07/2079]',13.284,10.549,-10.159,4.689,3.516,15.238,3.516,-3.907,1.563,12.894,5.079,2.735,7.424,26.960,-2.735,-7.424,24.615,7.814,10.940,-5.861,14.847,3.907,-2.735,464.567
'[00:04:48.480 12/07/2079]',10.159,-1.954,-14.066,2.735,1.172,10.159,-1.954,-12.112,-1.563,7.033,1.172,-3.907,5.470,19.927,-3.516,-18.755,16.801,2.344,14.847,-1.563,20.317,6.642,-3.516,544.664
'[00:04:48.484 12/07/2079]',4.298,-14.847,-17.973,-2.344,-5.861,3.907,-3.516,-25.397,-8.596,6.252,1.172,-14.457,3.907,15.629,0.391,-35.556,10.940,-1.954,18.755,11.722,36.337,-10.159,0.391,510.672
'[00:04:48.488 12/07/2079]',0.000,-17.973,-23.053,0.391,-5.470,-1.172,-6.252,-26.569,-12.894,2.735,0.391,-15.238,0.781,16.410,-3.516,-38.681,6.642,-3.907,23.834,11.722,56.654,-16.801,-3.516,340.317
'[00:04:48.492 12/07/2079]',0.391,-25.006,-25.788,-2.344,-6.642,-7.424,-8.205,-28.913,-7.424,3.516,-5.470,-18.364,5.861,16.020,-8.205,-41.416,0.391,-7.424,26.569,9.377,58.608,-10.549,-8.205,90.256
'[00:04:48.496 12/07/2079]',-0.391,-26.569,-32.430,-7.033,-13.675,-14.066,-6.252,-32.821,-8.205,0.000,-9.377,-17.192,5.470,17.973,-9.377,-50.794,-5.079,-10.940,33.211,16.020,58.999,-14.847,-9.377,-186.764
'[00:04:48.500 12/07/2079]',-0.781,-22.271,-32.039,-15.629,-19.536,-18.755,-6.642,-26.178,-13.675,-7.033,-13.284,-6.252,1.172,16.801,-20.708,-37.900,-9.377,-8.596,32.821,20.317,33.993,-7.033,-20.708,-418.071
'[00:04:48.504 12/07/2079]',11.331,-22.271,-28.523,-16.410,-16.020,-14.457,-7.814,-16.801,-10.940,-5.470,-10.549,-3.516,5.861,12.503,-15.629,-34.383,-10.159,-5.861,29.304,18.755,16.020,-5.079,-15.629,-562.637
'[00:04:48.508 12/07/2079]',22.271,-28.132,-28.913,-20.708,-15.629,-14.847,-8.205,-15.238,-15.629,-7.424,-4.689,-6.252,4.298,1.172,-10.159,-29.304,-12.503,-6.252,29.695,26.569,-1.563,-17.973,-10.159,-620.073
'[00:04:48.512 12/07/2079]',18.364,-22.271,-18.364,-23.443,-17.582,-10.549,-2.735,-13.675,-20.708,-4.689,1.172,-7.424,-3.907,0.000,-7.033,-19.145,-11.722,-1.954,19.145,28.132,-16.020,-16.020,-7.033,-624.762
'[00:04:48.516 12/07/2079]',19.536,-7.424,-10.159,-18.755,-5.861,-1.954,1.954,-10.159,-4.298,6.642,2.344,-5.470,1.563,9.377,1.172,-12.112,-2.735,3.516,10.940,11.722,-16.020,-3.907,1.172,-616.947
'[00:04:48.520 12/07/2079]',17.973,0.781,-10.940,-17.582,-5.079,-1.954,5.861,-7.424,-3.126,5.861,6.642,-3.516,2.344,8.596,7.033,-13.284,-1.954,5.079,11.722,5.079,-19.536,3.126,7.033,-563.028
'[00:04:48.523 12/07/2079]',8.205,3.126,-4.689,-11.722,-11.331,-0.781,8.205,-1.954,-3.907,5.861,12.503,-2.735,3.516,11.331,0.391,-5.079,1.954,6.642,5.470,10.159,-11.722,1.954,0.391,-442.295
'[00:04:48.527 12/07/2079]',6.252,3.516,-1.172,-3.516,-10.549,-0.391,7.424,8.205,-2.344,5.470,8.987,3.516,11.722,8.596,1.172,-6.252,5.079,9.768,1.954,12.112,5.470,-2.735,1.172,-279.365
'[00:04:48.531 12/07/2079]',3.126,1.172,-3.907,-2.344,-18.755,-3.907,6.252,13.284,-9.377,0.781,7.033,8.596,4.298,-0.391,0.391,2.344,0.781,9.377,4.689,6.642,-1.563,-1.954,0.391,-105.495
'[00:04:48.535 12/07/2079]',-5.470,-5.861,0.391,-2.735,-26.178,-7.424,6.252,11.331,-17.582,-0.781,3.907,2.735,-3.907,-9.377,-6.252,8.987,-3.126,4.689,0.391,11.722,3.516,-8.987,-6.252,28.132
'[00:04:48.539 12/07/2079]',6.252,-13.675,9.768,-2.735,-13.675,-3.907,5.470,11.331,-12.503,3.907,10.940,-0.391,-1.172,0.781,-2.735,4.689,-1.172,6.252,-8.987,21.099,3.126,-7.033,-2.735,111.355
'[00:04:48.543 12/07/2079]',2.344,-7.814,9.768,-7.424,-15.238,-5.470,3.516,12.894,-8.205,1.563,5.861,5.470,-2.344,-0.391,0.781,6.642,-3.907,5.861,-8.987,8.987,-4.689,0.781,0.781,130.501
'[00:04:48.547 12/07/2079]',-3.907,-7.424,-0.391,0.000,-19.927,-7.033,2.735,10.940,-9.377,-0.391,1.563,6.642,-2.735,-5.470,0.391,6.252,-9.377,2.344,1.172,8.205,-2.344,0.391,0.391,140.659
'[00:04:48.551 12/07/2079]',-3.907,-8.205,2.344,0.391,-18.364,-6.252,1.954,12.112,-8.987,-2.344,1.172,7.424,0.000,-8.987,1.954,3.907,-8.987,3.126,-1.563,17.582,0.781,-9.377,1.954,155.507
'[00:04:48.555 12/07/2079]',-5.079,-5.470,0.391,3.907,-18.364,-6.642,0.391,19.145,-10.549,-5.861,0.000,13.675,-1.563,-9.377,-7.033,15.238,-8.987,3.126,0.391,9.768,0.781,-5.079,-7.033,183.639
'[00:04:48.559 12/07/2079]',-1.172,-3.126,-0.391,5.079,-14.066,-5.470,0.781,18.755,-13.284,-4.689,1.954,8.987,-5.861,-4.298,-9.768,12.503,-10.159,3.126,1.172,5.470,-7.814,6.642,-9.768,216.850
'[00:04:48.563 12/07/2079]',-4.689,0.781,3.907,-1.172,-14.066,-2.344,3.907,12.112,-10.159,-1.954,5.470,6.642,-1.172,1.172,-5.079,5.079,-6.252,4.298,-3.126,5.079,-2.735,5.079,-5.079,244.982
'[00:04:48.566 12/07/2079]',-2.344,2.735,-0.391,2.344,-10.159,-0.391,2.344,10.159,-6.642,-1.563,3.126,14.847,0.781,13.284,-13.675,8.205,-1.172,7.033,1.172,-1.954,5.470,14.457,-13.675,248.107
'[00:04:48.570 12/07/2079]',-9.377,-5.470,-0.391,5.470,-14.066,-1.563,0.781,4.298,-3.126,1.172,1.563,8.205,5.470,3.126,-4.298,3.126,-0.781,5.861,1.172,-1.954,14.066,5.861,-4.298,224.274
'[00:04:48.574 12/07/2079]',-7.033,-12.503,5.861,4.298,-10.549,0.000,1.954,-1.563,-7.033,-0.781,5.861,5.079,5.079,-2.344,-2.344,2.735,0.781,3.516,-5.079,5.470,21.880,-3.907,-2.344,193.797
'[00:04:48.578 12/07/2079]',-7.814,-16.020,7.424,7.814,-8.596,-1.563,1.172,0.391,-6.642,-0.781,0.000,8.596,7.424,-12.112,-6.252,11.331,3.126,2.735,-6.642,11.722,26.960,-17.192,-6.252,168.010
'[00:04:48.582 12/07/2079]',-10.159,-10.940,3.516,3.907,-10.159,-4.298,1.954,-0.391,-11.331,-1.172,-6.252,7.424,1.563,-16.020,-9.377,11.722,0.000,0.391,-2.735,3.516,19.927,-12.503,-9.377,166.056
'[00:04:48.586 12/07/2079]',-1.172,1.563,2.735,-7.814,-3.907,-1.172,3.516,-3.516,-14.066,-1.954,-4.298,2.344,-1.954,-19.536,-3.126,7.033,0.391,-1.172,-1.954,0.781,-8.205,-5.861,-3.126,187.155
'[00:04:48.590 12/07/2079]',-7.424,0.000,1.954,-5.079,-8.596,-5.861,3.907,-0.781,-11.722,-2.735,-4.689,0.781,5.079,-15.629,-12.894,4.689,0.781,-3.907,-1.172,2.735,13.675,-15.629,-12.894,217.241
'[00:04:48.594 12/07/2079]',-11.331,-5.861,-3.126,-3.126,-12.894,-11.722,1.954,-1.954,-14.457,-4.298,-12.112,0.000,-5.079,-14.847,-14.457,3.126,-0.781,-6.642,3.907,-1.172,11.722,-7.814,-14.457,238.339
'[00:04:48.598 12/07/2079]',-13.675,-11.331,0.391,-4.298,-14.066,-11.722,0.391,-3.907,-16.020,-7.033,-12.894,0.391,-10.159,-14.457,-11.331,0.391,-2.344,-9.768,0.391,0.781,8.987,-5.470,-11.331,234.042
'[00:04:48.602 12/07/2079]',-19.536,-10.940,4.298,-5.079,-15.629,-10.940,0.391,-5.079,-17.973,-7.424,-7.033,-4.689,-11.331,-14.066,-6.252,-5.079,-0.781,-12.112,-3.516,2.344,16.020,-9.768,-6.252,209.035
'[00:04:48.605 12/07/2079]',-13.284,-8.205,3.126,-6.642,-12.112,-8.596,-0.391,-1.954,-16.410,-3.516,-3.126,-3.907,-10.940,-11.722,-6.642,1.954,0.391,-12.112,-2.344,7.424,0.391,-11.722,-6.642,184.420
'[00:04:48.609 12/07/2079]',-8.596,-0.781,0.000,-4.689,-7.424,-5.861,-3.126,1.954,-15.629,-5.470,-3.516,0.781,-8.596,-12.112,-8.987,5.079,-2.735,-9.768,0.781,-0.781,-8.596,-2.344,-8.987,180.122
'[00:04:48.613 12/07/2079]',-12.112,1.172,-2.344,-5.861,-9.768,-8.205,-1.172,0.391,-17.192,-7.424,-3.516,0.391,-9.377,-13.284,-5.079,1.172,-5.470,-8.987,3.126,-0.391,-5.079,-5.470,-5.079,204.347
'[00:04:48.617 12/07/2079]',-10.159,-1.954,-6.252,-9.377,-12.503,-10.159,-1.954,-3.516,-12.503,-6.642,-5.861,-1.172,-7.424,-4.298,-14.847,0.391,-7.033,-8.987,7.033,3.516,-9.377,0.000,-14.847,242.247
'[00:04:48.621 12/07/2079]',-15.629,-5.470,-5.470,-6.642,-15.238,-12.894,-3.907,-1.172,-9.377,-7.424,-8.205,0.781,-5.861,-10.549,-16.410,7.424,-7.033,-9.768,6.252,2.344,-8.987,-3.907,-16.410,264.908
'[00:04:48.625 12/07/2079]',-14.066,-9.377,-0.781,-5.861,-11.331,-12.894,-2.735,-3.126,-12.503,-6.252,-5.470,-6.252,-9.768,-10.549,-10.549,0.391,-5.470,-12.112,1.563,1.172,3.907,-10.159,-10.549,270.769
'[00:04:48.629 12/07/2079]',-14.847,-5.470,-1.563,-6.252,-10.940,-9.768,-1.954,-5.079,-10.159,-1.563,-7.033,-5.079,-6.642,-6.252,-11.331,0.000,-0.391,-14.457,2.344,4.298,2.735,-7.814,-11.331,260.611
'[00:04:48.633 12/07/2079]',-16.801,-0.781,-4.689,-0.391,-8.205,-7.033,-3.126,-3.126,-5.861,0.391,-14.847,-1.563,-3.516,-11.722,-15.238,7.814,2.735,-14.847,5.470,-1.563,3.907,-4.298,-15.238,247.326
'[00:04:48.637 12/07/2079]',-12.112,-3.907,-5.470,2.344,-5.079,-5.470,-4.298,-2.735,-9.768,-1.954,-11.722,-7.033,-7.814,-16.020,-12.894,5.470,1.172,-17.973,6.252,-7.033,6.642,-1.172,-12.894,242.247
'[00:04:48.641 12/07/2079]',-10.549,-6.252,-3.907,0.391,-5.470,-4.689,-5.470,-3.516,-10.549,-2.735,-9.377,-10.940,-6.642,-25.006,-10.549,8.596,0.781,-21.490,4.689,-1.563,0.000,-5.861,-10.549,242.637
'[00:04:48.645 12/07/2079]',-10.159,-3.126,-5.470,0.781,-4.689,-6.252,-6.252,0.391,-4.689,-3.126,-9.377,-8.596,-2.735,-27.350,-10.940,12.894,-1.172,-20.317,6.252,0.000,-8.987,-7.814,-10.940,252.015
'[00:04:48.648 12/07/2079]',-10.549,-0.781,-6.252,1.954,-2.735,-7.814,-5.079,1.172,-1.954,-5.079,-10.159,-6.642,-3.516,-23.834,-10.940,13.284,-5.861,-20.317,7.033,-8.987,-2.735,-5.861,-10.940,273.504
'[00:04:48.652 12/07/2079]',-12.894,3.126,-1.563,-3.126,-1.172,-8.205,-1.954,-2.344,3.126,-1.172,-8.596,-6.642,2.344,-17.973,-7.424,8.987,-8.596,-18.364,2.344,-14.847,4.298,-2.344,-7.424,304.762
'[00:04:48.656 12/07/2079]',-13.284,5.470,-6.642,0.781,0.391,-7.814,-4.298,-0.391,0.000,-1.563,-10.940,-2.344,-3.126,-15.629,-10.159,13.284,-10.549,-19.145,7.424,-12.503,0.391,-1.563,-10.159,335.629
'[00:04:48.660 12/07/2079]',-14.457,0.781,-6.252,6.642,0.781,-5.861,-8.205,0.391,0.391,-4.298,-12.503,1.954,-3.907,-15.629,-9.377,14.847,-14.457,-17.582,7.033,-12.503,3.907,-1.954,-9.377,357.900
'[00:04:48.664 12/07/2079]',-17.582,0.391,-6.642,-0.391,-2.344,-5.079,-8.987,-6.252,-5.079,-6.642,-14.847,2.344,-9.377,-15.238,-8.596,8.596,-18.755,-18.364,7.424,-16.410,3.126,5.861,-8.596,358.291
'[00:04:48.668 12/07/2079]',-13.284,0.391,-7.814,-5.861,-1.954,-3.516,-11.331,-8.205,-8.596,-8.205,-10.940,0.000,-14.457,-16.020,-8.205,10.159,-20.708,-20.708,8.596,-7.814,-17.192,4.689,-8.205,350.867
'[00:04:48.672 12/07/2079]',-1.563,3.126,-9.377,-7.424,7.033,-1.172,-14.457,-5.079,-1.954,-7.814,-5.079,-1.954,-8.205,-17.582,-10.549,17.973,-17.973,-19.536,10.159,-4.689,-28.913,-4.298,-10.549,348.523
'[00:04:48.676 12/07/2079]',2.735,3.126,-3.516,-14.066,10.159,-0.781,-12.112,-8.205,0.391,-5.079,-3.516,-8.596,-5.470,-12.503,-12.894,13.675,-18.364,-18.755,4.298,-15.238,-24.225,5.079,-12.894,373.919
'[00:04:48.680 12/07/2079]',7.814,4.689,-5.861,-21.490,11.722,-1.563,-10.940,-12.112,0.000,-5.470,-5.861,-9.768,-8.205,-12.503,-15.238,14.457,-19.145,-19.145,6.642,-15.629,-37.509,8.987,-15.238,432.527
'[00:04:48.684 12/07/2079]',-5.079,16.410,-3.126,-15.238,10.159,-1.172,-6.642,-8.205,0.000,-5.079,-6.252,-7.033,-10.940,-14.066,-5.861,12.503,-16.020,-15.238,3.907,-18.755,-20.708,-1.172,-5.861,486.447
'[00:04:48.688 12/07/2079]',-9.768,15.629,2.735,-11.331,8.205,-0.781,-4.298,-4.298,-2.344,-4.689,-3.516,-2.344,-12.503,-14.066,-4.298,16.410,-14.457,-10.549,-1.954,-25.006,-16.020,6.642,-4.298,520.830
'[00:04:48.691 12/07/2079]',-7.814,12.894,5.079,-11.722,8.205,-2.344,-0.391,-5.470,-1.954,-2.344,-1.954,-4.298,-10.549,-9.377,-1.563,10.549,-16.801,-8.596,-4.298,-25.006,-14.457,8.596,-1.563,518.486
'[00:04:48.695 12/07/2079]',-8.205,9.377,2.735,-4.298,5.861,-5.079,0.391,-0.391,-2.344,-3.516,-1.563,1.172,-8.987,-9.768,0.781,10.549,-17.582,-6.642,-1.954,-12.894,-12.503,-1.563,0.781,496.606
'[00:04:48.699 12/07/2079]',-8.205,-1.954,-1.954,2.735,3.907,-8.596,-3.126,-0.781,3.907,-1.954,-5.470,3.907,-1.954,0.391,-1.172,2.344,-20.708,-6.642,2.735,-15.629,3.907,6.252,-1.172,465.348
'[00:04:48.703 12/07/2079]',-1.954,-10.940,-5.470,5.470,4.689,-12.112,-5.861,0.781,3.126,-4.298,-8.987,7.033,-0.391,6.642,-8.596,0.000,-25.788,-9.377,6.252,-14.066,9.377,14.066,-8.596,448.156
'[00:04:48.707 12/07/2079]',-7.424,-12.112,-2.344,0.000,3.907,-13.675,-7.424,-3.126,-0.391,-3.516,-6.252,-1.172,-3.907,-3.516,1.563,-5.861,-25.006,-13.675,3.126,-4.689,8.596,0.000,1.563,443.858
'[00:04:48.711 12/07/2079]',-14.457,3.907,2.344,4.689,12.112,-7.814,-6.642,0.391,8.205,0.391,-5.079,-1.954,1.954,-5.861,1.563,1.954,-17.973,-11.722,-1.563,-9.377,21.099,-3.126,1.563,422.369
'[00:04:48.715 12/07/2079]',-19.536,6.642,-1.563,2.735,7.033,-12.112,-5.470,0.391,4.689,-1.954,-8.596,-0.781,-1.954,-14.457,4.689,4.689,-20.708,-12.112,2.344,-18.364,14.847,0.391,4.689,373.529
'[00:04:48.719 12/07/2079]',-22.271,10.159,-0.781,-3.126,1.954,-13.284,-0.391,-3.516,-2.735,-2.735,-2.735,-7.814,-8.205,-16.020,5.079,1.172,-20.708,-11.722,1.563,-13.284,7.033,-1.563,5.079,327.424
'[00:04:48.723 12/07/2079]',-22.271,3.907,3.126,4.298,1.954,-12.894,1.172,-1.172,0.781,-0.781,0.391,-6.642,-2.735,-9.377,0.000,4.689,-15.629,-10.549,-2.344,-11.331,27.741,-6.642,0.000,308.669
'[00:04:48.727 12/07/2079]',-20.317,-0.391,-5.470,8.987,-3.907,-12.894,-1.954,1.172,-1.954,-3.516,-2.735,1.172,-4.298,-7.424,-1.172,5.470,-16.801,-8.205,6.252,-15.629,20.708,1.563,-1.172,303.199
'[00:04:48.730 12/07/2079]',-11.722,-5.861,1.172,3.907,3.516,-6.642,-5.470,-3.126,-0.391,0.391,-0.781,-2.735,-5.079,-4.689,0.000,5.470,-11.722,-8.987,-0.391,-10.940,7.424,11.331,0.000,263.346
'[00:04:48.734 12/07/2079]',-16.410,-5.861,3.516,3.907,1.563,-7.033,-3.126,-5.079,5.470,7.814,-1.954,-5.861,6.252,-6.642,-1.172,7.033,-3.907,-8.987,-2.735,-5.079,17.582,0.781,-1.172,194.969
'[00:04:48.738 12/07/2079]',-17.192,-5.079,1.954,6.252,1.563,-7.424,-3.516,-3.516,3.126,7.033,0.391,-9.768,3.907,-16.020,-0.391,14.066,0.391,-9.377,-1.172,-5.079,10.549,-1.563,-0.391,90.256
'[00:04:48.742 12/07/2079]',-12.894,-11.331,1.954,7.033,4.298,-7.814,-4.298,-5.861,1.563,7.033,-0.781,-16.801,1.563,-17.192,-1.954,8.987,-2.344,-10.549,-1.172,-6.252,12.894,2.344,-1.954,-5.861
'[00:04:48.746 12/07/2079]',-19.145,-0.781,3.516,3.516,0.000,-12.112,6.252,-6.642,5.861,8.205,-0.391,-13.675,0.391,0.000,-1.172,1.172,-3.126,-7.814,-2.735,-8.987,12.112,14.066,-1.172,-96.508
'[00:04:48.750 12/07/2079]',-20.708,9.377,8.205,0.391,3.126,-2.344,5.470,-8.596,9.768,7.033,0.391,-7.424,0.391,7.814,3.516,-1.954,-2.735,-1.563,-7.424,-14.847,24.615,12.112,3.516,-174.261
'[00:04:48.754 12/07/2079]',-16.020,6.642,12.112,6.252,7.033,4.298,-1.172,0.000,15.238,5.861,-0.391,-1.954,1.954,3.907,7.033,3.907,-2.735,-1.954,-11.331,-20.317,22.271,14.066,7.033,-259.048
'[00:04:48.758 12/07/2079]',-7.033,15.238,12.894,-1.954,14.847,7.424,-0.781,-2.344,12.112,5.079,3.126,-5.861,2.344,1.563,6.252,3.907,0.000,-5.470,-12.112,-18.755,5.861,15.629,6.252,-335.238
'[00:04:48.762 12/07/2079]',-8.987,16.801,10.549,-1.954,10.549,8.596,-1.172,-1.954,7.814,5.861,1.954,-6.252,3.907,-3.907,5.079,3.907,2.344,-7.814,-9.768,-14.457,10.159,3.516,5.079,-387.204
'[00:04:48.766 12/07/2079]',-6.252,12.112,3.907,4.298,10.549,9.377,-5.470,0.000,5.861,6.252,-5.079,-5.470,0.781,-13.284,0.781,13.284,2.735,-10.159,-3.126,-15.629,-0.391,8.596,0.781,-416.508
'[00:04:48.770 12/07/2079]',-3.126,14.847,3.907,-1.954,12.112,7.424,-2.735,-4.298,4.298,6.642,-6.642,-8.987,-0.781,-5.470,-6.252,8.596,0.391,-10.940,-3.126,-16.020,-7.033,22.271,-6.252,-441.514
'[00:04:48.773 12/07/2079]',-5.861,10.940,5.470,-1.172,9.768,5.861,-2.735,-4.298,10.940,10.549,-6.642,-8.987,4.298,-4.298,3.907,2.344,1.172,-10.549,-4.689,-7.424,-3.516,11.331,3.907,-472.381
'[00:04:48.777 12/07/2079]',-9.768,9.377,7.033,0.391,8.205,3.907,-6.252,1.563,9.768,5.079,-8.987,0.000,2.344,-5.861,1.954,7.033,-0.391,-7.424,-6.252,-8.987,4.298,7.814,1.954,-493.871
'[00:04:48.781 12/07/2079]',-8.205,4.689,4.298,-2.735,7.424,0.391,-5.079,-3.516,9.377,1.954,-10.549,-2.344,1.172,-3.907,-2.344,4.298,-2.735,-7.814,-3.516,-11.331,1.172,14.066,-2.344,-502.857
'[00:04:48.785 12/07/2079]',-10.940,0.781,3.126,-7.033,1.954,-2.735,-5.079,-7.424,10.940,0.391,-9.377,-8.205,5.470,-5.079,-1.172,-5.079,-3.516,-10.940,-2.344,-4.689,-0.781,12.112,-1.172,-498.559
'[00:04:48.789 12/07/2079]',-8.596,0.781,1.954,-2.735,1.172,-1.954,-5.861,-1.563,11.331,-2.344,-2.344,-8.987,6.252,-8.987,-1.954,2.344,-3.516,-8.987,-1.172,-4.298,-1.954,1.563,-1.954,-478.242
'[00:04:48.793 12/07/2079]',-6.252,0.391,-1.172,-1.954,3.516,-3.516,-5.861,-2.735,9.768,-4.689,-3.126,-9.377,0.781,-4.689,-4.298,0.391,-6.252,-6.642,1.954,-11.331,-9.377,17.582,-4.298,-452.063
'[00:04:48.797 12/07/2079]',-7.814,5.079,1.172,-5.079,5.470,-3.907,-2.735,-4.689,14.847,0.000,-7.814,-9.377,4.689,2.735,-1.954,-8.205,-8.596,-5.470,-0.391,-13.675,-2.344,25.006,-1.954,-408.694
'[00:04:48.801 12/07/2079]',-14.457,9.768,0.000,-4.298,2.344,-7.814,-0.781,-1.563,11.331,-2.735,-6.252,-5.079,5.079,-0.781,2.344,-10.159,-8.596,-3.126,0.781,-12.894,8.205,14.457,2.344,-375.092
'[00:04:48.805 12/07/2079]',-10.940,3.907,1.172,0.391,4.689,-7.033,-1.172,0.000,10.159,-1.172,-5.079,-10.549,4.689,1.954,-7.033,-6.642,-8.596,-1.563,-0.391,-6.642,9.768,18.364,-7.033,-353.602
'[00:04:48.809 12/07/2079]',-6.642,-3.907,5.861,1.172,4.298,-5.079,-1.172,-0.781,12.112,1.954,-9.377,-14.066,9.377,3.516,-17.582,-5.079,-8.987,-3.516,-5.079,0.781,14.066,19.145,-17.582,-363.370
'[00:04:48.813 12/07/2079]',-14.847,-1.563,0.781,-1.563,-3.907,-4.689,-2.344,-3.907,13.675,2.344,-14.066,-17.973,9.768,-8.205,-9.768,-7.033,-9.768,-6.252,0.000,7.033,8.205,4.298,-9.768,-379.389
'[00:04:48.816 12/07/2079]',-14.457,0.391,-1.172,1.954,-1.563,-4.298,-3.126,-3.516,10.549,1.172,-17.192,-15.238,7.033,-6.642,-12.503,-7.424,-8.987,-5.470,1.954,1.954,14.847,7.033,-12.503,-370.403
'[00:04:48.820 12/07/2079]',-11.722,-9.768,-2.344,5.079,0.391,-7.033,-7.424,-3.126,7.424,1.172,-17.973,-12.894,2.735,-7.033,-10.549,-5.861,-9.768,-9.377,3.126,2.735,15.238,9.377,-10.549,-320.391
'[00:04:48.824 12/07/2079]',-14.457,-14.847,4.298,0.781,-1.172,-9.768,-7.424,-3.907,9.768,2.344,-14.066,-12.503,8.987,-8.596,-3.907,-8.987,-8.596,-11.722,-3.516,9.377,19.145,3.907,-3.907,-238.339
'[00:04:48.828 12/07/2079]',-12.503,-11.331,-2.344,0.781,-2.735,-10.159,-8.596,-1.563,6.252,-0.391,-9.377,-9.377,8.596,-2.735,-9.768,-8.596,-6.252,-10.549,3.126,10.549,12.112,6.252,-9.768,-173.871
'[00:04:48.832 12/07/2079]',-8.596,-1.563,-4.298,1.172,-3.516,-7.033,-5.470,3.907,5.470,1.172,-10.159,-2.735,7.033,2.344,-10.940,-3.126,-5.470,-5.861,5.079,5.861,0.391,11.331,-10.940,-158.632
'[00:04:48.836 12/07/2079]',-6.642,8.987,0.000,-7.424,-3.516,-1.954,0.000,1.172,8.596,8.205,-7.424,-7.814,10.940,12.894,-10.549,-10.549,-1.954,-2.344,0.781,0.000,-2.735,21.099,-10.549,-182.076
'[00:04:48.840 12/07/2079]',-4.689,16.020,-7.814,-5.470,-4.298,-0.781,0.000,3.516,8.205,8.596,-4.689,-7.033,16.020,22.662,-16.020,-16.801,1.172,-1.954,8.596,-0.781,5.079,18.364,-16.020,-209.035
'[00:04:48.844 12/07/2079]',-2.344,6.252,-6.252,5.470,-5.470,-1.563,-3.126,14.066,3.516,5.861,-10.159,2.735,13.284,7.033,-7.033,-9.768,0.000,0.391,7.033,1.563,13.675,4.298,-7.033,-209.035
'[00:04:48.848 12/07/2079]',-7.424,-1.172,0.000,3.126,-8.987,-3.126,-3.516,11.331,5.079,8.205,-12.503,3.126,13.675,16.020,-11.722,-12.503,-1.954,-0.391,0.781,2.735,17.973,18.755,-11.722,-184.420
'[00:04:48.852 12/07/2079]',-7.424,-3.516,-1.954,-1.563,-13.675,-3.907,-6.252,10.159,5.079,4.298,-12.894,1.954,16.801,1.563,-5.470,-12.503,-3.516,-3.126,2.735,14.847,6.642,2.735,-5.470,-159.414
'[00:04:48.855 12/07/2079]',-3.516,-2.344,-1.172,2.735,-10.549,-0.391,-9.377,16.801,-5.079,1.563,-12.112,5.470,8.987,-1.563,-6.642,-9.768,-3.126,-2.344,1.954,19.927,9.768,-5.079,-6.642,-137.924
'[00:04:48.859 12/07/2079]',-5.470,0.391,0.391,-0.391,-10.940,1.563,-10.159,15.238,-5.079,1.172,-14.066,6.252,7.424,4.689,-17.192,-5.470,-4.689,0.000,0.391,7.033,8.987,12.112,-17.192,-120.733
'[00:04:48.863 12/07/2079]',-6.252,9.768,-1.954,-6.642,-11.722,0.781,-3.907,9.377,-0.781,5.861,-17.582,1.563,12.894,0.000,-14.066,-7.424,-3.907,-0.781,2.735,1.172,4.298,7.033,-14.066,-93.382
'[00:04:48.867 12/07/2079]',-8.205,15.238,-5.470,-5.079,-10.940,0.781,-3.516,9.377,2.735,6.252,-20.708,3.516,18.755,1.954,-22.271,-5.079,0.781,-1.172,6.252,-1.954,17.973,2.735,-22.271,-70.330
'[00:04:48.871 12/07/2079]',-7.814,0.391,1.563,0.000,-9.768,-0.391,-5.470,10.940,7.814,5.470,-21.490,3.516,22.271,0.391,-25.006,-1.954,3.126,-1.954,-0.781,0.000,25.006,3.516,-25.006,-65.250
'[00:04:48.875 12/07/2079]',-3.907,4.298,2.344,-8.987,-6.642,-6.252,0.391,7.033,12.503,6.642,-19.536,-2.735,29.695,-1.172,-22.662,-7.424,4.689,-7.033,-1.563,3.907,16.020,0.391,-22.662,-87.521
'[00:04:48.879 12/07/2079]',-1.172,-0.781,-0.391,-10.940,-5.470,1.172,-7.814,0.000,1.563,2.735,-19.536,-7.814,23.834,-5.079,-24.615,-16.801,4.298,-9.377,1.172,15.238,19.145,-4.298,-24.615,-119.170
'[00:04:48.883 12/07/2079]',-4.689,-3.907,-1.954,-4.298,-8.987,1.172,-13.284,6.252,-5.861,-1.954,-23.053,1.172,15.629,-5.470,-32.821,-6.252,2.735,-8.987,2.735,9.768,17.192,4.298,-32.821,-129.328
'[00:04:48.887 12/07/2079]',-6.252,-3.907,-3.516,-1.172,-8.987,0.000,-10.159,4.298,-7.424,-1.563,-19.145,0.391,16.801,-4.689,-37.900,-2.344,0.391,-7.814,4.298,4.689,14.847,14.457,-37.900,-99.243
'[00:04:48.891 12/07/2079]',3.126,-6.642,-1.563,-5.861,-5.079,0.781,-10.159,2.735,-6.252,-1.563,-13.675,-4.298,18.755,0.391,-42.589,-1.954,2.344,-9.768,2.344,12.894,9.768,10.549,-42.589,-41.416
'[00:04:48.895 12/07/2079]',1.563,-7.033,0.781,-1.172,-3.126,-3.907,-7.814,10.549,-1.563,-3.907,-17.582,3.126,22.662,-13.675,-37.509,7.033,1.563,-10.159,0.000,15.629,20.708,-10.549,-37.509,17.192
'[00:04:48.898 12/07/2079]',-8.596,-11.331,-1.172,-0.391,-11.722,-11.722,-6.252,7.814,3.126,-8.987,-23.443,6.642,23.834,-12.503,-44.933,10.159,-3.126,-12.894,1.954,12.112,23.053,-3.126,-44.933,32.821
'[00:04:48.902 12/07/2079]',-10.549,-13.675,-1.172,-7.424,-12.894,-13.675,-5.470,-0.391,4.689,-10.549,-21.099,-3.126,25.397,-16.410,-31.258,-7.033,-5.470,-16.410,1.954,14.066,27.350,-7.814,-31.258,12.112
'[00:04:48.906 12/07/2079]',-12.112,-12.503,-5.861,-5.079,-12.503,-14.457,-8.596,0.391,-0.781,-14.847,-19.145,-0.391,17.582,-21.880,-33.993,1.954,-7.033,-17.973,6.642,14.066,24.615,-16.020,-33.993,-21.880
'[00:04:48.910 12/07/2079]',-17.582,-16.801,-10.549,0.391,-15.238,-17.582,-11.331,0.391,-7.814,-16.801,-21.099,0.781,5.079,-16.410,-36.337,1.172,-9.768,-17.582,11.331,5.861,24.615,-0.391,-36.337,-42.979
'[00:04:48.914 12/07/2079]',-16.801,-8.205,-15.629,-6.642,-14.066,-17.582,-10.159,-5.470,-9.377,-13.675,-19.145,0.391,1.563,-1.954,-30.867,-10.159,-10.940,-16.801,16.410,0.781,21.880,5.079,-30.867,-43.761
'[00:04:48.918 12/07/2079]',-8.205,0.391,-15.629,-14.847,-8.596,-15.629,-9.377,-3.907,-13.675,-9.768,-17.192,1.954,-2.735,-18.755,-19.536,2.735,-8.596,-19.927,16.410,4.689,0.391,-14.457,-19.536,-36.337
'[00:04:48.922 12/07/2079]',-15.238,-2.344,-10.940,-5.079,-12.894,-15.238,-9.377,3.907,-13.284,-11.331,-14.847,3.126,-1.172,-31.258,-18.364,12.894,-7.033,-15.238,11.722,10.159,1.563,-25.006,-18.364,-26.960
'[00:04:48.926 12/07/2079]',-20.317,-7.424,-5.079,-5.861,-18.755,-13.675,-7.033,1.563,-1.172,-10.549,-11.722,1.563,10.159,-30.476,-16.020,15.238,-9.377,-9.768,5.861,7.814,0.391,-20.317,-16.020,-14.847
'[00:04:48.930 12/07/2079]',-20.317,-6.642,1.172,-7.033,-17.582,-11.331,-3.907,0.391,-2.735,-10.549,-13.675,2.344,5.079,-34.774,-11.331,16.410,-8.205,-8.987,-0.391,9.377,1.954,-21.880,-11.331,-1.954
'[00:04:48.934 12/07/2079]',-22.662,-5.470,0.391,-1.563,-17.192,-10.549,-1.563,0.391,-5.079,-12.112,-11.331,5.079,0.391,-29.304,-10.159,15.238,-5.861,-3.907,0.391,6.252,12.503,-20.317,-10.159,3.516
'[00:04:48.938 12/07/2079]',-16.410,-4.689,-1.563,-3.907,-13.284,-9.377,-2.735,-0.781,-5.470,-9.768,-8.205,5.861,-1.172,-19.536,-8.596,12.112,-4.298,-1.563,2.344,1.563,8.987,-12.503,-8.596,-1.563
'[00:04:48.941 12/07/2079]',-8.596,5.861,-1.954,-11.331,-5.861,-3.907,-2.344,-3.516,-6.252,-4.298,-0.781,0.391,-3.907,-12.112,-1.563,6.642,0.391,-4.298,2.735,1.954,-5.470,-10.549,-1.563,-28.132
'[00:04:48.945 12/07/2079]',0.391,16.020,-8.205,-7.814,-0.391,0.391,-0.391,0.391,-15.629,-5.470,2.344,7.814,-14.066,-11.722,2.735,12.112,4.689,-3.126,8.987,3.907,-23.443,-9.768,2.735,-52.357
'[00:04:48.949 12/07/2079]',-1.172,7.814,-7.033,-1.172,-3.126,1.954,-4.298,3.516,-8.987,-9.377,2.344,12.503,-14.457,-10.159,4.298,16.020,5.079,-1.563,7.814,6.642,-30.867,-4.689,4.298,-66.032
'[00:04:48.953 12/07/2079]',-6.252,3.907,-1.172,-2.344,-3.516,1.563,-2.735,-0.781,-2.735,-4.298,-3.126,7.033,-8.987,-14.847,5.470,15.238,4.689,-3.516,1.954,2.735,-23.443,-2.735,5.470,-56.654
'[00:04:48.957 12/07/2079]',5.470,-5.470,3.126,-2.735,3.907,0.391,-3.907,-0.391,-5.861,-5.470,0.391,4.298,-10.940,-18.364,6.252,15.629,5.470,-6.252,-2.344,13.284,-19.927,-15.238,6.252,-35.165
'[00:04:48.961 12/07/2079]',-7.033,-10.159,5.861,0.781,-4.298,-3.516,-3.516,1.954,-6.642,-9.377,-0.781,8.205,-12.112,-19.536,5.079,17.582,3.516,-4.689,-5.079,11.722,-2.735,-23.443,5.079,-9.768
'[00:04:48.965 12/07/2079]',-5.861,0.000,8.205,-6.642,-1.172,-2.344,0.391,-0.391,0.000,-3.126,-3.907,10.940,-5.861,-14.847,3.907,20.317,5.470,-2.735,-7.424,1.563,-9.377,-13.675,3.907,-5.079
'[00:04:48.969 12/07/2079]',0.000,10.940,3.126,-8.205,-0.391,1.172,3.907,0.781,-7.033,-1.172,2.344,10.549,-16.410,-6.642,8.987,17.973,5.861,-1.563,-2.344,-1.563,-28.523,-7.424,8.987,-17.973
'[00:04:48.973 12/07/2079]',0.781,11.722,5.079,-0.391,1.563,4.689,4.298,6.252,-7.424,-1.954,8.596,17.973,-15.629,0.391,12.503,20.317,11.331,1.172,-4.298,5.470,-32.821,-7.814,12.503,-46.496
'[00:04:48.977 12/07/2079]',-1.563,20.317,5.470,-0.391,0.781,6.642,8.596,5.861,-2.344,1.563,5.861,19.145,-13.284,-3.126,20.708,19.927,11.722,5.470,-4.689,-5.861,-32.039,-6.252,20.708,-64.860
'[00:04:48.980 12/07/2079]',3.907,19.536,8.205,-4.298,3.907,10.159,9.768,2.735,-4.298,3.126,10.159,14.457,-17.582,0.781,24.615,14.847,8.205,7.424,-7.424,-6.642,-40.635,0.781,24.615,-58.999
'[00:04:48.984 12/07/2079]',6.642,16.801,10.940,-1.563,6.252,11.331,11.331,3.516,-4.689,3.516,14.457,16.410,-13.284,8.596,28.132,6.252,11.722,10.549,-10.159,-0.781,-21.880,-3.516,28.132,-33.211
'[00:04:48.988 12/07/2079]',5.079,10.159,10.549,0.781,1.954,7.424,11.331,6.252,-5.470,-0.391,15.238,19.145,-12.112,3.126,23.443,13.284,9.377,12.894,-9.768,-1.954,-12.503,-7.424,23.443,1.954
'[00:04:48.992 12/07/2079]',11.722,1.563,5.079,1.172,1.954,2.735,6.642,8.205,-8.596,-3.516,12.503,17.973,-12.894,-1.563,10.549,22.271,3.516,9.377,-4.298,-3.516,-16.801,-5.861,10.549,23.834
'[00:04:48.996 12/07/2079]',11.722,-4.298,-5.470,0.000,-1.954,-0.391,1.172,3.126,-7.424,-3.516,8.205,11.722,-9.768,-4.689,12.894,10.159,0.781,4.689,6.252,6.642,-28.132,-5.470,12.894,27.350
'[00:04:49.000 12/07/2079]',-3.516,-2.735,-6.252,0.391,-9.768,-3.907,1.563,-1.172,-9.768,-5.861,5.079,10.549,-12.894,-6.252,6.252,12.503,-1.172,3.907,7.033,5.470,-16.410,-9.768,6.252,6.642
'[00:04:49.004 12/07/2079]',1.563,5.470,-5.079,1.954,2.735,-1.172,1.563,0.391,-2.344,-2.344,1.954,8.205,-1.563,-12.894,1.954,17.973,0.391,2.735,5.861,-2.344,-7.033,-9.768,1.954,-28.523
'[00:04:49.008 12/07/2079]',-1.563,12.503,0.781,-3.126,0.391,1.954,6.252,-0.391,-1.563,2.344,10.549,0.781,-1.172,-8.205,13.284,7.814,0.781,4.689,0.000,-1.954,-9.768,-9.768,13.284,-67.204
'[00:04:49.012 12/07/2079]',-4.298,17.973,6.642,4.689,4.689,4.689,11.722,3.126,6.252,3.516,9.768,8.987,7.424,7.814,4.298,8.205,6.642,9.377,-5.861,0.000,17.973,-8.596,4.298,-91.429
'[00:04:49.016 12/07/2079]',1.954,24.225,0.000,5.470,9.377,2.735,10.159,8.596,2.344,-2.344,3.516,20.708,1.954,0.000,1.954,19.536,3.516,8.205,0.781,-6.642,7.814,-8.205,1.954,-94.164
'[00:04:49.020 12/07/2079]',-0.391,26.178,-1.563,-3.126,1.172,2.735,9.768,6.252,0.781,-1.954,8.987,14.457,-6.642,8.596,5.470,12.503,0.391,7.424,2.344,-9.377,-13.675,3.907,5.470,-81.661
'[00:04:49.023 12/07/2079]',7.033,15.629,5.079,1.563,9.768,6.642,7.033,5.470,6.252,-0.391,14.066,14.066,-1.563,13.675,7.814,13.284,6.252,6.642,-4.298,6.252,-16.801,1.172,7.814,-60.171
'[00:04:49.027 12/07/2079]',13.284,12.894,1.954,6.252,16.020,3.907,5.861,9.377,1.172,0.000,14.457,18.755,-3.907,12.112,11.331,13.675,8.596,7.033,-1.172,6.642,-11.331,-2.344,11.331,-38.681
'[00:04:49.031 12/07/2079]',-1.563,6.252,7.033,1.172,1.172,1.563,7.424,3.126,0.391,-0.391,12.894,13.284,-5.470,7.814,16.410,5.470,6.252,7.033,-6.252,0.391,-1.954,0.391,16.410,-15.238
'[00:04:49.035 12/07/2079]',-8.596,3.907,10.940,5.079,0.000,3.516,7.424,1.172,4.689,1.954,12.503,7.814,3.907,9.377,14.457,-1.172,10.549,5.079,-10.159,5.861,21.490,-5.470,14.457,5.079
'[00:04:49.039 12/07/2079]',-5.861,3.516,8.987,4.298,0.391,4.298,1.954,3.907,1.563,0.000,11.331,7.033,1.954,0.391,9.768,5.079,11.722,1.954,-8.205,9.768,15.238,-13.675,9.768,25.397
'[00:04:49.043 12/07/2079]',-14.847,0.391,8.205,3.907,-6.642,-1.954,3.907,1.954,-1.563,-1.172,7.033,4.689,-1.954,-2.735,10.549,2.344,7.424,1.172,-7.424,1.172,11.722,-2.735,10.549,36.728
'[00:04:49.047 12/07/2079]',-16.410,6.642,4.298,0.781,-7.424,0.000,3.907,0.000,1.563,0.391,5.861,3.907,0.391,-1.563,11.722,0.781,7.814,0.391,-3.516,-5.079,7.814,1.563,11.722,28.523
'[00:04:49.051 12/07/2079]',-8.205,6.642,0.391,3.126,-3.516,2.735,2.344,0.000,-3.126,1.172,4.689,8.205,-5.861,-8.205,20.708,3.907,11.722,1.172,0.391,5.470,-14.457,-3.126,20.708,13.284
'[00:04:49.055 12/07/2079]',-7.814,4.689,2.344,5.470,-3.126,-3.516,9.768,3.516,-3.126,-0.391,10.159,7.424,-2.344,-2.344,21.490,-2.344,11.331,5.079,-1.563,0.391,-8.205,4.298,21.490,12.894
'[00:04:49.059 12/07/2079]',-8.596,1.954,6.642,3.516,-3.516,10.159,0.000,-2.344,0.391,1.172,7.424,1.172,0.391,0.391,14.847,-5.079,13.284,2.735,-5.861,-3.126,6.252,5.470,14.847,39.072
'[00:04:49.063 12/07/2079]',-7.033,6.252,9.768,1.954,0.781,13.675,0.000,-3.126,0.781,0.391,5.861,1.172,1.954,5.861,8.987,-8.596,15.629,0.391,-8.987,1.172,12.112,3.126,8.987,85.958
'[00:04:49.066 12/07/2079]',-12.894,7.424,10.159,2.735,0.391,11.331,-0.391,-3.126,1.563,1.172,-1.954,3.126,2.344,5.470,-3.126,-1.563,14.066,0.000,-9.377,-3.126,21.099,7.424,-3.126,121.123
'[00:04:49.070 12/07/2079]',-12.894,3.907,8.205,0.000,0.391,10.940,-3.907,-8.205,-5.079,1.954,-1.954,-4.689,-4.689,-7.424,4.298,-1.954,10.549,-2.735,-7.424,-8.596,16.020,1.563,4.298,133.626
'[00:04:49.074 12/07/2079]',-4.689,7.814,9.377,-1.172,6.252,11.722,-0.781,-6.252,-2.344,2.344,5.470,-7.033,0.781,-10.549,11.331,-2.735,13.675,-3.516,-8.596,-3.126,10.940,-6.642,11.331,129.328
'[00:04:49.078 12/07/2079]',-4.298,9.768,4.689,4.298,5.861,7.814,1.563,-0.781,-2.344,1.563,6.642,-0.391,3.126,-14.066,10.549,5.079,13.675,0.391,-3.907,-0.781,3.126,-9.768,10.549,122.686
'[00:04:49.082 12/07/2079]',0.391,12.894,0.000,-0.781,7.424,8.205,0.391,-5.079,0.391,1.563,3.516,-3.516,0.391,-10.549,6.252,6.252,10.940,1.954,0.781,-10.940,-6.252,0.000,6.252,124.640
'[00:04:49.086 12/07/2079]',1.172,15.238,-2.735,-1.172,11.722,6.252,4.298,-11.331,7.814,0.391,3.126,-8.596,8.205,-5.861,-0.781,1.563,10.940,1.172,3.516,-13.284,10.940,-1.563,-0.781,115.653
'[00:04:49.090 12/07/2079]',-3.516,13.675,-3.126,-0.781,8.205,3.126,3.516,-9.377,14.066,0.781,0.781,-7.033,16.020,-7.814,-1.954,3.516,10.159,0.781,3.907,-4.689,10.549,-10.159,-1.954,86.740
'[00:04:49.094 12/07/2079]',-5.470,10.940,1.563,-2.735,8.596,3.516,1.563,-10.159,11.331,1.563,0.391,-6.252,9.768,-5.079,5.470,-3.516,5.861,3.907,-0.781,-5.861,10.940,-4.689,5.470,56.264
'[00:04:49.098 12/07/2079]',-5.470,7.424,2.735,-4.689,7.033,4.689,1.954,-14.847,8.205,1.172,2.344,-6.252,5.079,4.298,2.344,-6.642,3.907,5.470,-1.954,-6.252,5.470,10.159,2.344,29.304
'[00:04:49.102 12/07/2079]',-5.861,9.768,4.689,-3.516,6.252,9.768,1.954,-13.675,2.344,2.735,11.331,-3.907,5.079,12.503,9.377,-15.629,7.814,7.814,-3.907,1.954,0.391,12.894,9.377,32.430
'[00:04:49.105 12/07/2079]',-3.516,12.112,6.252,-3.126,6.252,10.159,2.344,-8.205,-4.689,-0.391,16.801,-1.563,-2.735,22.271,-10.159,-1.172,9.377,10.549,-5.470,2.344,-14.847,26.569,-10.159,41.807
'[00:04:49.109 12/07/2079]',7.033,12.112,0.000,-4.298,10.549,8.205,4.298,-9.377,-0.781,-1.954,14.847,-4.298,-0.391,14.066,-15.238,7.424,7.814,11.722,0.781,-6.252,-18.364,25.788,-15.238,41.026
'[00:04:49.113 12/07/2079]',1.172,13.284,-3.516,-3.907,4.689,7.033,6.252,-11.331,-2.735,-1.563,12.894,-6.252,-0.391,-3.126,-3.126,7.424,7.424,10.940,4.298,-3.907,-7.814,-0.781,-3.126,10.940
'[00:04:49.117 12/07/2079]',-3.516,9.377,-0.781,-1.172,0.391,5.861,3.126,-5.861,-1.563,-6.252,10.159,-0.391,-2.735,-15.238,1.563,17.582,5.861,10.940,1.563,-0.781,-7.033,-12.894,1.563,-43.370
'[00:04:49.121 12/07/2079]',1.172,7.814,-7.814,4.689,2.344,3.516,1.954,-2.344,-3.907,-3.516,11.722,3.516,-6.642,-16.410,9.768,21.099,3.516,12.503,8.596,-8.596,-9.768,-10.159,9.768,-76.972
'[00:04:49.125 12/07/2079]',3.516,4.689,-3.126,3.907,3.516,5.470,5.861,-6.252,-10.159,4.689,19.145,-1.172,-7.424,-12.894,21.880,10.159,4.298,13.284,3.907,-3.516,-6.642,-15.238,21.880,-63.687
'[00:04:49.129 12/07/2079]',2.735,9.768,-0.391,7.814,3.516,8.596,5.861,0.391,-10.549,7.033,18.755,8.205,-7.424,1.563,15.238,13.675,7.424,15.238,1.172,-0.391,-16.020,0.391,15.238,-25.397
'[00:04:49.133 12/07/2079]',6.252,10.159,-1.563,3.516,3.907,1.954,11.331,0.391,-6.252,7.033,14.847,9.377,-2.344,-2.344,14.066,14.847,6.642,14.847,2.344,-7.033,-14.847,1.172,14.066,-8.205
'[00:04:49.137 12/07/2079]',11.331,16.020,1.172,-6.252,7.033,7.814,10.159,-3.907,1.954,12.894,12.894,1.563,3.126,-1.172,11.331,15.238,8.596,14.457,-0.391,-14.457,-13.675,-0.391,11.331,-57.045
'[00:04:49.141 12/07/2079]',7.814,3.516,4.689,7.424,7.033,18.755,-4.298,2.344,-6.252,5.470,12.503,3.516,-6.252,-8.596,8.987,21.099,12.112,8.205,-3.907,0.391,-11.331,-5.861,8.987,-130.891
'[00:04:49.145 12/07/2079]',0.000,2.344,3.126,5.861,0.391,14.066,-5.079,1.563,-7.814,2.344,12.112,1.954,-8.596,-9.768,8.987,17.973,12.503,6.252,-2.344,1.954,-15.629,-4.298,8.987,-189.890
'[00:04:49.148 12/07/2079]',-5.079,11.331,2.735,3.907,0.391,17.192,-3.516,0.391,-6.252,4.298,15.629,4.298,-9.768,-3.126,17.192,12.112,14.457,9.768,-1.954,-5.470,-18.364,3.126,17.192,-179.341
'[00:04:49.152 12/07/2079]',-4.689,15.629,4.689,5.470,3.126,18.364,0.391,-0.781,-2.735,8.205,16.020,4.298,-3.126,-1.172,24.225,7.033,18.755,8.205,-3.907,-1.172,-18.364,1.172,24.225,-123.858
'[00:04:49.156 12/07/2079]',-3.516,13.675,7.814,4.298,2.735,12.894,5.079,1.172,-1.563,7.424,14.847,5.079,-3.907,3.126,13.284,12.112,21.490,5.470,-7.033,0.391,-11.722,-0.781,13.284,-64.469
'[00:04:49.160 12/07/2079]',1.563,16.410,8.205,2.344,7.033,12.894,6.252,2.735,1.954,8.205,11.722,5.470,-1.954,3.907,7.424,18.755,21.880,7.033,-7.424,-8.987,-12.112,2.344,7.424,-42.589
'[00:04:49.164 12/07/2079]',1.954,14.066,3.516,7.033,7.033,15.238,4.298,-0.781,0.000,8.205,3.516,4.689,-7.814,2.735,4.298,17.582,20.708,5.079,-2.735,-11.722,-5.861,5.861,4.298,-61.734
'[00:04:49.168 12/07/2079]',-1.563,9.377,5.470,8.596,4.689,16.020,3.126,-2.344,-3.126,7.424,7.814,1.172,-7.814,14.457,-4.689,10.940,21.880,3.907,-4.689,-2.735,0.391,10.159,-4.689,-98.071
'[00:04:49.172 12/07/2079]',-7.033,7.814,5.861,8.596,1.172,14.066,1.563,-1.172,-0.391,9.377,9.377,-2.344,-1.563,-1.954,3.126,15.629,21.880,4.298,-5.079,-2.735,-0.391,-5.470,3.126,-125.031
'[00:04:49.176 12/07/2079]',-3.907,12.112,2.735,7.424,5.079,14.847,1.172,-2.344,3.907,10.549,9.377,-4.689,4.298,-10.940,8.596,16.020,19.536,3.126,-1.954,-1.172,-21.099,-3.516,8.596,-124.640
'[00:04:49.180 12/07/2079]',-0.391,14.457,5.079,0.000,7.814,15.238,1.563,-6.642,-0.781,9.377,7.814,-6.642,1.172,-10.940,10.940,7.033,18.364,0.391,-4.298,2.344,-21.490,-5.861,10.940,-101.197
'[00:04:49.184 12/07/2079]',2.344,10.159,4.298,1.563,13.284,13.284,-1.172,-7.424,-7.033,5.861,5.079,-5.470,-6.642,-12.503,7.033,10.940,17.582,0.391,-3.516,1.954,-18.364,-5.861,7.033,-67.985
'[00:04:49.188 12/07/2079]',-0.391,4.689,4.689,0.391,9.377,8.596,-0.391,-8.205,-10.159,7.033,0.391,-8.596,-12.112,-4.689,-3.126,8.596,13.675,0.391,-3.907,-3.907,-10.549,7.033,-3.126,-46.886
'[00:04:49.191 12/07/2079]',3.907,5.861,8.205,-4.689,9.768,3.907,7.424,-9.377,-8.987,7.814,6.642,-12.894,-8.205,5.079,5.861,-10.159,12.894,-0.391,-7.424,-5.470,-1.954,10.549,5.861,-21.880
'[00:04:49.195 12/07/2079]',-2.344,10.549,13.284,-7.033,2.735,3.516,10.549,-4.689,-7.033,3.126,12.503,-7.814,-4.298,3.516,9.377,-8.205,12.894,0.391,-12.503,-6.252,3.516,1.172,9.377,20.708
'[00:04:49.199 12/07/2079]',-10.940,14.457,7.424,-2.735,-8.987,4.689,8.596,2.735,-0.781,0.781,5.861,-0.391,-2.344,3.907,-0.781,3.516,9.768,0.781,-6.642,-12.894,-8.596,9.768,-0.781,120.733
'[00:04:49.203 12/07/2079]',-3.126,24.615,8.596,-9.377,-1.172,4.689,16.020,1.172,-3.126,-1.563,14.457,-3.516,-1.954,-0.391,12.503,-3.907,8.596,3.516,-7.814,-16.801,-21.099,12.503,12.503,280.147
'[00:04:49.207 12/07/2079]',1.172,7.424,17.192,-1.563,1.954,22.271,-0.391,0.391,1.172,-0.781,16.410,-6.252,5.079,-8.987,13.675,0.391,13.284,3.126,-16.410,0.781,-11.722,-3.907,13.675,447.375
'[00:04:49.211 12/07/2079]',-3.126,0.781,7.033,6.252,1.172,16.020,-4.298,-1.172,1.172,5.079,4.298,-6.252,2.735,5.861,-11.331,6.642,12.503,4.298,-6.252,3.516,6.252,-0.391,-11.331,565.763
'[00:04:49.215 12/07/2079]',-2.344,-3.516,0.391,0.000,1.954,8.596,-4.298,-11.722,-5.470,10.549,-1.563,-12.894,-2.735,10.940,-11.331,-5.470,8.205,3.126,0.391,1.563,12.503,1.954,-11.331,560.293
'[00:04:49.219 12/07/2079]',-7.814,-7.424,-5.470,-3.907,-2.735,7.033,-6.252,-23.443,-6.642,11.331,-3.907,-16.801,-0.781,5.470,-0.391,-20.708,7.424,-1.172,6.252,7.814,30.867,-14.457,-0.391,410.256
'[00:04:49.223 12/07/2079]',-3.907,-4.689,-15.629,-6.252,-0.781,0.781,-10.549,-21.099,-4.689,8.596,-5.861,-17.192,2.344,0.781,-7.033,-16.020,7.814,-3.126,16.410,8.987,28.523,-27.350,-7.033,141.050
'[00:04:49.227 12/07/2079]',-0.781,-3.126,-22.662,-10.159,-1.172,-1.954,-10.940,-23.053,-5.861,6.252,-10.159,-16.801,2.344,-1.954,-6.642,-20.708,4.298,-3.126,23.443,-1.563,30.476,-21.099,-6.642,-169.182
'[00:04:49.230 12/07/2079]',2.735,3.907,-24.615,-16.410,0.781,3.516,-11.331,-27.350,0.391,3.126,-8.987,-18.755,6.252,-7.033,-3.516,-20.317,5.079,-1.954,25.397,-2.344,12.894,-16.020,-3.516,-444.249
'[00:04:49.234 12/07/2079]',8.205,-0.391,-20.317,-17.973,-2.735,7.424,-12.503,-22.662,-0.781,1.563,-6.252,-18.755,7.033,-15.629,-8.987,-6.252,8.596,0.391,21.099,10.159,-7.033,-22.271,-8.987,-639.219
'[00:04:49.238 12/07/2079]',14.847,-3.907,-10.940,-17.973,-0.391,8.596,-6.642,-19.145,-5.861,11.722,-1.563,-23.053,1.954,-7.424,-8.987,-3.907,14.847,5.861,11.722,9.377,-21.490,-8.596,-8.987,-716.972
'[00:04:49.242 12/07/2079]',14.066,-1.563,-2.344,-15.238,0.781,10.159,-1.172,-16.020,-14.066,10.549,3.126,-25.397,-9.768,-7.814,0.391,-6.642,18.755,7.814,3.126,5.861,-21.880,-5.861,0.391,-707.985
'[00:04:49.246 12/07/2079]',11.331,0.391,0.781,-14.457,-1.954,11.331,3.516,-15.238,-19.145,12.112,6.642,-22.271,-15.629,-9.377,6.252,-3.126,24.225,7.814,0.000,5.861,-27.741,-3.907,6.252,-669.304
'[00:04:49.250 12/07/2079]',8.987,13.675,2.735,-12.894,0.781,13.675,7.033,-9.768,-11.331,16.020,5.861,-16.801,-12.112,7.424,1.563,-3.126,31.258,7.814,-1.954,-6.642,-20.708,8.205,1.563,-640.781
'[00:04:49.254 12/07/2079]',6.642,27.741,1.954,-12.894,3.907,16.020,8.987,-6.642,-2.735,12.112,11.722,-10.549,-7.033,18.755,1.172,-2.735,30.476,8.205,-1.172,-23.443,-21.099,25.397,1.172,-580.220
'[00:04:49.258 12/07/2079]',14.847,21.880,0.000,-10.549,7.033,16.410,7.814,-7.424,0.781,16.410,14.847,-12.112,0.781,17.582,0.391,0.781,30.476,5.079,0.781,-9.377,-30.085,20.317,0.391,-469.255
'[00:04:49.262 12/07/2079]',15.629,5.861,3.126,-5.079,5.861,12.894,5.079,-5.861,1.563,17.582,10.940,-9.377,4.298,16.020,-0.781,1.954,30.867,5.861,-2.344,8.987,-32.039,15.238,-0.781,-302.418
'[00:04:49.266 12/07/2079]',10.940,-2.344,1.954,-1.563,2.344,7.424,3.907,-6.252,0.391,14.066,2.344,-7.814,1.563,-2.344,10.159,1.172,24.615,3.907,-1.172,7.424,-29.695,7.033,10.159,-126.593
'[00:04:49.270 12/07/2079]',7.424,-5.861,3.126,-3.126,-0.781,7.033,5.470,-10.549,-2.735,14.847,1.563,-10.940,-3.126,-9.377,14.457,1.172,23.053,2.344,-2.344,8.596,-26.569,0.391,14.457,34.383
'[00:04:49.273 12/07/2079]',8.596,4.298,12.112,-1.563,4.689,14.457,8.205,-5.079,1.172,17.582,6.252,-5.470,-2.344,1.954,14.457,5.079,28.913,3.516,-11.331,9.377,-25.006,0.391,14.457,150.037
'[00:04:49.277 12/07/2079]',10.549,16.801,18.755,-3.126,9.377,19.536,8.987,3.907,12.112,18.755,7.424,2.344,6.642,19.536,10.940,3.516,28.913,6.252,-17.973,-5.079,-6.642,5.470,10.940,224.664
'[00:04:49.281 12/07/2079]',11.331,17.973,19.536,-2.344,8.987,18.755,10.549,6.252,14.847,21.099,5.079,10.159,7.424,35.556,10.159,-2.735,23.834,7.424,-18.755,-13.284,1.172,22.271,10.159,272.723
'[00:04:49.285 12/07/2079]',11.722,15.238,18.364,-3.907,8.205,14.847,8.596,8.987,12.503,16.410,1.172,14.066,7.814,35.165,0.000,2.344,20.317,2.344,-17.582,0.391,-7.424,17.973,0.000,302.027
'[00:04:49.289 12/07/2079]',16.020,3.516,13.675,-3.126,7.424,6.642,3.907,10.159,8.205,12.112,-2.735,7.424,8.596,6.642,4.689,4.689,13.675,-2.735,-12.894,8.987,-7.814,-8.987,4.689,301.245
'[00:04:49.293 12/07/2079]',14.847,-0.391,3.516,-3.516,4.689,0.781,1.172,6.252,3.516,5.470,-10.940,4.689,2.344,-11.331,8.205,4.298,3.516,-5.861,-2.735,3.126,-16.410,-9.768,8.205,283.663
'[00:04:49.297 12/07/2079]',12.112,0.000,0.391,-10.159,1.563,1.563,-0.781,-1.172,-0.781,0.781,-15.629,2.344,-5.079,-8.596,0.391,0.781,0.391,-10.549,0.391,9.377,-27.741,-3.907,0.391,270.769
'[00:04:49.301 12/07/2079]',7.814,6.252,8.596,-12.503,1.563,5.079,0.391,1.172,-0.781,1.954,-9.377,4.298,-5.861,9.377,6.252,-13.284,2.344,-5.861,-7.814,7.033,-8.596,-2.344,6.252,250.061
'[00:04:49.305 12/07/2079]',3.126,8.205,12.894,-8.987,0.781,5.470,0.781,6.642,3.126,2.344,-7.424,14.847,3.126,23.834,-4.298,-9.377,1.954,-1.954,-12.112,-5.861,13.675,10.549,-4.298,228.571
'[00:04:49.309 12/07/2079]',1.954,1.954,17.973,-8.596,-3.126,5.470,0.391,8.987,7.033,0.391,-1.954,14.457,8.205,38.291,-16.410,-10.159,2.735,-4.689,-17.192,-2.735,13.675,25.006,-16.410,195.751
'[00:04:49.313 12/07/2079]',4.689,10.549,21.099,-12.503,2.344,1.563,4.689,13.675,2.344,0.000,0.391,19.536,7.814,19.145,8.205,-13.284,3.907,-3.516,-20.317,-1.954,14.457,-0.391,8.205,163.321
'[00:04:49.316 12/07/2079]',2.735,11.331,4.298,0.000,0.000,0.391,0.391,16.020,1.954,-1.172,-1.563,23.834,8.596,4.298,14.847,-5.861,0.391,-4.689,-3.516,-4.298,2.735,-6.642,14.847,135.971
'[00:04:49.320 12/07/2079]',6.642,0.391,6.252,-4.689,0.781,-1.954,-1.172,11.331,-6.252,-2.344,-4.689,15.238,-5.861,4.689,8.987,-7.424,-3.126,-8.596,-5.470,1.563,-7.814,1.563,8.987,127.375
'[00:04:49.324 12/07/2079]',10.940,1.954,4.298,-9.377,5.470,-2.344,-3.907,8.205,-12.503,-3.126,-1.954,9.377,-8.596,-1.563,17.192,-15.629,-3.907,-10.549,-3.516,8.596,-13.675,-8.205,17.192,147.302
'[00:04:49.328 12/07/2079]',5.079,-2.735,2.735,-4.298,0.000,-0.781,-9.377,11.722,-15.629,-5.861,-4.298,14.847,-7.424,0.391,-6.642,1.563,-6.252,-7.424,-1.954,15.238,-9.768,-7.033,-6.642,195.360
'[00:04:49.332 12/07/2079]',5.079,-12.112,-0.781,-4.689,-3.126,-3.907,-11.331,6.252,-8.987,-5.079,-13.675,12.894,-5.861,8.596,-16.410,-1.954,-7.424,-7.424,1.563,7.033,0.781,3.516,-16.410,243.419
'[00:04:49.336 12/07/2079]',5.079,-9.377,-1.954,-7.814,-3.516,-7.814,-6.252,3.126,-5.861,-7.033,-8.987,10.940,1.172,-3.907,-7.424,-1.172,-6.252,-8.987,2.735,8.987,-3.126,-3.907,-7.424,272.723
'[00:04:49.340 12/07/2079]',12.112,-4.689,-1.954,-3.126,3.516,-5.861,-2.735,6.642,-10.159,-0.781,-3.516,9.377,-2.344,-8.205,1.954,2.735,-1.563,-6.252,2.735,10.940,-7.814,-14.847,1.954,276.630
'[00:04:49.344 12/07/2079]',14.066,2.735,-3.907,0.391,5.861,-2.344,0.781,8.987,-1.563,4.298,-0.391,8.596,-1.563,12.112,-9.768,10.549,3.126,-1.563,4.689,0.391,-12.112,3.126,-9.768,260.611
'[00:04:49.348 12/07/2079]',6.642,14.847,-0.391,-7.033,1.172,-5.470,13.284,3.516,2.344,8.205,0.781,0.000,1.563,-3.126,3.907,8.596,7.033,1.563,1.172,-8.596,-19.536,1.172,3.907,243.419
'[00:04:49.352 12/07/2079]',7.814,16.410,4.689,-7.814,1.954,14.066,3.907,-0.391,4.298,12.894,5.079,-8.596,4.689,-7.424,9.377,6.252,14.847,4.689,-3.907,0.781,-23.053,-6.252,9.377,226.618
'[00:04:49.355 12/07/2079]',0.000,1.954,7.033,2.344,-5.470,10.940,3.516,2.344,5.470,13.284,3.126,-3.516,2.344,-0.391,8.987,7.424,19.536,6.252,-6.252,4.689,-12.112,-1.563,8.987,213.333
'[00:04:49.359 12/07/2079]',2.344,-0.391,5.861,-1.954,-5.861,9.377,5.079,-3.907,1.563,8.987,3.516,-7.814,-0.781,-1.172,7.033,1.563,20.317,3.516,-5.079,-1.954,-11.331,8.205,7.033,202.393
'[00:04:49.363 12/07/2079]',5.861,-2.735,0.781,0.000,0.781,7.814,4.689,-9.768,-10.159,10.549,6.642,-6.252,-7.814,-10.549,21.880,-2.344,21.099,0.391,0.000,2.735,-10.159,-5.470,21.880,202.393
'[00:04:49.367 12/07/2079]',6.252,0.000,-3.126,4.689,6.642,0.781,6.642,-7.033,-13.675,14.847,3.126,0.000,-10.159,0.391,8.205,6.642,21.490,-0.781,3.907,-5.079,1.563,-1.172,8.205,219.194
'[00:04:49.371 12/07/2079]',7.033,7.424,-6.642,0.000,9.377,-3.516,7.814,-5.861,-12.503,10.940,8.205,-1.172,-5.470,4.689,0.391,5.470,16.801,-0.781,7.424,-19.927,0.000,11.331,0.391,255.140
'[00:04:49.375 12/07/2079]',3.907,2.735,1.172,1.954,13.675,0.000,5.079,-7.814,-7.033,10.159,16.020,-5.079,0.391,3.126,13.284,-3.516,14.066,-1.563,-0.391,-7.424,-5.470,13.284,13.284,289.915
'[00:04:49.379 12/07/2079]',0.391,1.954,6.252,3.126,9.768,2.735,1.563,-3.907,-8.987,13.675,9.377,-0.781,-5.470,14.066,11.331,-5.861,10.159,-0.781,-5.470,0.000,-0.391,11.331,11.331,305.934
'[00:04:49.383 12/07/2079]',-2.344,2.344,9.377,0.391,1.954,4.298,3.126,0.000,-5.470,11.722,3.516,5.861,-5.470,37.509,-7.814,-7.033,3.907,1.172,-8.596,-5.079,0.391,37.509,-7.814,291.087
'[00:04:49.387 12/07/2079]',2.735,5.079,0.000,0.391,0.781,5.861,0.781,-0.391,-3.126,8.205,2.735,7.033,-5.079,17.192,11.722,-7.814,-1.563,0.781,0.781,-5.470,-7.424,14.457,11.722,261.392
'[00:04:49.391 12/07/2079]',5.861,6.642,1.563,-4.689,1.954,5.470,1.172,0.000,0.000,8.205,5.861,4.689,2.735,7.814,10.940,-2.344,-5.470,0.391,-0.781,-1.172,3.516,-10.549,10.940,245.763
'[00:04:49.395 12/07/2079]',0.781,6.252,-2.735,1.563,-1.563,2.344,-3.126,8.596,2.344,0.391,2.735,13.675,9.377,6.252,0.391,3.126,-11.722,1.172,3.516,-7.424,9.768,-2.344,0.391,266.862
'[00:04:49.398 12/07/2079]',1.172,6.642,-4.689,-2.344,1.563,1.563,-7.814,4.689,-2.735,-8.987,10.549,11.722,3.126,15.629,4.689,-13.284,-18.364,0.000,5.470,-8.205,-10.159,21.490,4.689,333.284
'[00:04:49.402 12/07/2079]',-1.954,7.424,5.470,0.000,7.814,1.172,-4.298,5.861,-3.126,-3.907,10.159,10.940,0.781,14.066,10.549,-11.331,-21.099,0.391,-4.689,-5.079,6.642,9.768,10.549,410.256
'[00:04:49.406 12/07/2079]',-2.735,2.344,7.033,8.987,6.642,-3.907,-1.172,14.066,-1.954,1.172,3.516,13.284,3.516,15.629,1.563,-4.689,-22.662,2.735,-6.252,-7.814,20.708,9.377,1.563,478.242
'[00:04:49.410 12/07/2079]',2.344,7.424,1.172,12.112,11.331,-1.563,-1.954,16.020,-5.079,8.596,-5.079,16.020,-3.126,19.927,6.642,-9.377,-24.615,3.907,-0.391,-15.238,22.271,10.940,6.642,512.625
'[00:04:49.414 12/07/2079]',-4.298,9.768,1.172,8.205,7.814,-11.331,6.642,10.940,10.159,6.642,-10.940,14.066,5.079,12.112,12.894,-10.549,-30.476,4.298,-0.391,-21.880,41.026,-3.516,12.894,527.082
'[00:04:49.418 12/07/2079]',-6.252,10.549,-3.126,2.344,5.079,-11.722,5.079,3.907,16.020,1.563,-8.596,6.642,9.377,5.079,9.768,-9.377,-32.821,5.079,3.907,-17.973,36.337,-10.159,9.768,517.705
'[00:04:49.422 12/07/2079]',1.954,10.940,-5.079,-1.563,8.596,-1.172,-5.861,4.298,12.894,-2.344,-3.126,5.470,5.470,5.861,6.642,-5.861,-32.430,3.516,5.861,-7.424,0.000,0.781,6.642,496.606
'[00:04:49.426 12/07/2079]',2.344,0.000,4.298,-5.079,8.205,-2.344,-4.689,0.391,13.284,-3.516,2.735,1.954,4.298,13.675,7.033,-11.722,-33.211,3.516,-3.516,-3.516,-0.781,10.940,7.033,487.228
'[00:04:49.430 12/07/2079]',1.172,0.781,1.172,-4.298,5.470,0.000,-4.298,-1.563,5.861,-0.781,0.391,0.391,0.781,18.364,-0.781,-12.503,-31.648,3.516,-0.391,0.391,0.391,12.894,-0.781,477.851
'[00:04:49.434 12/07/2079]',3.516,0.000,-0.781,7.424,6.642,1.954,-3.907,4.689,1.172,1.563,-2.735,10.159,4.298,23.443,0.781,-18.364,-28.913,7.424,1.563,0.000,17.582,14.066,0.781,475.897
'[00:04:49.438 12/07/2079]',0.000,-7.424,2.344,14.066,7.033,-3.126,0.000,4.689,5.861,4.689,-1.172,9.377,11.722,25.788,7.814,-26.960,-28.132,8.596,-1.563,-7.814,47.277,14.457,7.814,468.083
'[00:04:49.441 12/07/2079]',0.781,-4.298,-5.079,14.457,7.814,-7.033,-0.391,5.861,2.735,0.000,-0.391,7.033,11.331,13.284,-6.252,-9.768,-27.350,4.689,5.861,-5.470,43.761,3.126,-6.252,463.785
