'Time and date','FP1-F7','F7-T7','T7-P7','P7-O1','FP1-F3','F3-C3','C3-P3','P3-O1','FP2-F4','F4-C4','C4-P4','P4-O2','FP2-F8','F8-T8','T8-P8','P8-O2','FZ-CZ','CZ-PZ','P7-T7','T7-FT9','FT9-FT10','FT10-T8','T8-P8'
'hh:mm:ss.mmm dd/mm/yyyy','uV','uV','uV','uV','uV','uV','uV','uV','uV','uV','uV','uV','uV','uV','uV','uV','uV','uV','uV','uV','uV','uV','uV'
'[14:43:12.000 06/11/2076]',93.382,57.436,-77.753,-2.344,78.535,20.708,-15.238,-13.284,84.396,18.364,-38.291,15.629,88.694,-50.403,-2.735,44.542,-30.085,58.999,78.535,-17.973,-56.654,-15.238,-2.735
'[14:43:12.004 06/11/2076]',0.391,0.391,0.391,0.391,0.391,0.391,0.391,0.391,0.391,0.391,0.391,0.391,0.391,0.391,0.391,0.391,0.391,0.391,0.391,0.391,0.391,0.391,0.391
'[14:43:12.008 06/11/2076]',0.391,0.391,0.391,0.391,0.391,0.391,0.391,0.391,0.391,0.391,0.391,0.391,0.000,0.391,0.391,0.000,0.391,0.391,0.391,0.391,0.391,0.391,0.391
'[14:43:12.012 06/11/2076]',0.000,0.391,0.391,0.391,0.000,0.391,0.391,0.781,0.000,0.391,0.391,-0.391,-0.781,1.172,0.391,-1.172,0.391,0.391,0.391,0.000,0.391,0.391,0.391
'[14:43:12.016 06/11/2076]',1.172,0.000,0.391,0.391,1.172,0.391,1.172,-0.781,1.172,0.391,0.391,1.954,3.516,-1.954,0.000,3.516,0.391,1.172,0.391,2.344,-0.391,0.000,0.000
'[14:43:12.020 06/11/2076]',2.344,-0.391,0.391,0.391,2.735,0.781,0.391,-1.954,3.126,1.172,0.000,4.689,6.642,-3.907,-0.391,7.033,0.781,0.781,0.391,2.344,-0.781,0.391,-0.391
'[14:43:12.023 06/11/2076]',0.391,1.172,0.391,-0.781,0.781,1.172,-2.344,1.563,0.781,0.391,-0.781,-0.781,-2.344,3.516,1.954,-3.516,0.391,-1.563,0.391,-4.298,2.344,1.954,1.954
'[14:43:12.027 06/11/2076]',-1.954,2.735,0.391,0.000,-1.954,0.781,-1.954,4.298,-2.344,0.000,0.391,-8.205,-10.940,9.377,3.126,-13.284,0.391,-1.172,0.391,-7.033,3.907,1.954,3.126
'[14:43:12.031 06/11/2076]',0.781,0.000,0.391,1.172,0.391,0.391,3.907,-2.344,0.391,1.563,1.954,-0.391,3.516,-1.954,-0.391,3.126,1.172,3.516,0.391,5.079,-1.563,-1.172,-0.391
'[14:43:12.035 06/11/2076]',4.689,-2.344,0.391,0.391,4.298,1.172,4.689,-6.642,5.079,2.735,0.781,12.112,17.192,-12.503,-3.126,20.317,1.954,4.298,0.391,10.549,-4.298,-1.563,-3.126
'[14:43:12.039 06/11/2076]',5.861,-0.391,0.781,-1.563,6.642,2.344,-1.172,-3.907,7.814,2.735,-1.954,12.503,14.847,-7.814,-0.391,15.629,0.781,0.000,0.000,0.781,-0.391,1.954,-0.391
'[14:43:12.043 06/11/2076]',17.192,0.000,-0.781,-5.079,19.145,6.642,-1.172,-15.238,22.662,10.159,-5.861,21.099,37.118,-19.145,-1.563,32.039,4.689,3.126,1.563,2.735,-3.907,2.735,-1.563
'[14:43:12.047 06/11/2076]',17.192,5.079,-0.391,-10.549,21.490,12.894,-12.503,-10.549,25.397,12.894,-8.205,9.768,23.053,-1.954,6.642,11.722,7.033,-1.954,1.172,-19.145,5.470,9.768,6.642
'[14:43:12.051 06/11/2076]',17.192,12.112,0.391,-14.847,21.880,17.973,-16.020,-9.768,24.615,17.973,-8.205,-3.907,8.987,14.847,14.847,-9.377,10.549,0.000,0.391,-35.946,11.722,15.629,14.847
'[14:43:12.055 06/11/2076]',20.708,12.894,1.954,-14.457,25.006,23.443,-5.861,-21.099,27.741,25.788,-3.126,-7.033,19.536,9.377,12.894,0.391,15.629,12.503,-1.172,-26.960,8.596,12.112,12.894
'[14:43:12.059 06/11/2076]',19.927,13.675,5.470,-14.457,23.834,28.913,0.781,-28.523,30.476,30.476,-0.391,-1.954,30.867,2.735,9.768,14.847,17.192,23.053,-4.689,-22.662,7.814,12.894,9.768
'[14:43:12.063 06/11/2076]',17.582,18.755,10.940,-16.410,21.880,33.602,3.126,-27.350,31.648,30.476,0.391,3.516,33.211,2.735,9.377,20.317,15.238,28.913,-10.159,-27.350,11.331,16.020,9.377
'[14:43:12.066 06/11/2076]',14.847,25.006,18.364,-17.192,19.927,39.463,8.205,-25.397,33.993,32.430,2.344,-1.172,33.211,7.814,10.940,14.847,14.066,39.853,-17.582,-32.039,16.020,19.536,10.940
'[14:43:12.070 06/11/2076]',13.675,32.430,24.225,-15.238,18.364,44.542,16.020,-23.834,35.165,33.211,9.768,-3.516,33.602,14.066,15.629,10.940,14.066,51.575,-23.443,-36.728,15.629,24.225,15.629
'[14:43:12.074 06/11/2076]',17.582,37.900,30.867,-14.066,21.490,49.231,22.662,-21.099,35.165,34.383,20.708,5.079,37.118,19.536,23.834,14.847,14.457,64.078,-30.085,-41.026,16.801,29.695,23.834
'[14:43:12.078 06/11/2076]',21.880,42.589,35.946,-10.940,26.960,53.919,29.304,-21.490,35.165,39.072,30.476,16.410,43.370,22.662,32.430,23.443,16.801,75.800,-35.165,-41.807,14.066,35.556,32.430
'[14:43:12.082 06/11/2076]',21.490,48.840,37.509,-7.033,26.178,58.217,34.774,-18.364,32.430,40.244,39.853,6.642,35.946,33.211,39.853,11.331,16.801,84.005,-36.728,-48.449,14.457,39.072,39.853
'[14:43:12.086 06/11/2076]',17.192,52.357,42.589,-5.470,22.271,57.436,37.118,-10.940,28.132,41.807,44.151,0.391,26.960,44.542,46.886,-2.344,16.801,88.303,-41.807,-55.873,21.880,42.198,46.886
'[14:43:12.090 06/11/2076]',14.066,50.012,47.277,-1.563,19.536,53.919,43.761,-7.424,27.350,46.496,42.979,13.284,34.383,41.807,51.184,3.126,20.708,92.601,-46.496,-51.966,27.741,44.933,51.184
'[14:43:12.094 06/11/2076]',11.331,47.277,49.231,1.563,17.582,52.357,46.886,-6.252,28.913,47.668,47.668,17.973,43.370,36.337,55.482,7.814,21.490,97.680,-48.449,-40.635,23.443,44.151,55.482
'[14:43:12.098 06/11/2076]',8.205,48.840,52.747,1.172,15.238,55.092,43.761,-2.344,26.960,44.542,55.482,9.377,33.993,41.416,64.469,-1.563,20.317,94.164,-51.966,-39.072,18.755,44.151,64.469
'[14:43:12.102 06/11/2076]',4.689,48.840,55.092,1.563,10.549,54.310,41.026,4.689,25.397,44.542,57.436,8.987,30.476,48.449,69.548,-10.549,23.443,91.819,-54.310,-39.853,21.880,47.668,69.548
'[14:43:12.105 06/11/2076]',-1.172,41.416,55.092,8.596,2.344,42.979,46.105,11.722,26.178,45.714,49.621,14.847,37.509,48.840,65.641,-13.675,27.741,88.694,-54.310,-36.337,32.430,50.012,65.641
'[14:43:12.109 06/11/2076]',-6.252,37.900,55.092,10.159,-3.907,35.165,48.840,17.192,26.569,44.933,43.370,10.940,36.728,57.827,59.389,-27.350,31.258,78.926,-54.310,-40.244,47.668,54.310,59.389
'[14:43:12.113 06/11/2076]',-19.536,35.946,58.608,8.205,-18.755,14.847,50.403,36.337,19.145,48.059,21.880,8.596,21.099,87.521,54.701,-64.469,37.900,62.906,-57.827,-66.813,92.991,66.032,54.701
'[14:43:12.117 06/11/2076]',-28.132,27.741,49.621,21.490,-26.569,-5.861,43.761,60.952,11.331,41.807,-0.781,28.132,9.377,96.899,47.668,-73.065,31.648,47.668,-48.840,-75.800,110.183,71.502,47.668
'[14:43:12.121 06/11/2076]',-14.066,33.211,41.807,7.033,-10.940,7.424,38.681,33.602,17.582,35.556,17.582,7.033,21.490,77.363,44.933,-64.860,28.523,44.542,-41.026,-42.979,69.548,58.608,44.933
'[14:43:12.125 06/11/2076]',-10.549,31.648,35.165,7.424,-7.814,8.596,26.960,35.556,16.410,28.523,19.145,8.987,22.271,66.422,42.589,-56.264,19.145,34.774,-34.383,-31.258,52.747,52.747,42.589
'[14:43:12.129 06/11/2076]',-7.424,29.304,29.695,6.642,-3.907,7.424,21.099,33.993,17.192,23.053,19.145,16.410,31.648,51.575,36.337,-42.589,12.894,30.085,-28.913,-17.582,35.946,47.277,36.337
'[14:43:12.133 06/11/2076]',-4.689,29.695,27.741,1.954,-3.126,8.596,21.880,27.350,17.192,19.536,24.615,8.987,39.072,42.979,30.476,-40.244,8.596,27.741,-26.960,-5.861,25.788,39.853,30.476
'[14:43:12.137 06/11/2076]',-12.112,29.304,28.913,5.470,-12.894,1.172,23.834,40.244,8.987,18.755,17.973,10.549,30.476,50.794,25.006,-49.621,7.814,22.662,-28.132,-14.847,41.416,39.853,25.006
'[14:43:12.141 06/11/2076]',-17.192,27.741,30.867,10.159,-21.099,-6.252,27.741,52.747,1.563,18.364,8.205,27.741,28.913,52.357,21.099,-45.714,7.424,17.192,-30.085,-22.662,58.999,40.635,21.099
'[14:43:12.145 06/11/2076]',-16.020,27.741,32.821,8.987,-20.317,-3.516,32.821,46.886,1.172,16.410,14.066,31.258,35.556,43.370,20.708,-35.556,10.159,18.755,-32.039,-16.020,56.654,35.556,20.708
'[14:43:12.148 06/11/2076]',-16.020,31.648,33.211,5.861,-17.973,4.689,29.304,39.853,1.563,11.331,22.271,13.284,28.523,38.681,22.271,-39.463,8.987,15.238,-32.430,-12.112,49.231,29.695,22.271
'[14:43:12.152 06/11/2076]',-17.582,28.913,30.085,14.457,-18.364,4.298,22.271,48.059,-0.391,5.861,18.755,16.020,17.973,36.337,23.834,-36.728,6.642,10.159,-29.304,-15.629,48.059,26.569,23.834
'[14:43:12.156 06/11/2076]',-16.410,20.317,28.523,25.006,-14.457,-0.781,22.662,51.575,0.000,4.298,13.675,33.211,24.615,23.834,19.536,-16.020,10.159,10.940,-27.741,-10.940,47.668,23.053,19.536
'[14:43:12.160 06/11/2076]',-18.755,15.238,31.258,32.821,-12.112,-7.814,26.569,54.310,-0.391,6.642,9.377,38.291,27.350,23.053,16.410,-11.722,16.020,8.987,-30.476,-14.847,58.999,21.880,16.410
'[14:43:12.164 06/11/2076]',-32.039,10.159,30.085,53.919,-22.662,-23.834,20.317,90.256,-13.284,7.424,-8.987,50.403,0.000,46.886,17.192,-27.741,16.410,-1.563,-29.304,-47.277,92.210,32.039,17.192
'[14:43:12.168 06/11/2076]',-34.774,11.331,34.774,54.310,-22.271,-27.741,24.225,92.991,-16.020,14.066,-7.424,47.277,-2.735,57.045,19.145,-34.774,23.053,-0.781,-33.993,-58.608,106.276,37.118,19.145
'[14:43:12.172 06/11/2076]',-28.132,16.410,44.542,36.337,-12.503,-17.192,37.509,63.687,-8.205,23.443,10.549,18.364,11.331,52.357,21.880,-40.635,33.211,5.470,-43.761,-44.151,98.852,30.867,21.880
'[14:43:12.176 06/11/2076]',-15.238,15.238,37.509,37.509,-0.391,-3.516,25.006,54.701,-3.126,19.536,23.053,17.582,18.755,31.258,23.443,-15.238,27.350,3.516,-36.728,-21.880,62.125,22.271,23.443
'[14:43:12.180 06/11/2076]',-7.814,16.801,35.946,32.039,7.424,6.642,15.629,48.059,0.391,19.927,26.960,21.880,23.443,21.099,25.397,-0.391,26.178,3.126,-35.165,-12.503,45.714,17.973,25.397
'[14:43:12.184 06/11/2076]',-2.735,16.020,35.556,29.695,12.112,12.894,12.503,41.416,2.735,21.880,29.695,21.099,28.523,13.675,25.397,8.596,27.350,7.033,-34.774,-4.298,34.383,14.847,25.397
'[14:43:12.188 06/11/2076]',-3.516,13.284,30.867,38.681,11.331,12.112,7.033,48.059,0.391,21.099,27.350,24.225,21.490,15.238,23.834,12.503,25.397,7.033,-30.085,-6.252,33.602,14.847,23.834
'[14:43:12.191 06/11/2076]',-6.252,10.940,30.867,41.807,9.377,10.549,6.642,51.184,-2.344,25.006,23.834,25.788,17.973,23.053,22.662,9.377,26.178,8.596,-30.085,-13.675,44.542,19.536,22.662
'[14:43:12.195 06/11/2076]',-2.735,7.814,32.821,40.244,12.894,11.331,8.987,44.151,-0.391,26.960,28.132,22.662,24.615,23.053,21.490,9.768,27.741,12.112,-32.039,-10.159,44.933,21.099,21.490
'[14:43:12.199 06/11/2076]',-2.344,4.298,27.741,42.589,12.894,9.768,7.033,41.807,-0.391,23.053,31.258,15.238,25.006,21.490,18.364,5.470,24.615,13.284,-26.960,-6.642,40.635,19.536,18.364
'[14:43:12.203 06/11/2076]',-5.079,0.391,23.443,42.979,9.768,6.252,3.516,42.198,-1.954,16.801,30.085,10.549,18.755,23.834,14.066,0.391,19.145,10.549,-22.662,-8.987,42.589,19.927,14.066
'[14:43:12.207 06/11/2076]',-3.126,-1.563,23.443,33.602,11.331,6.642,1.954,31.258,1.172,13.675,29.695,14.066,27.741,16.801,8.596,7.033,16.020,10.549,-22.662,-5.079,42.198,18.364,8.596
'[14:43:12.211 06/11/2076]',2.735,-3.907,18.755,25.788,16.410,11.331,-1.563,17.973,4.689,7.033,30.085,17.973,37.509,3.907,0.781,19.927,13.284,10.159,-17.973,4.689,30.867,14.457,0.781
'[14:43:12.215 06/11/2076]',1.563,-5.470,12.112,25.006,15.238,10.940,-11.722,18.364,2.735,-2.344,22.662,16.801,26.178,6.252,-5.861,14.847,3.126,3.126,-11.331,0.391,31.258,14.066,-5.861
'[14:43:12.219 06/11/2076]',-0.781,-5.861,8.987,25.397,14.457,7.033,-15.238,20.708,-1.172,-7.033,14.847,19.927,17.973,14.066,-12.112,7.424,-2.344,-1.172,-8.205,-10.549,44.151,16.410,-12.112
'[14:43:12.223 06/11/2076]',-2.344,-11.331,8.205,26.569,12.503,0.000,-8.205,16.801,-3.907,-7.424,7.033,30.476,26.178,10.159,-23.443,12.503,-1.563,-0.391,-7.424,-9.377,56.264,15.238,-23.443
'[14:43:12.227 06/11/2076]',-12.503,-19.927,3.907,42.198,3.126,-21.099,-0.391,31.648,-12.112,-8.596,-12.503,52.357,23.834,17.973,-36.728,12.894,-4.298,-3.516,-3.126,-26.960,88.694,20.708,-36.728
'[14:43:12.230 06/11/2076]',-19.927,-11.722,11.722,23.834,-3.516,-22.662,9.768,19.536,-17.192,-1.563,-7.814,19.927,10.159,42.589,-37.900,-21.880,1.172,-6.642,-10.940,-46.886,115.263,24.615,-37.900
'[14:43:12.234 06/11/2076]',-13.284,-6.642,10.940,9.768,1.563,-12.503,10.549,1.172,-15.629,-1.563,-2.344,7.424,12.503,40.635,-39.853,-25.788,5.079,-1.172,-10.159,-42.198,107.448,19.536,-39.853
'[14:43:12.238 06/11/2076]',1.563,-4.689,0.781,5.861,14.066,5.861,4.298,-21.099,-14.457,-7.814,7.814,10.159,24.615,12.894,-45.324,3.126,5.861,4.298,0.000,-12.112,64.860,4.689,-45.324
'[14:43:12.242 06/11/2076]',9.377,-0.391,-2.735,1.563,18.364,22.271,0.391,-33.993,-18.755,-10.549,14.847,7.033,24.225,2.735,-45.714,12.112,5.079,9.768,3.516,-1.172,40.244,-1.563,-45.714
'[14:43:12.246 06/11/2076]',13.284,3.126,-3.516,-0.781,16.801,35.946,-3.907,-37.509,-23.443,-14.457,14.847,22.271,24.225,-6.252,-46.496,28.132,5.861,13.675,4.298,2.735,25.788,-8.205,-46.496
'[14:43:12.250 06/11/2076]',12.894,5.861,-1.954,0.391,11.331,42.589,-0.391,-35.946,-30.867,-14.847,14.066,34.383,24.225,-10.159,-47.668,37.900,7.033,19.536,2.735,2.735,17.973,-12.112,-47.668
'[14:43:12.254 06/11/2076]',9.377,11.331,1.954,-1.172,1.563,46.105,5.079,-31.648,-37.118,-8.596,14.066,31.258,16.801,-0.391,-46.105,30.085,10.549,25.006,-1.172,-8.205,21.880,-12.503,-46.105
'[14:43:12.258 06/11/2076]',11.331,16.020,5.861,-9.768,-1.563,51.966,8.987,-34.774,-37.118,-3.126,19.927,30.085,18.755,3.126,-42.589,30.867,15.629,30.085,-5.079,-12.894,20.708,-15.629,-42.589
'[14:43:12.262 06/11/2076]',17.192,16.020,5.079,-10.549,0.391,55.482,8.596,-35.946,-36.337,0.000,23.443,41.807,28.132,-2.344,-41.807,45.714,19.927,35.556,-4.298,-9.768,11.331,-18.364,-41.807
'[14:43:12.266 06/11/2076]',20.708,16.020,4.298,-9.768,0.391,55.482,9.377,-32.430,-39.853,2.735,24.225,37.509,25.397,2.344,-41.416,38.681,22.271,38.681,-3.516,-11.331,11.331,-19.536,-41.416
'[14:43:12.270 06/11/2076]',22.662,19.536,5.470,-14.066,0.391,57.436,10.940,-33.993,-41.807,3.126,32.430,26.178,22.271,7.814,-37.509,27.741,26.178,41.807,-4.689,-14.847,10.940,-21.880,-37.509
'[14:43:12.273 06/11/2076]',31.648,21.099,8.987,-19.927,5.861,64.860,12.894,-41.416,-39.072,0.781,41.807,35.556,33.993,-5.079,-33.993,45.714,27.350,50.794,-8.205,-4.689,-2.735,-28.523,-33.993
'[14:43:12.277 06/11/2076]',37.118,20.317,10.159,-16.410,11.331,67.985,14.066,-41.026,-38.681,0.391,43.761,49.231,42.979,-18.364,-33.602,65.250,25.006,57.045,-9.377,0.781,-13.675,-31.648,-33.602
'[14:43:12.281 06/11/2076]',31.258,21.099,13.675,-11.722,7.814,63.687,12.112,-29.304,-42.589,-0.391,42.589,42.979,25.397,-7.424,-29.695,54.701,21.490,53.529,-12.894,-14.847,-3.516,-29.695,-29.695
'[14:43:12.285 06/11/2076]',24.225,20.708,17.582,-10.549,5.861,57.827,10.159,-21.099,-42.198,-0.391,35.946,43.761,14.457,0.391,-26.569,50.403,21.880,50.794,-16.801,-30.476,8.596,-26.178,-26.569
'[14:43:12.289 06/11/2076]',15.238,5.079,17.973,6.642,0.391,37.900,14.066,-6.252,-43.370,2.735,16.020,70.720,16.801,-4.298,-31.648,67.204,22.271,46.886,-17.192,-33.602,28.132,-22.271,-31.648
'[14:43:12.293 06/11/2076]',8.596,3.126,28.523,-1.563,-1.954,29.304,24.615,-12.894,-39.072,7.814,19.145,49.621,10.549,5.861,-28.913,50.794,28.913,41.416,-27.741,-43.761,49.621,-20.708,-28.913
'[14:43:12.297 06/11/2076]',14.066,12.112,31.648,-22.271,8.987,46.496,16.410,-34.774,-25.788,3.907,25.006,31.648,8.205,0.391,-21.490,49.621,35.556,37.900,-30.867,-40.244,32.821,-26.569,-21.490
'[14:43:12.301 06/11/2076]',24.225,12.112,28.913,-20.708,21.490,60.171,7.033,-43.761,-19.536,-0.391,30.476,43.761,10.940,-24.225,-16.020,84.396,30.085,37.118,-28.132,-23.834,-1.563,-37.118,-16.020
'[14:43:12.305 06/11/2076]',29.695,14.066,31.648,-22.271,30.867,71.502,6.252,-55.873,-13.284,1.172,35.946,35.946,11.331,-33.993,-12.503,97.289,32.430,36.728,-30.867,-12.894,-22.662,-43.761,-12.503
'[14:43:12.309 06/11/2076]',30.867,14.847,32.039,-22.271,36.337,77.753,3.126,-60.952,-7.033,1.954,34.383,35.556,8.596,-42.198,-9.768,109.792,31.258,33.602,-31.258,-8.987,-39.072,-47.277,-9.768
'[14:43:12.313 06/11/2076]',29.304,10.159,30.476,-18.364,37.900,73.846,-1.954,-57.045,-3.907,3.516,24.615,46.105,8.596,-47.668,-7.814,119.560,28.913,26.569,-29.695,-11.722,-43.761,-44.151,-7.814
'[14:43:12.316 06/11/2076]',28.132,6.642,30.476,-18.364,37.900,66.422,-0.781,-56.264,0.391,5.861,17.582,35.946,7.814,-45.714,-7.424,109.011,28.132,21.490,-29.695,-15.238,-39.463,-41.807,-7.424
'[14:43:12.320 06/11/2076]',26.569,8.205,28.523,-23.053,40.244,61.734,-2.344,-57.827,6.252,5.470,15.238,20.317,4.298,-43.370,-5.470,94.554,25.788,16.801,-27.741,-18.364,-40.244,-39.853,-5.470
'[14:43:12.324 06/11/2076]',28.132,3.516,23.834,-21.490,45.714,53.138,-8.205,-55.873,9.768,3.516,12.503,22.271,5.861,-48.840,-3.126,96.508,20.708,10.940,-23.053,-16.801,-42.198,-38.291,-3.126
'[14:43:12.328 06/11/2076]',26.178,-3.907,17.973,-13.675,46.886,39.463,-10.549,-48.449,11.331,1.172,8.596,30.085,9.377,-53.919,-1.954,100.806,15.629,5.079,-17.192,-11.722,-41.026,-35.556,-1.954
'[14:43:12.332 06/11/2076]',19.927,-6.642,13.284,-12.503,43.370,26.960,-11.331,-44.542,12.112,0.391,10.549,14.457,1.172,-44.933,1.172,81.270,10.549,-1.954,-12.503,-11.331,-35.556,-33.211,1.172
'[14:43:12.336 06/11/2076]',15.238,-8.596,8.987,-16.020,41.026,19.536,-15.629,-44.542,13.675,-4.689,15.238,2.344,-5.470,-40.635,4.689,68.376,3.907,-7.033,-8.205,-8.596,-38.291,-30.867,4.689
'[14:43:12.340 06/11/2076]',15.629,-16.801,2.735,-8.205,40.635,7.814,-15.629,-39.463,17.192,-10.549,12.894,18.755,4.298,-54.310,5.861,84.005,-3.516,-6.642,-1.954,3.516,-44.151,-32.039,5.861
'[14:43:12.344 06/11/2076]',10.940,-24.225,0.391,0.391,37.900,-4.689,-15.238,-30.476,20.708,-16.410,7.424,30.476,7.424,-58.999,5.861,89.475,-12.112,-6.642,0.391,8.596,-39.463,-30.476,5.861
'[14:43:12.348 06/11/2076]',-3.126,-26.178,1.172,8.205,26.569,-19.927,-13.675,-11.722,16.801,-19.927,-1.563,24.225,-12.112,-41.026,8.205,65.641,-19.536,-14.066,-0.391,-11.722,-12.503,-21.880,8.205
'[14:43:12.352 06/11/2076]',-21.490,-33.211,0.000,32.039,10.549,-44.542,-8.596,19.145,6.642,-21.490,-22.662,38.681,-32.430,-24.225,7.424,51.575,-25.788,-18.755,0.781,-39.072,25.788,-11.331,7.424
'[14:43:12.355 06/11/2076]',-27.350,-30.867,3.516,28.523,7.033,-46.105,3.126,9.768,11.331,-19.145,-22.271,34.383,-21.490,-27.350,7.814,46.105,-19.927,-15.238,-2.735,-36.337,35.165,-10.159,7.814
'[14:43:12.359 06/11/2076]',-33.211,-22.271,12.894,12.112,1.563,-39.853,18.364,-9.768,15.238,-14.457,-8.987,0.781,-17.582,-20.708,10.940,21.099,-16.801,-11.331,-12.112,-38.291,44.542,-8.205,10.940
'[14:43:12.363 06/11/2076]',-20.708,-12.894,6.642,1.954,11.331,-19.927,3.907,-21.099,21.099,-23.053,0.000,-0.781,-11.722,-38.681,14.066,34.383,-22.662,-6.252,-5.861,-19.927,8.987,-14.457,14.066
'[14:43:12.367 06/11/2076]',-17.192,-7.424,5.079,-3.907,12.503,-10.549,1.172,-26.569,23.834,-24.225,7.033,-3.907,-4.298,-48.449,17.192,40.244,-26.178,-0.391,-4.298,-7.033,-7.814,-17.582,17.192
'[14:43:12.371 06/11/2076]',-17.973,-3.907,2.344,-0.391,10.159,-9.377,1.954,-23.053,23.834,-21.880,12.112,-11.331,-3.126,-49.231,18.755,37.509,-28.913,2.344,-1.563,0.391,-13.675,-19.145,18.755
'[14:43:12.375 06/11/2076]',-18.364,-2.735,-1.172,9.768,6.252,-12.112,1.172,-8.987,19.927,-18.755,10.940,-1.954,-6.252,-46.496,21.099,42.589,-30.085,2.735,1.954,-0.781,-12.112,-17.582,21.099
'[14:43:12.379 06/11/2076]',-22.662,-2.735,1.563,17.973,-2.344,-14.847,9.768,1.563,16.410,-11.722,11.331,10.159,-1.563,-41.416,26.178,44.542,-23.443,5.861,-0.781,-5.470,-1.954,-14.066,26.178
'[14:43:12.383 06/11/2076]',-24.225,-1.563,5.470,21.880,-9.377,-12.503,21.880,2.735,12.894,-4.298,19.145,4.298,1.954,-34.774,31.648,33.993,-17.192,14.847,-4.689,-3.126,2.735,-12.503,31.648
'[14:43:12.387 06/11/2076]',-23.834,0.391,7.424,27.350,-18.364,-7.424,27.350,10.159,6.642,-0.781,22.662,6.252,0.000,-28.523,35.556,28.913,-16.020,23.443,-6.642,-3.126,3.126,-10.940,35.556
'[14:43:12.391 06/11/2076]',-23.443,1.954,10.549,33.602,-25.006,-3.126,35.165,17.192,1.563,3.126,25.788,21.490,3.126,-24.615,37.118,38.291,-13.675,33.993,-9.768,-1.563,6.642,-7.814,37.118
'[14:43:12.395 06/11/2076]',-21.099,4.298,14.457,35.946,-26.960,-0.391,43.761,17.973,0.391,8.596,32.039,26.178,11.722,-23.053,36.728,42.589,-10.549,43.370,-13.675,3.126,10.940,-5.079,36.728
'[14:43:12.398 06/11/2076]',-20.317,10.549,13.284,39.853,-29.304,5.079,46.105,21.490,-3.907,9.768,37.900,15.629,3.907,-14.066,38.291,32.039,-12.112,44.151,-12.503,4.298,10.549,-5.079,38.291
'[14:43:12.402 06/11/2076]',-21.099,10.940,8.987,52.747,-32.430,4.298,42.979,37.118,-9.377,9.768,36.337,25.788,-4.298,-3.907,38.681,32.821,-12.894,42.198,-8.205,2.344,12.503,-0.391,38.681
'[14:43:12.406 06/11/2076]',-21.099,7.424,10.940,62.515,-35.556,0.000,53.138,42.589,-9.377,15.238,36.728,41.807,9.377,-3.907,40.244,39.072,-8.987,46.105,-10.159,8.205,21.099,4.689,40.244
'[14:43:12.410 06/11/2076]',-25.397,3.907,12.112,71.502,-41.807,-5.079,61.343,48.840,-12.112,22.271,33.602,50.794,15.238,4.298,41.026,33.602,-6.252,48.840,-11.331,8.987,37.118,10.159,41.026
'[14:43:12.414 06/11/2076]',-39.072,-1.954,8.596,93.773,-58.217,-21.880,57.827,84.396,-23.834,24.225,16.020,70.720,-4.689,34.774,41.807,16.020,-8.205,40.635,-7.814,-16.020,72.674,27.350,41.807
'[14:43:12.418 06/11/2076]',-45.324,4.298,18.364,77.363,-63.297,-23.443,70.330,72.283,-21.099,35.165,24.225,42.198,-3.516,58.608,46.105,-19.927,1.563,42.589,-17.582,-28.913,102.369,35.556,46.105
'[14:43:12.422 06/11/2076]',-36.337,3.907,13.675,69.548,-51.966,-16.410,67.595,52.747,-12.894,35.556,30.085,30.476,13.675,46.105,40.244,-16.801,8.205,43.761,-12.894,-5.470,87.521,28.132,40.244
'[14:43:12.426 06/11/2076]',-23.834,1.954,2.735,71.111,-38.681,-7.033,51.184,47.668,-8.596,28.132,32.039,30.867,20.708,30.476,32.821,-0.781,3.516,32.821,-1.954,12.894,57.045,23.053,32.821
'[14:43:12.430 06/11/2076]',-14.066,5.079,0.000,60.171,-25.397,-0.781,38.681,38.291,-3.516,26.178,28.913,28.132,27.350,23.834,27.350,0.781,5.861,23.053,0.781,18.364,44.933,18.755,27.350
'[14:43:12.434 06/11/2076]',-6.252,5.861,-5.079,55.482,-13.675,1.172,29.304,33.602,0.391,25.788,22.271,26.178,36.337,16.020,19.927,3.907,8.205,18.364,5.861,23.834,34.383,16.020,19.927
'[14:43:12.438 06/11/2076]',-5.079,7.424,-8.987,55.092,-9.377,0.391,23.443,34.774,0.000,27.350,14.457,23.053,33.602,19.927,10.940,0.781,8.987,12.503,9.768,16.801,36.337,18.755,10.940
'[14:43:12.441 06/11/2076]',-7.033,12.503,-6.642,44.151,-7.033,-0.391,23.443,26.569,1.563,31.648,11.331,13.284,33.993,26.960,6.642,-8.596,16.020,8.987,7.424,4.689,50.012,20.708,6.642
'[14:43:12.445 06/11/2076]',-3.907,15.238,-5.079,29.304,0.781,1.563,23.834,8.987,4.298,35.946,12.503,5.861,41.807,22.271,3.516,-7.033,26.178,8.596,5.861,3.907,51.575,19.145,3.516
'[14:43:12.449 06/11/2076]',-3.126,17.582,-7.814,22.271,4.689,3.516,21.490,-1.563,2.735,35.165,11.722,-3.907,38.681,18.364,-0.781,-9.768,30.476,5.861,8.596,3.516,45.324,16.020,-0.781
'[14:43:12.453 06/11/2076]',-1.954,20.708,-8.205,12.112,7.814,2.344,21.490,-9.768,-2.344,35.946,8.596,-17.973,28.523,21.880,-3.907,-21.099,35.556,1.172,8.987,-3.907,45.714,13.284,-3.907
'[14:43:12.457 06/11/2076]',4.298,25.006,-5.079,-4.689,14.457,4.298,25.397,-26.178,-2.344,39.853,9.377,-26.178,31.648,17.582,-5.470,-22.271,43.761,2.344,5.861,-5.861,39.072,10.549,-5.470
'[14:43:12.461 06/11/2076]',14.457,30.867,-7.814,-16.410,25.788,9.377,25.788,-40.635,-0.781,41.026,11.331,-35.556,37.118,7.814,-9.377,-17.582,45.324,5.470,8.596,-1.563,21.490,7.424,-9.377
'[14:43:12.465 06/11/2076]',15.629,36.337,-9.377,-16.020,28.913,8.987,22.271,-35.165,-6.252,39.072,7.814,-45.714,18.364,14.457,-9.768,-27.350,39.463,0.391,10.159,-13.675,16.410,10.159,-9.768
'[14:43:12.469 06/11/2076]',13.284,41.416,-7.033,-17.973,28.523,7.033,23.834,-31.648,-12.112,39.853,5.079,-51.575,3.126,25.788,-7.814,-38.681,37.900,-1.172,7.814,-29.695,23.443,14.457,-7.814
'[14:43:12.473 06/11/2076]',12.894,41.416,-2.735,-18.364,30.476,2.735,32.430,-34.383,-11.331,42.198,2.735,-45.714,9.377,22.271,-10.159,-32.821,42.198,0.391,3.516,-30.867,31.648,14.847,-10.159
'[14:43:12.477 06/11/2076]',0.391,33.211,-1.954,-0.781,18.364,-12.894,37.118,-12.112,-16.801,40.244,-14.847,-26.569,2.735,29.304,-16.410,-33.602,37.900,-4.298,2.735,-48.449,61.734,21.099,-16.410
'[14:43:12.480 06/11/2076]',-7.814,40.244,6.642,-19.536,10.159,-14.457,44.542,-20.317,-18.364,39.853,-7.033,-59.780,-11.722,49.621,-11.331,-71.111,41.416,-10.159,-5.861,-69.158,89.866,21.490,-11.331
'[14:43:12.484 06/11/2076]',-2.344,41.807,1.172,-32.821,15.238,-8.987,38.291,-36.337,-11.722,32.821,-2.344,-73.455,-6.252,40.244,-12.503,-75.409,39.853,-8.987,-0.391,-60.562,79.707,14.457,-12.503
'[14:43:12.488 06/11/2076]',3.907,35.165,-14.457,-22.271,21.880,-4.298,26.960,-41.807,-7.814,20.317,2.735,-71.502,0.781,10.159,-17.192,-49.231,23.053,-11.331,15.238,-32.039,43.761,1.172,-17.192
'[14:43:12.492 06/11/2076]',9.377,32.039,-24.225,-26.178,25.397,-2.344,18.364,-51.184,-3.907,13.675,5.079,-80.879,0.391,-1.563,-18.364,-44.151,14.066,-16.410,25.006,-18.755,21.099,-5.079,-18.364
'[14:43:12.496 06/11/2076]',15.629,29.304,-33.602,-29.695,30.085,-2.344,6.642,-53.138,0.391,8.205,-1.563,-74.628,1.172,-14.066,-19.927,-33.211,8.596,-23.834,34.383,-8.987,0.391,-8.987,-19.927
'[14:43:12.500 06/11/2076]',19.536,25.397,-41.416,-27.350,31.258,-7.814,1.172,-48.059,3.126,5.861,-13.284,-67.985,0.391,-20.708,-21.880,-28.523,2.735,-27.741,42.198,-5.861,-10.159,-10.940,-21.880
'[14:43:12.504 06/11/2076]',20.317,24.225,-44.151,-33.602,30.476,-15.629,-2.344,-44.542,2.344,6.642,-19.927,-76.190,-7.424,-16.020,-21.099,-41.026,2.735,-33.993,44.933,-11.331,-12.503,-9.768,-21.099
'[14:43:12.508 06/11/2076]',23.053,26.960,-44.933,-44.151,32.821,-18.755,-5.861,-46.496,5.079,6.252,-23.053,-75.800,-6.252,-16.801,-20.708,-42.979,4.298,-40.244,45.714,-15.629,-17.582,-7.814,-20.708
'[14:43:12.512 06/11/2076]',24.615,23.834,-47.668,-41.026,35.946,-22.271,-9.377,-43.370,5.861,5.861,-28.523,-64.860,0.781,-26.178,-23.053,-32.039,5.079,-44.151,48.449,-11.331,-23.443,-8.987,-23.053
'[14:43:12.516 06/11/2076]',18.364,18.364,-46.496,-35.556,30.867,-27.741,-12.894,-34.774,3.516,7.033,-33.993,-70.720,-3.126,-25.006,-25.006,-37.900,5.861,-50.403,47.277,-13.284,-18.364,-8.205,-25.006
'[14:43:12.520 06/11/2076]',12.112,19.145,-42.589,-41.026,25.006,-25.788,-13.284,-37.118,5.079,9.768,-35.165,-88.303,-6.642,-19.145,-28.132,-53.529,10.549,-54.701,43.370,-16.020,-10.940,-7.424,-28.132
'[14:43:12.523 06/11/2076]',15.629,15.629,-36.337,-46.886,28.913,-17.973,-12.503,-49.231,10.549,15.629,-33.993,-89.084,8.205,-30.085,-31.258,-41.416,18.364,-54.310,37.118,-1.563,-15.629,-14.066,-31.258
'[14:43:12.527 06/11/2076]',14.066,10.159,-36.337,-42.979,27.741,-14.457,-16.410,-51.184,11.722,20.317,-37.509,-82.833,18.364,-41.807,-37.118,-27.350,21.880,-58.217,37.118,6.642,-19.145,-14.847,-37.118
'[14:43:12.531 06/11/2076]',4.298,7.033,-37.509,-37.118,16.410,-16.801,-23.834,-38.291,6.642,21.880,-45.324,-91.038,3.907,-27.350,-39.853,-42.589,24.615,-71.502,38.291,-4.298,-5.470,-8.596,-39.853
'[14:43:12.535 06/11/2076]',-4.298,6.642,-37.118,-35.165,6.642,-20.708,-25.397,-29.695,5.470,25.788,-54.310,-95.336,-4.298,-13.284,-40.635,-59.389,31.258,-81.661,37.900,-16.410,14.066,-1.954,-40.635
'[14:43:12.539 06/11/2076]',-16.801,-6.252,-38.681,-15.238,-8.205,-36.728,-21.099,-10.940,1.954,30.867,-75.800,-70.330,1.172,-12.112,-47.277,-53.529,34.383,-88.303,39.463,-20.317,40.244,5.079,-47.277
'[14:43:12.543 06/11/2076]',-23.053,-7.033,-33.993,-19.536,-15.238,-39.853,-15.629,-12.894,5.861,33.602,-74.237,-89.866,2.344,-0.391,-46.886,-77.753,39.463,-88.303,34.774,-27.741,61.343,10.159,-46.886
'[14:43:12.547 06/11/2076]',-17.973,3.516,-23.834,-46.886,-9.768,-22.271,-14.457,-37.509,17.973,36.337,-60.952,-124.640,4.298,10.549,-41.416,-104.322,43.761,-84.396,24.615,-26.569,62.125,8.596,-41.416
'[14:43:12.551 06/11/2076]',-9.377,1.954,-28.132,-47.277,0.781,-8.987,-26.569,-47.277,25.397,29.695,-52.357,-121.905,13.284,-7.033,-38.681,-84.786,33.211,-80.879,28.913,-5.470,32.821,1.954,-38.681
'[14:43:12.555 06/11/2076]',-5.079,0.391,-28.913,-47.668,7.424,-1.563,-27.741,-58.999,30.867,28.523,-42.589,-130.891,20.317,-14.066,-39.072,-79.316,28.523,-75.800,29.695,7.814,19.145,-1.563,-39.072
'[14:43:12.559 06/11/2076]',-5.470,-0.781,-29.304,-46.105,10.159,2.735,-30.476,-63.687,34.383,26.960,-39.072,-131.282,21.099,-14.457,-37.900,-76.581,24.615,-76.190,30.085,14.847,14.066,-1.172,-37.900
'[14:43:12.563 06/11/2076]',-9.768,-8.205,-32.430,-35.165,9.377,-3.907,-35.946,-55.092,32.430,25.397,-45.714,-112.527,22.662,-15.629,-37.900,-67.204,18.364,-76.972,33.211,17.582,17.192,1.563,-37.900
'[14:43:12.566 06/11/2076]',-16.801,-13.675,-31.258,-30.476,5.079,-12.503,-34.774,-50.794,27.741,27.741,-48.449,-110.183,23.053,-10.549,-37.118,-76.190,15.629,-76.190,32.039,17.973,29.695,4.689,-37.118
'[14:43:12.570 06/11/2076]',-24.225,-13.284,-29.304,-32.430,0.000,-15.238,-35.946,-48.449,21.099,28.132,-44.542,-118.388,15.629,-0.391,-34.774,-91.819,13.284,-73.455,30.085,18.364,35.556,7.424,-34.774
'[14:43:12.574 06/11/2076]',-27.350,-16.410,-28.523,-30.085,-2.735,-18.755,-39.072,-42.198,16.410,28.132,-42.979,-108.230,15.238,0.391,-33.211,-87.521,6.642,-70.720,29.304,20.708,37.509,9.768,-33.211
'[14:43:12.578 06/11/2076]',-32.039,-21.490,-25.006,-25.788,-6.252,-24.615,-38.681,-35.556,11.722,27.350,-41.416,-94.945,17.582,-0.391,-30.476,-81.270,2.344,-68.376,25.788,26.569,41.026,11.722,-30.476
'[14:43:12.582 06/11/2076]',-37.509,-19.145,-20.317,-26.569,-9.768,-24.225,-34.383,-34.383,7.033,28.913,-33.211,-106.276,9.377,8.596,-23.053,-97.289,1.172,-62.515,21.099,25.006,45.714,13.675,-23.053
'[14:43:12.586 06/11/2076]',-37.509,-13.675,-18.364,-29.695,-10.159,-17.973,-35.165,-35.556,6.252,27.350,-24.615,-109.792,4.298,14.457,-15.629,-102.759,-0.781,-52.747,19.145,26.569,38.681,15.629,-15.629
'[14:43:12.590 06/11/2076]',-34.383,-17.192,-17.582,-22.271,-9.377,-17.973,-33.211,-30.476,6.252,24.615,-23.443,-84.786,12.894,6.642,-10.940,-84.005,-4.298,-41.807,18.364,35.946,30.867,16.801,-10.940
'[14:43:12.594 06/11/2076]',-38.291,-17.582,-12.503,-18.364,-16.020,-21.099,-24.615,-25.397,1.172,26.960,-21.490,-73.455,13.675,11.722,-9.768,-80.879,-7.814,-33.211,13.284,34.774,37.118,22.662,-9.768
'[14:43:12.598 06/11/2076]',-48.059,-14.066,-8.205,-16.020,-26.569,-27.741,-22.662,-10.159,-5.079,25.006,-24.225,-76.190,-6.642,37.118,-5.861,-103.150,-12.112,-33.211,8.987,9.768,57.827,35.165,-5.861
'[14:43:12.602 06/11/2076]',-63.687,-17.582,-5.470,1.563,-41.416,-48.059,-17.973,21.880,-17.192,25.788,-41.807,-56.264,-27.741,60.952,-7.424,-114.872,-19.145,-37.118,6.252,-17.973,92.210,48.840,-7.424
'[14:43:12.605 06/11/2076]',-66.422,-13.675,6.252,-12.112,-42.589,-51.184,1.563,5.079,-14.066,32.430,-32.039,-73.846,-18.755,67.595,-6.642,-128.547,-15.629,-28.132,-5.470,-17.192,105.104,50.012,-6.642
'[14:43:12.609 06/11/2076]',-60.171,-5.079,6.642,-29.304,-34.383,-40.635,1.172,-14.066,-4.298,29.304,-22.271,-91.429,-8.987,62.906,-7.033,-135.189,-14.847,-21.880,-5.861,-8.596,91.819,47.668,-7.033
'[14:43:12.613 06/11/2076]',-52.357,-3.126,0.781,-29.695,-26.960,-29.695,-13.284,-12.894,-0.781,18.755,-17.582,-82.833,-6.252,46.886,-5.861,-116.044,-28.523,-21.880,0.000,7.033,59.389,41.026,-5.861
'[14:43:12.617 06/11/2076]',-50.012,-0.781,1.563,-38.291,-25.397,-24.615,-17.973,-17.973,3.126,12.894,-12.894,-83.223,-0.781,37.509,-5.470,-110.574,-33.211,-22.271,-0.781,18.755,40.244,39.072,-5.470
'[14:43:12.621 06/11/2076]',-54.701,-1.563,0.391,-39.072,-31.648,-25.788,-21.880,-14.457,1.563,7.033,-12.112,-84.786,-3.516,33.602,-8.596,-109.402,-38.681,-27.741,0.391,25.788,29.695,37.118,-8.596
'[14:43:12.625 06/11/2076]',-63.687,-3.907,-0.781,-35.165,-41.026,-33.993,-26.569,-0.781,-4.298,1.954,-18.755,-75.018,-14.066,36.728,-11.722,-107.448,-45.324,-40.244,1.563,22.662,32.430,38.291,-11.722
'[14:43:12.629 06/11/2076]',-69.158,-7.033,0.781,-38.291,-48.059,-41.807,-27.350,4.298,-10.940,1.563,-25.397,-65.641,-17.973,38.291,-14.457,-106.667,-48.449,-49.231,0.000,19.927,40.244,39.072,-14.457
'[14:43:12.633 06/11/2076]',-70.330,-7.424,1.172,-43.761,-50.794,-42.589,-27.741,1.563,-12.503,-3.516,-24.615,-71.893,-21.490,39.463,-17.582,-112.918,-51.184,-52.357,-0.391,24.225,38.291,35.556,-17.582
'[14:43:12.637 06/11/2076]',-71.502,-10.549,-3.126,-41.807,-54.701,-44.151,-35.165,7.033,-17.582,-10.549,-28.132,-70.330,-30.867,39.853,-20.317,-114.481,-56.264,-56.654,3.907,26.569,33.602,32.039,-20.317
'[14:43:12.641 06/11/2076]',-70.330,-14.847,-2.735,-40.635,-57.436,-46.886,-36.728,12.894,-19.927,-15.238,-31.258,-53.529,-32.430,36.728,-21.880,-103.150,-58.608,-57.827,3.516,28.913,30.476,30.867,-21.880
'[14:43:12.645 06/11/2076]',-69.939,-13.675,0.000,-43.761,-59.389,-45.324,-32.821,10.940,-19.145,-15.629,-28.523,-48.449,-26.569,32.430,-22.271,-95.726,-54.701,-56.264,0.781,34.383,26.569,26.960,-22.271
'[14:43:12.648 06/11/2076]',-70.720,-7.033,2.735,-48.449,-61.343,-40.244,-31.258,9.377,-23.443,-17.973,-21.099,-60.171,-34.774,33.993,-20.317,-102.369,-55.092,-57.045,-1.954,33.211,19.927,22.271,-20.317
'[14:43:12.652 06/11/2076]',-68.767,-4.298,2.735,-42.198,-61.734,-39.463,-33.993,24.225,-32.430,-20.708,-21.880,-50.012,-45.714,34.383,-17.582,-96.508,-57.436,-58.217,-1.954,28.913,16.020,18.364,-17.582
'[14:43:12.656 06/11/2076]',-63.687,-6.252,3.516,-32.821,-60.562,-42.979,-28.913,34.383,-35.946,-22.271,-26.178,-22.662,-35.946,23.443,-21.099,-73.846,-54.701,-54.310,-2.735,32.821,12.503,14.847,-21.099
'[14:43:12.660 06/11/2076]',-62.515,-7.814,5.079,-24.615,-63.687,-48.059,-23.053,45.324,-41.416,-21.880,-30.867,-8.596,-34.383,23.443,-25.788,-66.422,-49.621,-53.529,-4.298,27.350,21.490,13.284,-25.788
'[14:43:12.664 06/11/2076]',-73.846,-12.894,1.563,-4.689,-79.707,-65.250,-28.132,84.786,-55.482,-26.178,-54.310,15.629,-61.734,44.933,-28.523,-75.409,-50.794,-64.078,-0.781,-3.516,48.840,22.271,-28.523
'[14:43:12.668 06/11/2076]',-76.190,-12.112,2.735,-4.689,-85.177,-67.595,-24.225,87.521,-56.654,-23.834,-58.608,17.582,-63.297,53.529,-30.476,-80.488,-42.198,-64.078,-1.954,-12.894,60.952,24.225,-30.476
'[14:43:12.672 06/11/2076]',-70.720,-6.252,8.205,-21.490,-83.223,-53.529,-11.722,58.608,-48.449,-16.410,-47.277,-7.424,-46.496,43.370,-33.993,-83.223,-33.211,-56.654,-7.424,1.954,51.575,12.894,-33.993
'[14:43:12.676 06/11/2076]',-55.873,-8.987,1.172,-18.364,-73.846,-35.556,-23.443,51.575,-45.324,-22.271,-40.635,-1.954,-37.900,16.410,-37.900,-51.966,-39.853,-57.827,-0.391,26.178,12.894,0.781,-37.900
'[14:43:12.680 06/11/2076]',-45.714,-7.814,0.391,-21.880,-66.422,-23.053,-32.039,46.496,-41.416,-24.225,-39.072,0.781,-32.821,6.642,-40.244,-37.509,-37.509,-59.780,0.391,36.337,-3.126,-6.252,-40.244
'[14:43:12.684 06/11/2076]',-36.337,-10.159,0.781,-23.834,-59.389,-16.410,-36.728,42.979,-39.072,-22.662,-41.026,2.344,-26.960,-3.126,-43.761,-26.569,-32.821,-60.562,0.000,45.714,-15.629,-13.675,-43.761
'[14:43:12.688 06/11/2076]',-32.821,-14.847,-1.172,-15.238,-55.873,-18.755,-42.589,51.966,-43.370,-22.662,-45.324,10.940,-33.211,-4.689,-46.886,-14.457,-28.132,-66.422,1.954,45.324,-19.536,-16.801,-46.886
'[14:43:12.691 06/11/2076]',-30.085,-16.801,0.000,-14.066,-51.966,-22.662,-42.979,55.873,-44.151,-19.145,-48.059,17.192,-35.946,0.000,-47.668,-9.768,-19.536,-69.548,0.781,37.118,-12.112,-16.020,-47.668
'[14:43:12.695 06/11/2076]',-22.662,-19.145,3.907,-17.973,-43.761,-19.536,-40.244,47.668,-41.807,-11.331,-45.714,17.973,-28.913,-5.079,-47.277,0.391,-10.549,-67.204,-3.126,39.072,-14.066,-19.145,-47.277
'[14:43:12.699 06/11/2076]',-17.582,-20.708,5.470,-13.284,-38.681,-15.238,-38.681,46.496,-41.416,-6.642,-42.979,15.629,-27.741,-9.768,-46.496,9.377,-5.470,-65.250,-4.689,40.635,-20.708,-22.271,-46.496
'[14:43:12.703 06/11/2076]',-15.238,-21.099,8.596,-8.987,-35.946,-12.112,-37.509,49.231,-41.807,-1.954,-41.026,13.675,-32.430,-7.033,-42.979,10.940,1.172,-65.641,-7.814,35.946,-23.053,-23.053,-42.979
'[14:43:12.707 06/11/2076]',-8.596,-23.053,14.066,-15.238,-29.695,-7.814,-33.602,38.291,-37.118,5.079,-38.291,15.238,-22.271,-12.894,-41.807,22.662,12.112,-64.078,-13.284,39.463,-28.913,-26.569,-41.807
'[14:43:12.711 06/11/2076]',-0.391,-25.006,15.238,-19.536,-20.317,-0.391,-33.993,25.788,-30.476,7.814,-32.821,15.629,-8.205,-27.741,-41.026,38.291,21.099,-62.515,-14.457,48.840,-43.370,-33.211,-41.026
'[14:43:12.715 06/11/2076]',0.000,-26.178,14.457,-13.675,-19.145,0.781,-40.244,32.821,-32.039,6.252,-33.211,14.457,-15.629,-25.788,-41.416,39.853,21.099,-65.250,-13.675,42.198,-44.542,-33.993,-41.416
'[14:43:12.719 06/11/2076]',-4.298,-28.523,17.582,-5.470,-22.271,-2.735,-39.463,42.979,-33.993,5.861,-34.774,20.317,-23.053,-19.536,-39.463,39.853,21.490,-62.906,-16.801,30.476,-30.085,-32.430,-39.463
'[14:43:12.723 06/11/2076]',-4.298,-33.602,23.443,2.344,-21.490,-5.861,-30.085,46.105,-30.085,6.642,-35.556,36.337,-10.940,-22.271,-39.853,52.357,25.006,-51.184,-22.662,30.085,-17.582,-30.476,-39.853
'[14:43:12.727 06/11/2076]',-16.410,-41.416,27.741,26.178,-32.039,-20.317,-21.880,71.893,-32.821,6.252,-48.840,66.422,-14.847,-11.722,-41.807,60.171,23.053,-45.324,-26.960,13.284,13.675,-20.708,-41.807
'[14:43:12.730 06/11/2076]',-25.006,-36.728,40.244,17.582,-38.681,-22.271,-10.549,68.376,-31.258,8.596,-39.072,42.198,-29.304,14.066,-33.602,29.695,28.132,-43.370,-39.463,-7.424,41.807,-12.894,-33.602
'[14:43:12.734 06/11/2076]',-16.020,-29.304,41.416,-1.563,-26.960,-8.596,-12.112,42.979,-16.020,4.298,-26.960,24.225,-19.145,11.331,-30.476,23.834,33.211,-32.430,-40.635,0.781,28.913,-15.238,-30.476
'[14:43:12.738 06/11/2076]',-7.033,-33.211,33.211,3.126,-16.020,1.954,-20.317,30.867,-10.159,-6.252,-15.629,28.913,-7.424,-15.629,-33.211,52.747,21.880,-28.523,-32.430,30.085,-8.205,-26.178,-33.211
'[14:43:12.742 06/11/2076]',-4.298,-35.946,28.132,4.298,-11.722,9.768,-25.006,20.708,-7.814,-11.331,-7.424,23.053,-2.735,-26.960,-33.993,59.780,16.410,-27.741,-27.350,41.026,-19.927,-30.085,-33.993
'[14:43:12.746 06/11/2076]',-1.172,-39.072,25.397,10.159,-7.424,13.675,-28.132,17.973,-5.861,-17.582,-3.907,36.728,4.298,-35.556,-30.476,71.111,13.284,-24.225,-24.615,48.059,-23.053,-32.039,-30.476
'[14:43:12.750 06/11/2076]',-1.563,-44.542,24.615,21.490,-10.159,10.159,-23.053,23.834,-10.159,-20.708,-3.516,51.184,6.252,-37.118,-26.960,74.237,8.205,-16.801,-23.834,51.184,-17.192,-29.304,-26.960
'[14:43:12.754 06/11/2076]',-7.033,-44.933,26.178,26.960,-17.582,5.470,-14.066,28.523,-14.847,-19.927,0.781,48.840,0.781,-25.397,-20.317,60.171,7.033,-8.987,-25.397,41.807,-0.391,-23.053,-20.317
'[14:43:12.758 06/11/2076]',-6.642,-42.198,30.476,23.443,-20.708,7.033,-6.642,25.788,-13.284,-19.536,8.987,50.403,4.689,-19.536,-13.675,54.701,8.205,-1.172,-29.695,40.244,6.252,-19.145,-13.675
'[14:43:12.762 06/11/2076]',-4.689,-42.979,32.430,22.662,-23.443,8.596,-3.516,26.569,-12.894,-21.099,9.377,60.952,12.112,-24.225,-12.112,60.952,5.861,5.861,-31.648,45.324,3.907,-17.582,-12.112
'[14:43:12.766 06/11/2076]',-12.503,-42.589,31.258,27.741,-33.993,7.814,-5.079,35.556,-17.582,-23.053,5.470,59.389,5.861,-19.536,-13.675,51.575,1.563,7.033,-30.476,43.370,8.205,-16.020,-13.675
'[14:43:12.770 06/11/2076]',-16.801,-40.635,33.211,24.615,-40.635,9.768,-4.689,35.165,-17.973,-21.880,4.298,47.668,2.344,-10.940,-11.331,32.430,1.563,6.642,-32.430,42.198,14.066,-15.629,-11.331
'[14:43:12.773 06/11/2076]',-11.722,-42.198,33.993,16.801,-36.337,12.112,-2.344,23.834,-12.112,-22.662,7.424,51.966,17.582,-17.582,-10.549,35.556,2.735,9.768,-33.211,54.701,8.987,-18.364,-10.549
'[14:43:12.777 06/11/2076]',-9.377,-46.496,27.741,21.880,-31.648,6.642,-3.516,23.053,-10.159,-27.741,4.689,68.767,29.304,-27.350,-13.284,48.059,-1.954,7.424,-26.960,64.860,2.344,-17.973,-13.284
'[14:43:12.781 06/11/2076]',-14.066,-48.449,21.099,28.523,-34.774,-2.735,-7.814,33.602,-13.284,-34.383,-0.781,70.330,15.629,-14.066,-11.331,30.867,-8.596,-2.735,-20.317,51.966,13.675,-12.503,-11.331
'[14:43:12.785 06/11/2076]',-18.755,-50.403,17.192,32.039,-36.337,-13.675,-8.987,40.635,-16.410,-39.853,-8.205,75.800,8.596,-1.954,-12.112,17.192,-11.331,-9.768,-16.410,36.728,32.821,-6.642,-12.112
'[14:43:12.789 06/11/2076]',-26.569,-60.952,9.377,54.701,-40.244,-34.774,-5.470,58.217,-21.099,-44.542,-27.741,112.527,13.284,-4.689,-22.662,32.039,-14.066,-17.192,-8.596,29.304,55.092,-1.172,-22.662
'[14:43:12.793 06/11/2076]',-32.430,-58.217,8.205,52.357,-42.589,-39.072,-2.735,55.092,-20.317,-44.151,-29.304,100.415,12.112,5.861,-24.615,12.503,-11.331,-20.708,-7.424,19.927,71.893,0.391,-24.615
'[14:43:12.797 06/11/2076]',-29.304,-44.933,14.457,26.569,-33.993,-28.523,-1.172,31.258,-13.284,-44.151,-14.066,68.376,10.940,17.973,-22.271,-10.940,-3.516,-22.271,-13.675,12.894,76.190,0.000,-22.271
'[14:43:12.801 06/11/2076]',-15.629,-38.681,6.642,22.271,-16.801,-17.973,-11.722,22.662,-8.987,-53.138,-1.954,73.455,18.755,0.391,-24.225,12.894,-9.768,-20.708,-5.861,28.913,40.635,-7.033,-24.225
'[14:43:12.805 06/11/2076]',-9.377,-34.383,3.516,18.364,-10.159,-13.675,-10.940,14.066,-10.159,-55.873,9.377,63.687,19.536,-6.642,-28.523,22.662,-13.284,-18.364,-2.735,37.509,20.708,-13.284,-28.523
'[14:43:12.809 06/11/2076]',-6.252,-31.258,-0.781,16.020,-5.861,-14.066,-12.503,10.940,-15.238,-57.045,15.238,58.608,14.066,-8.596,-32.430,28.523,-18.364,-17.192,1.563,38.681,9.377,-16.410,-32.430
'[14:43:12.813 06/11/2076]',-3.516,-33.993,-8.596,22.271,-3.907,-21.099,-15.629,17.973,-22.662,-56.654,10.940,70.720,11.722,-14.847,-39.072,43.761,-24.225,-18.755,9.377,35.946,2.344,-16.801,-39.072
'[14:43:12.816 06/11/2076]',-5.861,-36.337,-11.722,23.053,-7.424,-26.960,-13.284,17.973,-30.476,-53.529,8.205,65.250,7.424,-15.629,-43.761,41.416,-26.178,-16.410,12.503,32.821,5.861,-17.582,-43.761
'[14:43:12.820 06/11/2076]',-7.033,-30.867,-16.410,15.629,-10.159,-26.960,-11.331,9.768,-35.556,-49.231,12.894,47.277,2.735,-11.722,-45.714,30.867,-24.225,-11.331,17.192,27.350,6.642,-19.145,-45.714
'[14:43:12.824 06/11/2076]',-4.689,-27.350,-20.317,12.112,-8.987,-25.006,-10.940,5.470,-36.337,-48.840,15.629,51.184,6.252,-17.582,-48.840,42.589,-24.615,-7.033,21.099,25.397,3.907,-21.490,-48.840
'[14:43:12.828 06/11/2076]',-3.907,-28.132,-23.443,14.847,-11.331,-25.006,-8.596,3.907,-38.291,-47.668,17.582,57.436,11.331,-25.788,-52.747,56.264,-25.397,0.000,24.225,26.960,2.344,-24.225,-52.747
'[14:43:12.832 06/11/2076]',-8.205,-21.880,-26.960,13.284,-16.410,-23.053,-4.298,0.391,-42.979,-44.933,22.662,39.072,3.516,-21.099,-52.747,45.324,-25.397,5.079,27.741,20.708,5.861,-27.741,-52.747
'[14:43:12.836 06/11/2076]',-7.033,-18.364,-33.602,11.722,-16.020,-19.536,-6.252,-5.470,-42.589,-44.933,25.006,25.006,-1.954,-23.053,-52.357,40.635,-26.178,7.424,34.383,20.708,-1.563,-32.430,-52.357
'[14:43:12.840 06/11/2076]',-3.126,-25.788,-39.072,16.801,-13.675,-20.708,-8.596,-7.424,-40.635,-44.542,21.099,37.118,6.642,-40.244,-55.092,62.125,-26.960,8.205,39.853,29.695,-10.549,-38.291,-55.092
'[14:43:12.844 06/11/2076]',-3.126,-29.695,-43.370,21.880,-12.894,-26.178,-8.596,-6.252,-39.072,-42.979,14.847,42.198,11.722,-48.059,-60.952,73.065,-25.006,7.814,44.151,28.132,-7.814,-39.853,-60.952
'[14:43:12.848 06/11/2076]',-8.987,-26.960,-44.542,20.317,-16.410,-34.383,-11.722,2.344,-39.072,-42.198,3.126,32.430,-2.344,-34.383,-63.687,55.092,-25.006,-1.172,45.324,6.252,10.159,-35.946,-63.687
'[14:43:12.852 06/11/2076]',-19.536,-32.039,-45.324,35.946,-26.178,-53.138,-12.894,30.867,-45.714,-41.026,-19.927,44.542,-17.973,-19.145,-71.111,46.886,-25.788,-10.549,46.105,-21.490,41.026,-25.397,-71.111
'[14:43:12.855 06/11/2076]',-15.629,-31.648,-39.072,25.788,-21.099,-56.654,-2.344,18.755,-39.072,-36.337,-17.582,33.993,-6.252,-19.927,-75.409,42.589,-16.410,-8.987,39.853,-20.317,47.277,-24.225,-75.409
'[14:43:12.859 06/11/2076]',-7.033,-24.225,-35.165,2.735,-13.284,-47.277,1.172,-5.470,-26.569,-33.602,-10.159,8.205,3.516,-21.490,-74.237,29.695,-10.940,-9.377,35.946,-14.457,37.118,-26.569,-74.237
'[14:43:12.863 06/11/2076]',7.814,-23.443,-42.979,-1.172,0.000,-33.993,-17.192,-8.596,-18.755,-42.979,-5.861,15.629,6.252,-39.072,-70.720,50.403,-20.317,-16.410,43.761,0.000,-0.391,-32.430,-70.720
'[14:43:12.867 06/11/2076]',19.927,-20.708,-44.933,-10.159,10.940,-26.569,-25.006,-16.801,-10.940,-45.714,-0.391,16.801,13.284,-50.012,-64.469,60.562,-21.880,-17.973,45.714,9.377,-25.788,-35.556,-64.469
'[14:43:12.871 06/11/2076]',26.569,-16.410,-48.059,-14.457,16.410,-21.880,-28.523,-18.364,-6.642,-44.542,2.735,10.159,14.457,-53.529,-60.171,60.952,-25.006,-18.364,48.840,13.284,-41.807,-39.853,-60.171
'[14:43:12.875 06/11/2076]',30.867,-13.675,-50.012,-10.549,21.099,-21.880,-32.821,-9.768,-6.642,-42.198,0.000,12.894,9.768,-49.231,-56.654,60.952,-26.960,-21.490,50.794,5.470,-46.886,-37.118,-56.654
'[14:43:12.879 06/11/2076]',36.337,-10.159,-44.933,-10.549,26.569,-19.927,-28.132,-7.424,-4.298,-35.556,0.391,16.020,14.457,-42.589,-52.357,58.217,-22.662,-18.364,45.714,0.391,-44.542,-32.430,-52.357
'[14:43:12.883 06/11/2076]',44.151,-4.298,-40.635,-17.192,32.821,-12.112,-21.099,-16.410,0.391,-30.476,6.642,3.516,18.755,-34.383,-48.840,46.496,-16.020,-10.159,41.416,0.000,-46.496,-30.476,-48.840
'[14:43:12.887 06/11/2076]',47.668,0.391,-40.635,-16.020,33.211,-7.033,-20.317,-14.066,0.391,-28.132,8.205,1.172,16.020,-27.741,-46.105,40.635,-14.847,-4.689,41.416,-2.344,-49.621,-27.741,-46.105
'[14:43:12.891 06/11/2076]',51.966,1.172,-37.509,-13.284,33.211,-4.298,-17.973,-8.205,1.563,-26.960,4.689,19.145,21.880,-28.132,-46.105,51.966,-15.238,-0.391,38.291,-2.344,-50.403,-24.225,-46.105
'[14:43:12.895 06/11/2076]',55.873,1.954,-33.211,-15.629,33.602,-3.516,-10.940,-10.549,3.126,-24.225,4.298,25.397,31.258,-30.476,-48.840,57.827,-14.066,6.642,33.993,0.781,-46.496,-25.397,-48.840
'[14:43:12.898 06/11/2076]',55.092,5.079,-29.695,-20.708,30.476,-1.954,-9.377,-10.159,2.735,-23.834,7.033,8.987,25.397,-24.225,-50.012,43.761,-19.536,8.205,30.476,1.563,-45.324,-27.350,-50.012
'[14:43:12.902 06/11/2076]',53.138,5.079,-28.913,-16.020,27.741,-5.470,-11.331,1.563,0.781,-28.523,0.000,10.549,18.364,-19.927,-53.138,37.118,-27.741,5.079,29.695,-0.391,-40.635,-26.960,-53.138
'[14:43:12.906 06/11/2076]',53.919,-1.954,-27.350,-8.987,26.569,-15.238,-6.252,9.377,3.516,-30.867,-10.159,26.178,30.476,-29.695,-58.608,46.496,-30.867,6.252,28.132,9.768,-35.556,-30.085,-58.608
'[14:43:12.910 06/11/2076]',47.277,-6.642,-24.615,-5.861,19.145,-27.350,0.781,16.020,2.344,-31.258,-18.755,30.085,31.648,-26.960,-62.906,40.635,-31.648,3.907,25.397,7.814,-18.364,-28.132,-62.906
'[14:43:12.914 06/11/2076]',29.304,-10.159,-26.178,14.066,0.391,-48.449,-0.781,55.092,-7.814,-37.509,-41.807,45.714,3.907,-2.735,-62.515,19.536,-35.946,-8.205,26.960,-20.317,17.192,-17.192,-62.515
'[14:43:12.918 06/11/2076]',25.397,-9.377,-23.443,14.847,-3.516,-55.873,7.814,58.999,-6.642,-37.118,-43.761,47.668,4.298,3.126,-59.389,12.112,-32.430,-4.298,24.225,-28.132,34.383,-15.238,-59.389
'[14:43:12.922 06/11/2076]',26.569,-4.298,-14.457,1.954,-1.563,-48.840,25.788,33.602,-1.172,-32.039,-21.490,25.006,16.020,0.391,-54.310,5.470,-26.569,7.814,15.238,-13.284,31.648,-21.880,-54.310
'[14:43:12.926 06/11/2076]',38.291,-2.735,-18.755,4.298,11.722,-35.556,18.364,25.397,2.735,-39.853,-5.470,29.695,25.006,-18.755,-50.012,30.476,-32.430,13.675,19.536,8.987,-2.344,-30.476,-50.012
'[14:43:12.930 06/11/2076]',44.542,1.563,-17.973,1.954,21.880,-28.523,15.238,20.708,4.689,-42.979,2.344,38.291,29.304,-26.960,-42.589,42.979,-36.337,17.582,18.755,17.582,-16.801,-37.509,-42.589
'[14:43:12.934 06/11/2076]',45.714,5.861,-16.020,-0.391,26.178,-23.834,14.457,17.582,5.470,-44.151,8.987,42.589,34.774,-33.211,-39.853,50.794,-36.337,21.099,16.801,25.006,-25.788,-41.807,-39.853
'[14:43:12.938 06/11/2076]',41.416,7.033,-18.364,5.470,22.662,-25.788,12.894,25.788,1.172,-46.886,6.642,50.012,28.913,-30.867,-39.463,53.138,-36.728,18.755,19.145,21.880,-26.569,-41.416,-39.463
'[14:43:12.941 06/11/2076]',35.165,8.987,-17.582,8.205,16.801,-28.523,15.238,31.648,-0.781,-46.886,3.516,56.654,25.006,-25.006,-39.463,52.747,-34.383,15.238,18.364,12.894,-14.457,-38.681,-39.463
'[14:43:12.945 06/11/2076]',31.648,10.940,-13.284,5.079,12.112,-25.788,18.755,29.304,0.781,-44.542,8.205,58.217,31.648,-26.960,-37.509,55.873,-28.523,16.801,14.066,15.238,-11.722,-38.291,-37.509
'[14:43:12.949 06/11/2076]',28.523,10.549,-12.503,8.205,6.642,-22.662,20.708,30.476,0.000,-44.933,11.331,53.529,28.913,-25.006,-35.946,52.747,-27.350,16.801,13.284,17.582,-14.457,-37.118,-35.946
'[14:43:12.953 06/11/2076]',25.788,10.549,-11.331,13.675,2.735,-23.053,19.927,39.463,-3.907,-44.151,12.894,53.919,21.490,-18.364,-31.648,48.840,-25.788,14.457,12.112,14.847,-12.503,-35.946,-31.648
'[14:43:12.957 06/11/2076]',28.523,13.675,-6.642,7.424,2.735,-18.364,22.662,35.946,-1.954,-38.681,18.364,58.217,28.523,-18.755,-25.397,52.357,-19.536,17.973,7.424,16.410,-15.629,-35.165,-25.397
'[14:43:12.961 06/11/2076]',32.039,17.582,-5.861,2.735,6.642,-11.331,24.615,26.960,0.000,-34.383,26.960,56.654,37.900,-25.397,-20.708,58.217,-14.457,22.662,6.642,21.490,-25.397,-36.728,-20.708
'[14:43:12.965 06/11/2076]',26.178,19.536,-7.424,8.596,1.954,-7.033,19.145,34.383,-3.126,-32.821,27.350,48.840,25.788,-16.410,-14.847,46.496,-18.755,18.755,8.205,14.066,-24.615,-31.258,-14.847
'[14:43:12.969 06/11/2076]',18.755,19.145,-5.861,12.894,-3.907,-7.814,16.410,42.198,-7.814,-31.258,25.397,48.059,14.066,-5.470,-10.940,37.118,-17.582,16.801,6.642,-1.563,-8.987,-24.225,-10.940
'[14:43:12.973 06/11/2076]',9.377,12.112,-1.172,19.536,-11.722,-13.675,25.397,41.807,-11.331,-25.397,20.317,53.138,18.364,-5.861,-13.284,37.900,-13.675,20.708,1.954,-3.516,12.503,-21.099,-13.284
'[14:43:12.977 06/11/2076]',-8.596,1.172,0.781,41.026,-28.913,-29.304,30.867,62.906,-21.880,-20.317,1.954,70.330,7.424,7.424,-19.145,33.211,-16.020,13.675,0.000,-21.490,53.138,-11.722,-19.145
'[14:43:12.980 06/11/2076]',-14.066,1.563,5.470,30.085,-32.821,-35.165,32.821,58.608,-27.350,-19.145,0.391,48.059,-12.894,28.132,-18.755,4.689,-7.033,9.768,-4.689,-38.291,76.581,-7.033,-18.755
'[14:43:12.984 06/11/2076]',-16.020,10.940,10.159,6.642,-32.430,-24.615,35.556,34.383,-26.960,-13.675,8.205,16.801,-18.364,35.165,-16.801,-15.629,-1.954,11.722,-9.377,-36.728,75.018,-9.377,-16.801
'[14:43:12.988 06/11/2076]',-4.298,11.722,-0.781,5.470,-17.192,-10.940,23.443,16.801,-20.317,-18.755,17.582,12.503,-9.377,6.252,-16.410,10.549,-11.331,12.503,1.563,-5.079,26.178,-21.490,-16.410
'[14:43:12.992 06/11/2076]',-0.391,14.457,-4.298,-0.781,-8.596,-1.172,14.066,5.079,-14.847,-20.708,22.662,0.781,-11.331,-2.735,-15.238,17.192,-13.675,8.596,5.079,4.689,1.954,-21.880,-15.238
'[14:43:12.996 06/11/2076]',0.391,15.238,-3.907,-2.344,-4.298,4.689,7.424,0.391,-10.549,-19.145,21.880,1.954,-9.377,-10.159,-11.722,26.178,-13.675,3.126,4.689,8.205,-8.596,-21.099,-11.722
'[14:43:13.000 06/11/2076]',-1.563,13.675,-5.470,5.079,-2.735,5.861,3.516,4.689,-7.814,-16.410,14.457,7.814,-5.861,-16.020,-11.331,32.039,-14.847,1.172,6.252,10.549,-12.894,-18.755,-11.331
'[14:43:13.004 06/11/2076]',-6.252,12.503,-4.689,7.033,-6.642,2.735,4.298,7.814,-8.987,-14.457,10.159,0.391,-12.503,-8.596,-13.284,21.490,-12.112,-0.391,5.470,1.172,-2.344,-13.675,-13.284
'[14:43:13.008 06/11/2076]',-8.987,12.112,-1.954,0.391,-7.814,3.516,3.516,1.954,-7.424,-11.331,7.814,-4.298,-14.066,-5.079,-13.284,17.582,-9.768,-2.735,2.735,-1.954,0.781,-10.549,-13.284
'[14:43:13.012 06/11/2076]',-10.549,8.596,-5.079,1.172,-8.596,2.735,0.781,-0.781,-5.861,-11.722,6.252,1.954,-10.940,-12.503,-13.675,27.741,-11.722,-2.735,5.861,0.391,-3.516,-11.331,-13.675
'[14:43:13.016 06/11/2076]',-14.847,4.298,-8.987,6.642,-10.549,-1.172,-1.563,1.172,-7.033,-13.675,3.126,-1.563,-19.927,-11.722,-12.503,24.225,-18.364,-5.861,9.768,-0.781,-4.689,-10.549,-12.503
'[14:43:13.020 06/11/2076]',-19.145,5.861,-9.377,3.516,-14.066,0.781,-4.298,-0.781,-7.033,-12.894,3.907,-14.457,-31.648,-3.126,-6.642,10.549,-18.364,-5.861,10.159,-5.861,-3.516,-7.814,-6.642
'[14:43:13.023 06/11/2076]',-13.284,7.424,-9.768,-0.391,-11.331,8.596,-2.735,-10.549,-1.172,-11.722,10.549,-9.377,-22.271,-10.159,0.781,19.927,-15.238,-1.563,10.549,2.735,-12.503,-10.549,0.781
'[14:43:13.027 06/11/2076]',-9.377,6.252,-12.112,5.861,-7.033,10.940,-2.735,-10.549,0.781,-10.940,14.066,4.689,-13.675,-18.755,4.298,36.728,-15.238,1.563,12.894,10.159,-19.536,-9.768,4.298
'[14:43:13.031 06/11/2076]',-14.457,4.689,-13.675,15.238,-10.940,6.642,-6.642,2.735,-1.563,-10.940,10.159,5.079,-27.741,-2.735,8.205,24.225,-16.410,-1.172,14.457,-1.563,-9.377,-2.735,8.205
'[14:43:13.035 06/11/2076]',-19.536,2.735,-11.331,19.145,-15.238,0.000,-5.079,11.331,-3.516,-8.205,7.814,9.377,-34.774,12.503,11.331,15.238,-12.112,-1.172,12.112,-14.847,8.205,5.079,11.331
'[14:43:13.039 06/11/2076]',-27.350,-14.066,-8.596,41.416,-21.880,-22.662,5.861,28.913,-7.814,-2.735,-5.470,42.589,-24.615,11.722,7.033,31.258,-10.549,0.391,9.377,-17.973,33.993,12.112,7.033
'[14:43:13.043 06/11/2076]',-29.304,-14.066,-4.689,35.946,-22.271,-25.006,9.768,24.615,-3.126,1.563,-9.768,33.211,-21.880,20.708,7.033,14.847,-8.205,7.814,5.470,-23.053,45.324,14.847,7.033
'[14:43:13.047 06/11/2076]',-24.225,-4.298,5.861,10.940,-18.364,-11.722,13.284,4.689,4.689,5.470,5.079,1.563,-21.880,32.430,17.582,-10.159,-2.344,12.112,-5.079,-28.132,47.668,15.238,17.582
'[14:43:13.051 06/11/2076]',-9.768,-2.735,2.344,8.987,-5.079,0.781,7.033,-4.298,12.894,2.735,14.847,6.252,-10.940,13.675,24.615,10.159,-7.814,16.801,-1.563,-9.377,13.284,8.205,24.615
'[14:43:13.055 06/11/2076]',0.391,-1.563,1.563,7.033,3.516,8.987,7.814,-13.284,19.536,4.298,23.053,-3.126,-4.689,4.689,25.788,18.755,-7.424,22.271,-0.781,5.079,-10.940,2.344,25.788
'[14:43:13.059 06/11/2076]',5.861,-2.344,1.563,5.861,7.424,14.066,6.642,-17.192,23.053,3.516,28.523,-7.814,-6.252,3.516,29.695,21.099,-7.424,19.927,-0.781,10.159,-23.834,0.391,29.695
'[14:43:13.063 06/11/2076]',7.424,-8.205,0.781,8.987,8.205,8.596,5.079,-12.894,23.834,0.391,23.834,5.861,-4.298,-1.563,31.258,29.304,-10.940,18.364,0.000,12.503,-30.476,0.781,31.258
'[14:43:13.066 06/11/2076]',6.252,-9.768,2.344,7.424,5.861,2.735,10.159,-12.894,25.788,-1.563,21.099,3.126,-4.298,-1.172,33.602,20.317,-12.503,19.927,-1.563,10.549,-27.350,0.781,33.602
'[14:43:13.070 06/11/2076]',3.516,-6.252,3.907,0.781,2.344,6.252,10.159,-16.410,30.085,-6.252,23.443,-10.549,-8.205,4.298,39.072,1.954,-14.847,22.662,-3.126,4.689,-24.225,1.954,39.072
'[14:43:13.074 06/11/2076]',5.470,-5.470,7.424,0.781,0.781,8.205,13.284,-13.675,36.337,-10.159,26.178,-3.516,-5.079,2.735,44.542,5.861,-17.582,26.178,-6.642,2.735,-24.225,3.907,44.542
'[14:43:13.078 06/11/2076]',8.205,-5.079,8.987,5.470,0.391,10.159,16.410,-8.596,42.589,-11.331,26.960,7.424,2.735,-0.781,46.105,16.801,-16.801,31.258,-8.205,2.735,-22.662,4.298,46.105
'[14:43:13.082 06/11/2076]',9.768,0.000,12.112,2.735,-2.735,17.192,19.145,-8.596,44.933,-12.503,30.476,-3.907,-1.172,9.377,48.840,1.172,-13.675,33.602,-11.331,0.000,-19.927,6.252,48.840
'[14:43:13.086 06/11/2076]',14.066,6.252,11.722,-2.735,-1.563,25.006,17.973,-10.940,45.714,-14.066,35.556,-9.768,-2.344,15.238,51.184,-6.252,-12.894,37.118,-10.940,0.391,-23.443,5.079,51.184
'[14:43:13.090 06/11/2076]',22.271,2.735,10.549,0.000,3.126,21.880,18.364,-7.814,44.151,-15.629,36.728,8.987,12.503,3.516,48.449,8.596,-12.112,40.635,-9.768,10.159,-28.913,3.126,48.449
'[14:43:13.094 06/11/2076]',23.053,-0.391,8.987,3.907,3.126,15.238,20.708,-3.126,41.807,-14.847,33.602,17.973,22.662,1.954,44.933,8.987,-10.940,41.807,-8.205,12.503,-19.536,5.470,44.933
'[14:43:13.098 06/11/2076]',13.284,-0.781,10.940,7.424,-5.079,4.689,18.364,12.894,31.258,-12.503,26.569,11.331,7.424,21.099,44.933,-16.801,-10.940,33.993,-10.159,-5.861,7.033,10.940,44.933
'[14:43:13.102 06/11/2076]',-2.344,-12.112,11.722,27.741,-19.927,-23.053,20.708,47.277,17.582,-12.503,6.642,25.006,-8.987,37.509,38.681,-30.867,-13.284,24.225,-10.940,-31.258,49.621,19.927,38.681
'[14:43:13.105 06/11/2076]',-5.861,-10.940,15.629,14.457,-21.099,-22.662,28.523,28.913,19.536,-6.642,1.172,12.112,3.516,33.602,30.476,-41.026,-4.298,26.178,-14.847,-22.271,58.217,17.192,30.476
'[14:43:13.109 06/11/2076]',-7.424,-4.689,18.755,-5.079,-21.490,-12.503,31.258,4.298,21.099,-3.516,5.861,-16.410,8.205,31.258,26.178,-57.827,0.391,24.225,-17.973,-15.629,58.608,10.159,26.178
'[14:43:13.113 06/11/2076]',4.298,-4.689,9.377,-12.112,-10.159,2.344,10.549,-6.252,20.708,-13.284,7.814,-12.503,10.159,8.596,21.880,-37.509,-4.298,19.536,-8.596,4.689,24.615,-2.344,21.880
'[14:43:13.117 06/11/2076]',8.596,-5.079,5.861,-23.834,-4.689,13.675,0.391,-23.443,19.536,-16.410,11.331,-16.410,18.364,-10.159,17.973,-28.913,-2.344,16.410,-5.079,19.145,7.424,-12.503,17.973
'[14:43:13.121 06/11/2076]',5.861,-8.205,3.907,-26.569,-7.814,17.582,-5.079,-28.913,12.112,-17.582,13.284,-25.006,14.066,-18.755,13.284,-25.788,0.000,11.331,-3.126,27.350,-0.391,-22.662,13.284
'[14:43:13.125 06/11/2076]',-0.391,-14.457,0.000,-23.053,-14.066,14.847,-12.503,-26.569,3.516,-19.927,7.424,-20.708,4.689,-23.443,6.642,-18.364,2.344,0.000,0.781,26.178,2.735,-28.132,6.642
'[14:43:13.129 06/11/2076]',-7.814,-18.364,1.172,-28.132,-19.927,13.284,-14.457,-31.258,-0.391,-20.317,-0.391,-21.099,4.689,-30.867,0.000,-16.410,9.377,-8.596,-0.391,24.225,10.549,-32.039,0.000
'[14:43:13.133 06/11/2076]',-11.722,-18.364,1.563,-37.118,-24.225,17.192,-14.847,-43.761,-2.735,-20.708,-1.954,-37.509,1.563,-35.946,-5.470,-23.834,15.238,-13.675,-0.781,25.788,9.377,-37.509,-5.470
'[14:43:13.137 06/11/2076]',-14.457,-18.364,-1.563,-38.291,-26.960,21.490,-21.490,-46.105,-6.642,-25.006,-6.252,-43.761,-8.596,-38.291,-8.987,-26.569,16.410,-19.145,2.344,23.834,4.298,-40.635,-8.987
'[14:43:13.141 06/11/2076]',-11.722,-22.271,-2.344,-38.291,-26.569,23.053,-26.178,-45.714,-9.377,-28.523,-9.768,-34.774,-8.596,-48.840,-10.940,-16.020,16.410,-21.880,3.126,24.615,0.000,-42.589,-10.940
'[14:43:13.145 06/11/2076]',-11.331,-22.662,1.172,-42.979,-26.960,25.397,-20.708,-53.529,-10.549,-25.006,-8.205,-32.821,-4.689,-56.264,-10.940,-6.252,19.927,-21.490,-0.391,25.006,-0.781,-43.761,-10.940
'[14:43:13.148 06/11/2076]',-13.675,-16.801,2.735,-45.324,-29.695,30.476,-18.364,-56.264,-14.457,-21.880,-1.172,-48.059,-16.020,-48.059,-7.424,-14.066,23.834,-25.788,-1.954,22.662,-4.689,-43.761,-7.424
'[14:43:13.152 06/11/2076]',-15.238,-15.238,-0.781,-37.509,-35.165,31.648,-20.708,-46.105,-22.662,-18.755,0.391,-44.151,-27.741,-42.589,-3.516,-12.112,26.178,-26.960,1.563,18.364,-7.424,-41.807,-3.516
'[14:43:13.156 06/11/2076]',-14.847,-17.973,-3.907,-25.397,-40.244,27.741,-12.894,-38.681,-28.132,-11.722,-0.781,-18.755,-18.364,-47.668,-2.735,9.768,34.383,-21.099,4.689,24.225,-7.424,-42.198,-2.735
'[14:43:13.160 06/11/2076]',-20.317,-20.317,-5.470,-10.549,-51.575,22.662,-4.689,-24.615,-37.118,-5.079,-1.563,-1.954,-18.755,-40.244,-3.516,16.020,38.681,-15.629,6.252,19.536,3.516,-37.509,-3.516
'[14:43:13.164 06/11/2076]',-34.383,-23.834,-14.457,19.145,-73.846,6.642,-10.940,22.662,-61.343,-4.689,-16.801,25.397,-47.668,-13.284,-1.172,5.079,37.509,-20.317,15.238,-13.284,34.774,-23.053,-1.172
'[14:43:13.168 06/11/2076]',-35.165,-22.662,-12.112,22.271,-79.707,5.470,-0.391,25.397,-65.250,0.391,-15.238,32.821,-47.277,-3.907,-1.172,5.470,42.198,-11.331,12.894,-19.927,49.231,-21.490,-1.172
'[14:43:13.172 06/11/2076]',-34.383,-17.582,-4.689,16.020,-80.488,11.722,16.801,9.768,-63.687,10.159,3.126,17.582,-34.383,-4.298,0.000,6.642,46.496,-1.954,5.470,-8.987,49.621,-25.006,0.000
'[14:43:13.176 06/11/2076]',-18.755,-16.801,-12.112,15.629,-66.422,27.350,7.424,-1.954,-58.999,8.596,20.317,15.629,-23.834,-20.317,0.781,30.085,42.979,5.861,12.894,15.629,14.066,-31.648,0.781
'[14:43:13.180 06/11/2076]',-11.331,-19.145,-13.284,14.847,-58.608,32.821,3.516,-7.424,-52.747,8.596,28.523,20.317,-17.973,-23.443,2.344,43.761,41.026,13.284,14.066,30.476,0.781,-35.165,2.344
'[14:43:13.184 06/11/2076]',-6.642,-21.880,-14.847,16.410,-52.747,32.821,1.563,-9.377,-46.886,9.377,32.821,21.880,-11.331,-24.225,2.735,51.184,40.244,19.536,15.629,41.026,-7.814,-33.211,2.735
'[14:43:13.188 06/11/2076]',-7.033,-27.741,-19.536,27.350,-53.529,28.523,-2.344,-0.781,-47.277,7.033,32.821,26.178,-16.801,-17.582,0.391,53.138,35.556,22.271,20.317,42.979,-9.377,-28.523,0.391
'[14:43:13.191 06/11/2076]',-8.205,-30.867,-19.536,33.211,-55.482,22.271,-1.172,8.205,-44.151,7.033,31.258,33.602,-19.145,-7.424,0.391,53.919,34.774,22.662,20.317,38.291,0.391,-23.834,0.391
'[14:43:13.195 06/11/2076]',-4.689,-30.476,-15.238,31.258,-51.575,21.490,4.689,5.079,-38.291,10.159,37.118,35.946,-11.331,-3.907,1.563,58.999,36.337,26.178,16.020,41.416,0.391,-20.708,1.563
'[14:43:13.199 06/11/2076]',-2.735,-29.304,-12.894,36.728,-50.794,20.708,7.814,11.722,-35.165,13.675,41.026,30.476,-9.768,0.000,4.689,55.092,33.211,28.523,13.675,42.979,-0.391,-20.708,4.689
'[14:43:13.203 06/11/2076]',-2.735,-28.913,-10.549,41.807,-50.012,18.364,7.424,23.053,-33.602,17.192,38.291,30.085,-12.112,7.424,7.424,50.012,31.258,30.085,11.331,39.853,3.516,-18.364,7.424
'[14:43:13.207 06/11/2076]',0.391,-28.523,-5.861,37.900,-44.933,17.582,10.159,19.927,-26.178,22.271,36.337,33.211,-0.781,4.298,7.814,53.919,35.165,34.383,6.642,44.151,7.424,-17.973,7.814
'[14:43:13.211 06/11/2076]',4.689,-28.132,-2.735,32.821,-37.900,19.536,12.112,11.331,-16.801,25.397,35.556,28.132,12.894,-4.298,8.596,55.482,36.337,34.774,3.516,50.012,7.033,-18.364,8.596
'[14:43:13.215 06/11/2076]',-0.781,-26.960,-1.954,36.728,-40.635,19.145,5.079,22.271,-15.238,24.225,26.960,18.755,3.907,4.298,7.814,39.072,29.695,23.834,2.735,41.026,17.582,-13.675,7.814
'[14:43:13.219 06/11/2076]',-5.079,-25.006,-1.954,38.681,-41.026,14.066,-0.391,32.821,-14.847,25.397,15.629,17.582,-2.735,14.457,8.596,24.615,30.085,11.722,2.735,29.304,30.867,-5.861,8.596
'[14:43:13.223 06/11/2076]',-5.079,-25.788,2.735,38.681,-39.072,5.861,7.033,36.337,-11.331,33.602,5.861,23.053,9.377,16.410,7.814,17.192,36.728,7.814,-1.954,28.523,40.244,0.391,7.814
'[14:43:13.227 06/11/2076]',-14.847,-28.523,5.861,57.045,-48.449,-11.722,10.159,68.767,-15.238,42.198,-14.457,42.198,9.377,33.993,5.861,3.907,36.728,-3.126,-5.079,7.424,71.502,13.284,5.861
'[14:43:13.230 06/11/2076]',-12.112,-21.880,8.596,45.714,-42.979,-16.020,9.768,69.939,-14.457,46.105,-19.145,30.476,1.172,52.747,9.377,-22.271,46.496,-6.252,-7.814,-5.079,79.316,21.099,9.377
'[14:43:13.234 06/11/2076]',-5.079,-12.112,17.973,21.490,-34.383,-12.503,20.317,49.231,-7.424,53.138,-3.516,0.781,8.987,61.734,19.536,-49.621,55.482,1.563,-17.192,-6.642,78.535,21.880,19.536
'[14:43:13.238 06/11/2076]',7.814,-12.894,9.768,23.053,-21.490,-2.735,15.629,37.118,-0.781,47.277,10.940,2.344,24.225,39.853,22.662,-28.913,46.496,8.205,-8.987,19.536,40.244,12.894,22.662
'[14:43:13.242 06/11/2076]',16.410,-11.722,5.470,19.927,-12.503,2.735,12.894,26.569,1.172,42.979,24.225,-0.391,26.960,33.602,28.523,-21.880,41.807,12.894,-4.689,28.913,16.410,10.159,28.523
'[14:43:13.246 06/11/2076]',21.099,-10.549,5.079,16.020,-8.205,6.252,10.940,22.662,1.563,39.853,29.695,5.470,28.523,29.304,34.383,-16.801,39.072,16.801,-4.298,30.085,2.735,9.768,34.383
'[14:43:13.250 06/11/2076]',22.662,-11.331,2.344,21.099,-7.033,4.689,11.331,25.006,1.563,36.728,27.350,16.801,30.476,24.225,36.337,-8.987,36.728,20.317,-1.563,29.695,-5.861,8.205,36.337
'[14:43:13.254 06/11/2076]',21.099,-8.596,3.126,22.662,-8.205,3.907,12.894,28.523,0.000,32.821,27.350,16.410,22.271,28.132,38.291,-12.894,37.900,22.271,-2.344,18.755,-3.516,8.205,38.291
'[14:43:13.258 06/11/2076]',21.099,-4.689,6.642,16.801,-5.861,5.470,15.629,24.615,0.391,30.476,29.695,16.801,20.708,26.178,42.198,-11.722,39.853,25.397,-5.861,12.894,-3.126,6.252,42.198
'[14:43:13.262 06/11/2076]',23.053,-4.689,7.424,19.145,0.781,6.642,14.457,23.053,1.954,29.304,32.430,26.178,23.834,17.582,44.933,3.126,42.589,26.178,-6.642,13.675,-8.205,3.907,44.933
'[14:43:13.266 06/11/2076]',18.755,-5.079,6.252,25.788,2.735,3.907,10.159,28.913,-1.563,28.523,32.430,23.053,13.675,18.755,48.059,2.344,41.416,22.271,-5.470,9.768,-9.377,3.516,48.059
'[14:43:13.270 06/11/2076]',14.457,0.000,6.252,23.053,6.642,5.079,5.470,26.178,-2.344,30.085,32.821,12.503,3.126,25.006,51.966,-7.814,42.589,21.099,-5.470,2.735,-8.596,4.298,51.966
'[14:43:13.273 06/11/2076]',17.973,1.172,7.814,13.284,14.847,9.377,3.516,11.722,0.391,32.430,35.946,13.284,11.331,13.675,54.701,2.735,44.933,22.271,-7.033,9.768,-21.099,1.172,54.701
'[14:43:13.277 06/11/2076]',16.410,-2.344,8.987,13.284,15.629,6.252,5.079,8.205,1.172,30.867,34.774,24.225,16.801,1.563,55.482,17.582,40.244,23.053,-8.205,15.238,-29.304,0.391,55.482
'[14:43:13.281 06/11/2076]',7.424,-1.563,9.377,17.192,7.814,1.954,3.516,19.536,-3.516,28.523,30.476,20.708,0.000,12.112,58.608,5.861,35.556,19.927,-8.596,0.391,-20.708,5.470,58.608
'[14:43:13.285 06/11/2076]',1.563,0.000,14.847,15.629,1.172,-2.344,8.987,24.225,-8.205,28.913,28.132,22.271,-11.722,25.397,62.515,-4.298,37.900,20.708,-14.066,-15.238,-8.205,11.331,62.515
'[14:43:13.289 06/11/2076]',-5.470,-11.331,21.099,35.946,-7.814,-20.317,23.834,45.324,-19.145,34.383,19.536,54.701,-9.768,27.350,58.608,12.894,41.416,25.397,-20.317,-21.880,12.894,16.410,58.608
'[14:43:13.293 06/11/2076]',-7.814,-3.907,25.788,30.085,-11.722,-15.629,30.476,41.026,-20.317,36.728,23.053,45.714,-10.940,38.681,59.389,-0.781,49.621,33.602,-25.006,-28.913,21.490,17.582,59.389
'[14:43:13.297 06/11/2076]',-1.954,7.814,35.946,5.079,-7.424,0.000,32.039,21.490,-19.536,40.635,37.118,23.443,-14.066,48.059,66.422,-18.755,55.482,38.291,-35.165,-32.039,16.801,14.457,66.422
'[14:43:13.301 06/11/2076]',8.205,9.768,32.821,0.391,1.563,12.112,21.880,14.457,-19.536,34.383,45.714,35.165,-7.033,28.913,66.813,7.033,50.012,40.244,-32.039,-13.675,-17.192,3.516,66.813
'[14:43:13.305 06/11/2076]',12.112,11.722,29.304,-3.907,5.861,18.364,17.973,6.252,-20.708,32.430,52.747,30.085,-3.516,17.192,64.078,17.582,46.105,41.026,-28.523,0.781,-41.026,-5.079,64.078
'[14:43:13.309 06/11/2076]',14.457,12.112,28.913,-8.205,9.377,19.927,12.894,4.298,-23.834,30.867,53.529,30.085,-6.642,14.457,60.562,22.662,42.198,34.383,-28.132,2.735,-52.357,-7.814,60.562
'[14:43:13.313 06/11/2076]',14.457,9.377,30.085,-5.470,9.377,16.801,7.814,13.675,-28.913,29.304,46.496,45.714,-5.861,9.377,57.045,32.430,39.463,29.695,-29.304,1.954,-53.138,-8.205,57.045
'[14:43:13.316 06/11/2076]',11.722,9.377,33.602,-5.079,6.252,11.722,10.159,19.927,-35.165,29.695,41.026,45.324,-8.205,11.331,50.403,27.741,37.900,30.085,-32.821,0.781,-46.496,-8.987,50.403
'[14:43:13.320 06/11/2076]',9.768,12.112,36.728,-11.722,3.126,13.284,10.159,18.755,-38.681,29.695,37.900,35.946,-11.722,13.675,45.324,17.973,37.118,28.523,-35.946,-2.344,-42.979,-8.987,45.324
'[14:43:13.324 06/11/2076]',10.159,8.596,40.244,-11.331,1.954,12.894,8.987,23.053,-39.463,27.741,32.821,46.496,-7.424,6.252,39.072,28.913,33.993,27.741,-39.463,-0.391,-40.244,-11.722,39.072
'[14:43:13.328 06/11/2076]',8.205,3.516,39.072,-4.298,0.391,6.252,8.596,29.695,-41.026,25.006,24.225,60.952,-3.126,-2.344,28.132,47.277,30.085,25.006,-38.291,3.907,-37.900,-14.066,28.132
'[14:43:13.332 06/11/2076]',3.907,4.298,39.463,-7.033,-0.781,6.642,8.205,26.960,-40.244,23.834,21.099,47.277,-8.205,1.172,21.490,36.728,28.523,19.927,-38.681,2.344,-32.039,-14.066,21.490
'[14:43:13.336 06/11/2076]',3.907,8.205,41.416,-10.549,-1.172,12.112,4.689,25.788,-36.728,21.490,19.927,38.291,-12.112,3.907,18.364,33.211,25.006,17.582,-40.635,3.126,-32.430,-15.238,18.364
'[14:43:13.340 06/11/2076]',4.689,4.298,40.635,-3.516,0.781,8.987,6.642,29.304,-33.602,18.364,16.410,55.482,-2.735,-7.033,13.675,53.138,19.536,21.099,-39.853,11.722,-35.946,-16.020,13.675
'[14:43:13.344 06/11/2076]',3.126,2.344,41.416,2.344,0.000,4.298,11.722,32.821,-30.867,18.755,11.722,67.595,4.298,-9.768,9.377,64.078,14.847,23.053,-40.635,12.503,-29.304,-12.503,9.377
'[14:43:13.348 06/11/2076]',-6.642,5.470,44.151,7.424,-6.642,-3.907,13.675,46.496,-32.821,18.364,5.079,63.297,-9.377,8.987,9.377,45.324,8.205,19.536,-43.370,-9.768,-5.861,-3.516,9.377
'[14:43:13.352 06/11/2076]',-23.443,-3.907,46.496,32.039,-19.927,-30.476,19.927,80.488,-42.198,17.192,-12.112,81.661,-27.350,29.304,4.689,36.728,2.735,16.410,-45.714,-39.463,33.993,9.377,4.689
'[14:43:13.355 06/11/2076]',-21.880,-1.172,47.668,23.443,-14.457,-28.913,26.569,64.469,-35.165,20.708,-16.410,78.535,-10.940,26.178,-1.954,34.383,7.814,19.536,-46.886,-34.383,39.463,8.205,-1.954
'[14:43:13.359 06/11/2076]',-19.927,5.861,52.747,2.344,-8.596,-17.582,31.258,35.556,-29.695,22.271,-6.252,48.449,-3.126,26.569,-6.252,17.192,11.331,20.708,-51.966,-28.913,39.463,4.689,-6.252
'[14:43:13.363 06/11/2076]',-8.987,7.814,45.324,-1.172,1.563,-3.126,12.894,29.695,-29.695,11.331,-3.126,52.357,-2.735,11.331,-8.987,31.648,0.391,18.755,-44.542,-13.675,9.768,-1.563,-8.987
'[14:43:13.367 06/11/2076]',0.391,11.331,39.463,-8.205,9.768,9.377,5.470,16.020,-26.960,7.033,-1.172,53.138,4.689,-1.954,-14.066,44.151,-3.907,19.536,-38.681,-0.391,-11.331,-7.033,-14.066
'[14:43:13.371 06/11/2076]',1.954,13.675,36.337,-10.549,10.159,15.629,3.907,9.377,-28.132,2.344,0.781,46.886,2.735,-7.424,-18.755,45.714,-9.377,19.927,-35.556,5.861,-20.317,-10.549,-18.755
'[14:43:13.375 06/11/2076]',1.172,14.066,32.821,-3.516,8.205,14.457,2.344,17.973,-28.132,-1.172,-4.689,53.529,-2.344,-6.642,-23.834,52.747,-13.284,16.020,-32.039,0.391,-20.708,-9.377,-23.834
'[14:43:13.379 06/11/2076]',0.391,16.020,32.821,-3.907,6.642,14.457,5.861,17.192,-24.615,-2.344,-10.940,62.125,0.000,-7.424,-26.960,58.608,-11.722,16.020,-32.039,-5.079,-17.582,-8.205,-26.960
'[14:43:13.383 06/11/2076]',1.954,20.317,35.165,-12.894,8.205,17.582,11.722,5.861,-20.708,-3.126,-9.377,51.184,1.172,-7.033,-30.085,53.919,-9.768,17.192,-34.383,-4.298,-21.099,-10.159,-30.085
'[14:43:13.387 06/11/2076]',3.516,23.443,33.211,-12.894,8.987,19.145,10.549,6.252,-18.364,-7.814,-9.768,46.886,-2.344,-5.861,-32.430,51.966,-11.722,17.973,-32.430,-7.033,-25.397,-11.722,-32.430
'[14:43:13.391 06/11/2076]',3.907,23.053,33.993,-12.894,11.331,18.364,8.596,8.596,-14.847,-11.722,-13.675,61.343,0.391,-11.331,-35.165,65.641,-12.503,16.801,-33.211,-8.987,-25.397,-11.722,-35.165
'[14:43:13.395 06/11/2076]',6.252,24.615,38.291,-19.536,17.192,19.145,12.503,-0.391,-8.596,-11.331,-13.284,61.343,10.549,-19.145,-38.291,74.628,-8.596,16.020,-37.509,-6.642,-22.662,-14.066,-38.291
'[14:43:13.398 06/11/2076]',5.861,30.867,37.900,-23.053,22.662,24.615,8.596,-5.470,-3.516,-14.457,-8.596,37.509,4.298,-17.973,-36.337,61.343,-6.642,10.940,-37.118,-10.159,-23.834,-14.457,-36.337
'[14:43:13.402 06/11/2076]',3.126,33.211,35.946,-18.364,28.132,26.178,-0.781,-0.391,-2.344,-18.364,-9.768,31.258,-6.252,-16.801,-33.602,58.217,-6.642,3.907,-35.165,-17.582,-23.443,-11.722,-33.602
'[14:43:13.406 06/11/2076]',1.954,28.523,35.556,-12.112,32.430,21.880,0.391,-0.391,1.172,-16.020,-12.894,43.370,1.172,-26.178,-31.258,71.893,-3.126,1.954,-34.774,-15.238,-21.099,-11.331,-31.258
'[14:43:13.410 06/11/2076]',-1.954,25.788,33.602,-8.987,30.476,17.973,1.954,-2.735,0.391,-12.894,-13.284,41.807,0.391,-21.880,-28.523,66.422,-0.391,-0.391,-32.821,-20.317,-10.940,-6.642,-28.523
'[14:43:13.414 06/11/2076]',-16.020,19.927,25.006,9.377,17.973,1.172,-10.159,29.695,-9.768,-12.894,-31.258,53.529,-27.350,2.735,-22.271,45.324,-1.954,-13.675,-24.225,-52.357,19.145,5.470,-22.271
'[14:43:13.418 06/11/2076]',-21.490,21.099,28.132,0.781,13.675,-3.907,-2.735,22.271,-11.331,-2.735,-31.258,46.105,-31.258,18.755,-16.801,29.304,5.079,-17.582,-27.350,-64.860,39.072,11.331,-16.801
'[14:43:13.422 06/11/2076]',-12.503,27.350,28.132,-21.099,24.615,5.079,4.689,-14.066,-1.172,7.033,-14.847,14.457,-13.675,16.020,-12.894,16.020,14.457,-12.503,-27.350,-48.059,26.569,5.079,-12.894
'[14:43:13.426 06/11/2076]',2.735,26.960,14.847,-23.443,41.416,16.020,-10.549,-25.788,2.344,3.907,-3.907,9.768,-6.252,-0.391,-10.549,30.476,7.814,-17.973,-14.066,-27.350,-8.205,-1.172,-10.549
'[14:43:13.430 06/11/2076]',10.940,28.913,9.768,-34.383,50.794,21.099,-19.927,-36.337,5.079,5.861,0.000,6.252,-1.563,-3.516,-8.596,32.039,4.298,-20.708,-8.987,-17.973,-24.225,-3.907,-8.596
'[14:43:13.434 06/11/2076]',16.801,28.523,4.298,-41.416,56.264,20.708,-24.615,-43.370,8.205,5.470,0.391,3.126,7.033,-7.424,-10.159,28.913,1.563,-21.490,-3.516,-9.768,-32.821,-5.861,-10.159
'[14:43:13.438 06/11/2076]',16.020,22.271,-3.126,-35.165,51.966,14.066,-31.258,-34.774,3.126,3.126,-6.252,5.079,5.470,-7.033,-14.457,21.880,-5.079,-26.178,3.907,-10.549,-29.304,-4.298,-14.457
'[14:43:13.441 06/11/2076]',9.768,19.145,-7.424,-36.337,43.370,7.424,-33.211,-31.648,-2.344,3.516,-14.066,4.689,1.954,-1.172,-19.145,10.159,-6.642,-30.867,8.205,-18.364,-13.284,-0.781,-19.145
'[14:43:13.445 06/11/2076]',8.596,17.973,-10.159,-43.370,40.635,6.642,-32.430,-41.416,-3.126,4.689,-17.582,0.391,8.596,-2.735,-24.615,3.126,-3.516,-32.821,10.940,-16.801,-7.424,-0.781,-24.615
'[14:43:13.449 06/11/2076]',6.642,16.410,-16.801,-43.370,37.509,6.252,-36.337,-44.542,-6.642,3.516,-21.099,-10.159,5.079,-3.516,-29.695,-6.252,-4.298,-37.509,17.582,-12.112,-9.768,-1.954,-29.695
'[14:43:13.453 06/11/2076]',2.344,15.238,-23.834,-42.589,30.476,4.298,-41.416,-42.979,-10.940,3.907,-29.695,-19.145,-4.298,1.954,-34.383,-19.145,-5.470,-43.370,24.615,-15.238,-7.814,0.000,-34.383
'[14:43:13.457 06/11/2076]',3.907,14.066,-26.178,-51.966,32.821,3.516,-42.198,-53.919,-5.861,5.861,-32.821,-24.225,1.954,0.391,-41.026,-19.536,-0.391,-46.886,26.960,-10.549,-10.159,0.000,-41.026
'[14:43:13.461 06/11/2076]',9.768,8.987,-29.304,-58.608,38.291,4.298,-46.496,-66.032,0.391,2.344,-33.602,-30.085,11.722,-10.940,-47.277,-14.066,-1.954,-48.059,30.085,2.344,-20.708,-3.126,-47.277
'[14:43:13.465 06/11/2076]',5.861,0.391,-36.728,-51.966,34.774,-0.391,-58.999,-57.436,-3.126,-3.907,-39.853,-39.463,-0.391,-10.549,-50.794,-25.006,-10.940,-56.654,37.509,0.391,-16.801,-6.252,-50.794
'[14:43:13.469 06/11/2076]',-1.172,-12.112,-39.072,-46.496,27.741,-12.894,-66.032,-48.840,-11.722,-8.596,-44.933,-44.542,-13.675,-7.424,-51.575,-37.509,-16.410,-62.125,39.853,-5.079,0.000,-7.033,-51.575
'[14:43:13.473 06/11/2076]',-4.689,-27.741,-39.463,-40.635,24.615,-26.569,-63.687,-48.449,-16.020,-9.768,-47.277,-36.337,-8.596,-15.629,-53.529,-32.430,-18.755,-59.780,40.244,1.563,13.284,-12.112,-53.529
'[14:43:13.477 06/11/2076]',-14.847,-44.542,-41.026,-19.145,16.801,-51.575,-60.562,-25.397,-28.132,-10.549,-62.906,-10.159,-17.582,-12.894,-53.919,-28.132,-23.053,-64.078,41.807,-7.424,39.853,-8.596,-53.919
'[14:43:13.480 06/11/2076]',-24.225,-41.416,-31.258,-29.304,8.205,-59.780,-50.403,-26.178,-37.509,-5.861,-53.919,-29.304,-41.026,9.768,-42.198,-54.701,-19.927,-67.595,32.039,-24.615,58.608,-4.298,-42.198
'[14:43:13.484 06/11/2076]',-12.894,-30.867,-30.085,-46.496,19.536,-50.012,-48.059,-43.370,-29.695,-7.033,-41.026,-41.026,-39.463,8.205,-32.430,-56.264,-15.238,-58.217,30.867,-15.629,34.774,-7.424,-32.430
'[14:43:13.488 06/11/2076]',0.391,-29.304,-35.946,-37.118,29.695,-38.291,-48.449,-45.324,-25.006,-11.331,-27.350,-29.304,-31.648,-11.722,-26.569,-23.443,-24.225,-50.403,36.728,12.112,-10.549,-17.192,-26.569
'[14:43:13.492 06/11/2076]',5.079,-25.006,-33.993,-34.383,28.913,-28.913,-45.714,-44.151,-21.099,-11.331,-13.675,-28.523,-28.132,-15.629,-19.536,-12.894,-26.178,-42.589,34.774,23.834,-33.993,-18.755,-19.536
'[14:43:13.496 06/11/2076]',11.331,-21.880,-32.039,-29.304,28.913,-20.708,-44.933,-35.556,-15.238,-12.503,-7.424,-14.457,-19.145,-17.192,-14.457,0.000,-26.569,-33.211,32.821,28.523,-46.105,-17.582,-14.457
'[14:43:13.500 06/11/2076]',10.549,-23.834,-28.523,-16.801,23.053,-19.145,-39.853,-22.662,-14.457,-10.549,-7.033,3.126,-12.503,-14.457,-12.894,9.768,-26.569,-24.225,29.304,31.648,-47.277,-13.675,-12.894
'[14:43:13.504 06/11/2076]',3.516,-20.708,-22.271,-9.377,13.284,-20.708,-29.304,-12.503,-17.582,-6.252,-5.470,6.252,-16.801,-2.344,-8.205,2.344,-23.834,-17.192,23.053,19.927,-32.821,-7.424,-8.205
'[14:43:13.508 06/11/2076]',2.344,-15.238,-14.847,-8.205,12.112,-15.629,-23.443,-9.377,-13.284,-5.470,-5.079,11.331,-16.020,5.079,-4.298,1.172,-21.880,-12.894,15.629,15.238,-24.615,-2.344,-4.298
'[14:43:13.512 06/11/2076]',3.907,-15.629,-10.940,0.391,13.675,-12.503,-21.099,-1.954,-10.549,-5.470,-7.424,25.788,-10.159,0.781,-3.907,13.675,-23.053,-8.987,11.722,19.536,-23.443,-0.781,-3.907
'[14:43:13.516 06/11/2076]',0.391,-13.284,-7.814,10.549,10.159,-14.457,-17.582,10.159,-11.722,-6.252,-11.722,23.053,-16.801,5.861,-3.126,5.079,-26.569,-7.814,8.596,15.629,-13.675,0.391,-3.126
'[14:43:13.520 06/11/2076]',0.391,-8.987,-4.689,10.549,9.768,-12.112,-18.364,17.582,-10.940,-7.814,-10.549,10.159,-22.271,15.629,-3.516,-10.940,-27.741,-8.987,5.470,13.284,-8.987,2.344,-3.516
'[14:43:13.523 06/11/2076]',8.205,-9.377,-4.689,7.424,15.238,-6.642,-21.880,14.457,-7.033,-8.987,-7.033,16.410,-8.987,4.689,-3.907,0.000,-27.350,-9.377,5.470,26.569,-21.490,-1.172,-3.907
'[14:43:13.527 06/11/2076]',10.940,-12.503,-9.768,12.112,16.410,-8.205,-25.788,18.755,-6.642,-11.331,-10.940,29.695,0.000,-5.079,-7.814,13.284,-30.476,-13.675,10.549,34.383,-31.258,-1.563,-7.814
'[14:43:13.531 06/11/2076]',4.689,-15.629,-9.768,16.020,9.377,-16.020,-30.476,32.039,-10.549,-14.066,-17.973,22.271,-19.145,7.814,-6.252,-3.126,-33.993,-27.741,10.549,19.536,-20.317,3.126,-6.252
'[14:43:13.535 06/11/2076]',0.391,-16.410,-7.033,14.066,6.252,-22.662,-32.821,39.853,-12.894,-13.284,-26.569,19.927,-31.648,20.317,-6.252,-15.629,-31.258,-35.165,7.814,5.861,-6.642,9.377,-6.252
'[14:43:13.539 06/11/2076]',-8.596,-26.960,-3.516,31.258,-0.781,-40.244,-23.053,56.264,-14.457,-10.549,-43.761,43.761,-29.695,17.973,-10.940,-3.126,-27.741,-34.774,4.298,-0.391,12.894,14.066,-10.940
'[14:43:13.543 06/11/2076]',-13.284,-24.225,6.642,21.490,-3.907,-44.151,-7.424,45.324,-10.940,-5.079,-39.463,15.629,-35.946,32.430,-8.205,-29.304,-19.145,-32.821,-5.861,-14.457,33.602,19.927,-8.205
'[14:43:13.547 06/11/2076]',-7.033,-10.940,10.549,-1.172,4.689,-25.397,-12.503,23.053,-3.516,-3.907,-27.741,-10.940,-38.681,33.993,-0.781,-41.416,-12.503,-31.648,-9.768,-11.331,17.582,15.629,-0.781
'[14:43:13.551 06/11/2076]',0.781,-7.814,5.079,-1.563,14.066,-11.331,-22.662,16.410,-1.563,-7.814,-18.755,-6.642,-36.337,13.675,4.298,-18.755,-16.801,-30.867,-4.298,2.735,-17.582,8.596,4.298
'[14:43:13.555 06/11/2076]',5.861,-4.689,2.344,-2.735,17.973,-0.781,-22.271,4.689,-0.391,-4.298,-7.814,-19.145,-34.774,4.298,6.642,-9.768,-12.894,-29.304,-1.563,12.503,-37.900,1.954,6.642
'[14:43:13.559 06/11/2076]',8.596,-2.344,0.781,-2.344,22.271,6.252,-26.178,1.563,-0.781,-1.563,-2.735,-21.490,-38.681,0.391,10.159,0.000,-9.768,-28.523,0.000,15.629,-50.403,-0.391,10.159
'[14:43:13.563 06/11/2076]',7.424,-3.126,1.954,5.079,23.053,7.424,-27.741,9.377,-3.126,0.391,-2.735,-8.596,-38.681,-3.516,12.503,14.066,-5.079,-28.132,-1.172,12.112,-47.668,-0.781,12.503
'[14:43:13.566 06/11/2076]',5.079,-2.344,5.470,8.596,21.099,6.252,-19.145,7.814,-1.954,4.689,-0.781,-12.112,-38.681,0.391,14.847,10.549,0.000,-22.271,-4.689,6.642,-35.165,0.391,14.847
'[14:43:13.570 06/11/2076]',0.391,2.344,7.424,7.814,19.927,11.722,-14.457,1.954,0.000,7.033,4.298,-27.350,-41.026,5.861,18.755,0.391,3.126,-17.973,-6.642,3.126,-29.304,4.298,18.755
'[14:43:13.574 06/11/2076]',0.391,4.298,8.205,9.768,22.662,15.238,-14.457,0.391,1.563,7.033,7.814,-21.490,-37.509,1.954,23.443,7.033,3.126,-17.192,-7.424,3.516,-26.960,6.252,23.443
'[14:43:13.578 06/11/2076]',-1.172,4.689,7.033,15.238,21.880,17.192,-10.940,-1.954,3.907,10.159,8.596,-16.020,-32.430,-0.391,26.178,13.284,5.470,-14.457,-6.252,5.079,-22.662,9.768,26.178
'[14:43:13.582 06/11/2076]',-3.516,8.596,7.814,12.503,20.317,20.708,-6.252,-8.596,5.861,14.847,14.457,-35.946,-36.337,8.205,31.648,-3.907,10.549,-12.894,-7.033,1.954,-17.973,13.675,31.648
'[14:43:13.586 06/11/2076]',0.000,11.722,6.252,9.377,23.443,27.350,-8.596,-14.066,10.549,16.801,17.973,-46.886,-37.509,11.331,37.509,-12.894,13.284,-11.722,-5.470,2.735,-21.490,12.894,37.509
'[14:43:13.590 06/11/2076]',5.861,4.298,4.689,14.066,25.788,28.523,-8.205,-15.238,16.020,18.755,15.629,-30.085,-21.490,0.781,37.509,3.126,17.582,-10.549,-3.907,12.503,-28.132,12.112,37.509
'[14:43:13.594 06/11/2076]',5.079,0.000,3.126,17.582,23.053,23.834,-4.689,-15.238,17.192,21.490,10.159,-25.788,-14.457,-1.172,35.946,3.126,19.536,-12.894,-2.344,13.284,-21.880,14.847,35.946
'[14:43:13.598 06/11/2076]',-2.344,-1.954,4.689,18.755,10.549,17.973,-5.861,-2.735,12.503,21.490,0.781,-33.211,-30.085,17.973,36.728,-22.271,18.364,-22.271,-3.907,-7.033,1.172,22.662,36.728
'[14:43:13.602 06/11/2076]',-17.192,-7.424,5.861,30.085,-8.596,0.781,-2.735,22.271,0.781,22.662,-17.973,-19.927,-47.668,38.291,32.039,-38.681,15.238,-29.695,-5.079,-34.774,33.602,33.211,32.039
'[14:43:13.605 06/11/2076]',-16.020,-5.470,11.331,16.020,-12.112,0.781,8.987,7.424,1.954,26.178,-13.284,-32.430,-38.291,38.681,30.476,-48.449,22.662,-25.788,-10.549,-32.821,39.072,32.430,30.476
'[14:43:13.609 06/11/2076]',-8.596,1.954,14.457,-4.298,-8.987,12.894,12.503,-13.675,10.549,28.132,-4.689,-54.310,-31.648,38.681,32.039,-60.171,27.741,-22.662,-13.675,-28.523,29.304,28.132,32.039
'[14:43:13.613 06/11/2076]',7.033,4.689,5.861,-9.377,4.689,30.085,-6.642,-19.145,16.020,18.364,-0.391,-44.933,-30.085,20.708,34.774,-36.728,20.317,-24.615,-5.079,-12.112,-12.503,18.755,34.774
'[14:43:13.617 06/11/2076]',19.536,7.814,-0.391,-14.457,19.145,37.509,-16.020,-28.132,22.662,12.503,4.689,-44.933,-25.397,6.252,36.337,-21.880,19.927,-25.006,1.172,-1.563,-38.291,10.549,36.337
'[14:43:13.621 06/11/2076]',24.225,7.424,-6.252,-10.940,26.960,40.244,-21.880,-31.648,23.834,8.987,5.079,-46.105,-28.523,-1.954,35.556,-12.112,16.801,-26.960,7.033,4.689,-50.794,1.954,35.556
'[14:43:13.625 06/11/2076]',22.662,5.079,-9.377,-4.298,30.085,37.118,-28.523,-25.788,21.880,4.689,0.781,-37.118,-35.556,-5.470,32.039,-0.391,12.503,-30.867,10.159,0.391,-51.966,0.391,32.039
'[14:43:13.629 06/11/2076]',20.317,2.735,-10.159,-3.907,31.258,31.258,-27.350,-26.960,19.536,5.079,-0.781,-32.039,-36.728,-9.377,31.258,6.642,12.894,-29.695,10.940,-3.126,-47.668,-1.954,31.258
'[14:43:13.633 06/11/2076]',18.755,4.298,-9.768,-7.814,32.430,32.821,-22.662,-37.900,21.099,6.642,3.126,-42.589,-36.728,-11.331,32.039,3.516,15.629,-25.788,10.549,-2.344,-48.840,-4.689,32.039
'[14:43:13.637 06/11/2076]',15.238,3.516,-10.159,-4.689,30.085,35.165,-22.271,-38.681,21.099,6.252,1.954,-48.059,-42.979,-11.331,33.993,2.735,15.629,-22.662,10.940,-3.907,-51.575,-4.298,33.993
'[14:43:13.641 06/11/2076]',15.629,1.954,-8.987,1.954,31.648,34.383,-18.755,-36.728,25.006,7.814,-1.563,-34.383,-40.244,-16.801,35.556,19.536,17.973,-18.364,9.768,-4.298,-53.138,-3.907,35.556
'[14:43:13.645 06/11/2076]',16.801,2.735,-3.907,2.735,34.774,37.118,-9.768,-43.761,31.258,11.722,-1.172,-31.258,-30.867,-23.443,35.165,31.258,23.443,-12.112,4.689,-1.954,-51.184,-5.470,35.165
'[14:43:13.648 06/11/2076]',14.847,5.470,-0.391,2.735,35.165,42.198,-7.424,-46.886,34.383,11.331,1.563,-47.668,-34.774,-21.880,35.165,21.490,22.662,-9.768,1.172,-1.954,-49.231,-7.033,35.165
'[14:43:13.652 06/11/2076]',12.503,5.079,-1.954,4.298,33.211,41.026,-11.331,-43.761,34.383,7.033,-2.735,-48.059,-40.635,-21.490,32.430,20.317,17.973,-9.377,2.735,-5.470,-47.668,-7.424,32.430
'[14:43:13.656 06/11/2076]',11.331,-0.781,-3.126,7.814,34.383,33.602,-9.768,-43.761,35.946,4.298,-11.722,-30.476,-28.523,-33.211,25.006,34.383,15.238,-6.642,3.907,0.391,-45.324,-6.642,25.006
'[14:43:13.660 06/11/2076]',3.907,-6.252,-0.781,8.987,28.913,21.490,-4.298,-39.463,35.556,0.781,-20.317,-27.741,-24.615,-33.211,14.847,30.476,14.457,-11.722,1.563,-3.516,-28.132,-3.907,14.847
'[14:43:13.664 06/11/2076]',-13.675,-11.331,-0.781,21.099,14.066,-1.954,-9.377,-7.814,23.443,-3.516,-45.324,-18.755,-51.575,-8.596,8.987,6.642,7.033,-28.913,1.563,-36.728,6.252,9.768,8.987
'[14:43:13.668 06/11/2076]',-18.755,-12.503,0.781,16.801,12.112,-11.722,-8.596,-5.079,24.225,-2.735,-55.092,-17.582,-52.357,-1.563,5.079,-2.735,7.424,-33.602,0.000,-46.496,20.317,14.457,5.079
'[14:43:13.672 06/11/2076]',-17.973,-9.768,11.331,-0.391,13.675,-10.159,4.298,-25.397,29.695,4.298,-44.933,-48.449,-39.853,-2.344,3.126,-19.145,10.159,-35.165,-10.549,-33.211,21.490,11.722,3.126
'[14:43:13.676 06/11/2076]',-6.252,-8.596,3.516,-8.205,25.788,1.172,-9.768,-37.509,34.774,-1.563,-37.118,-54.701,-31.258,-21.880,1.563,-7.424,0.000,-38.681,-2.735,-10.159,-13.284,5.079,1.563
'[14:43:13.680 06/11/2076]',-1.563,-5.861,2.344,-18.364,27.741,10.940,-21.099,-42.589,40.635,-4.689,-38.681,-57.045,-25.397,-28.523,1.172,-6.252,-5.470,-42.979,-1.563,-0.781,-25.788,1.954,1.172
'[14:43:13.684 06/11/2076]',1.563,-2.735,5.470,-25.788,30.085,16.410,-23.053,-44.933,46.496,-7.033,-41.416,-61.343,-18.755,-35.165,-1.563,-7.814,-5.861,-47.277,-4.689,7.814,-31.258,0.000,-1.563
'[14:43:13.688 06/11/2076]',1.563,0.391,5.079,-24.615,27.350,18.364,-26.569,-36.728,47.277,-11.331,-47.277,-61.343,-22.271,-33.993,-5.470,-10.159,-7.033,-52.747,-4.298,2.344,-29.695,0.000,-5.470
'[14:43:13.691 06/11/2076]',-0.781,3.516,8.205,-25.397,23.053,18.364,-26.569,-30.085,47.277,-10.940,-53.529,-58.999,-25.788,-27.741,-8.987,-14.847,-5.079,-59.389,-7.424,-8.205,-17.582,2.344,-8.987
'[14:43:13.695 06/11/2076]',0.000,5.470,11.722,-28.523,24.615,20.708,-23.834,-32.821,49.621,-10.159,-50.794,-59.389,-19.145,-28.132,-8.987,-14.847,-1.172,-60.562,-10.940,-7.424,-12.503,3.907,-8.987
'[14:43:13.699 06/11/2076]',1.563,4.298,11.722,-26.960,28.523,17.973,-23.053,-32.430,46.886,-11.331,-44.542,-69.548,-21.099,-26.178,-7.424,-23.053,-3.907,-60.171,-10.940,-5.861,-12.112,4.689,-7.424
'[14:43:13.703 06/11/2076]',-1.563,3.126,9.768,-20.708,26.569,13.284,-23.053,-26.178,40.635,-11.331,-39.463,-74.237,-29.695,-19.536,-3.516,-31.648,-7.814,-58.999,-8.987,-10.549,-6.642,8.205,-3.516
'[14:43:13.707 06/11/2076]',0.391,2.344,14.066,-20.708,28.523,14.457,-15.238,-31.648,42.979,-7.424,-27.350,-71.111,-23.053,-17.582,4.298,-26.569,-4.689,-49.621,-13.284,-7.424,-3.907,10.940,4.298
'[14:43:13.711 06/11/2076]',4.298,5.079,17.582,-21.880,34.383,17.973,-7.814,-39.853,45.324,-3.907,-13.284,-66.813,-13.284,-22.662,12.112,-15.238,-4.689,-36.337,-16.801,0.391,-12.503,12.112,12.112
'[14:43:13.715 06/11/2076]',0.781,7.814,19.145,-12.112,31.258,19.145,-7.424,-27.741,39.463,-1.563,-4.689,-64.860,-24.615,-10.159,22.271,-19.536,-7.814,-30.476,-18.364,-8.205,-9.377,16.801,22.271
'[14:43:13.719 06/11/2076]',-6.252,12.112,24.225,-3.907,25.788,17.192,-2.735,-14.847,34.383,3.516,0.000,-55.092,-32.039,6.252,32.039,-23.834,-5.861,-23.443,-23.443,-20.708,3.907,25.006,32.039
'[14:43:13.723 06/11/2076]',-8.596,9.768,30.476,2.344,25.006,10.159,7.424,-8.987,34.383,11.722,1.563,-35.946,-17.192,10.159,37.509,-17.192,0.391,-12.112,-29.695,-20.317,18.755,29.695,37.509
'[14:43:13.727 06/11/2076]',-16.801,3.516,33.993,22.662,20.708,-10.159,15.629,16.410,28.132,18.755,-10.549,-7.033,-14.847,25.788,38.681,-19.927,1.172,-8.205,-33.211,-38.681,55.482,42.979,38.681
'[14:43:13.730 06/11/2076]',-24.225,10.549,42.589,16.410,15.238,-15.238,25.788,18.755,23.834,25.788,-3.907,-24.225,-24.615,53.138,44.933,-51.575,7.033,-7.033,-41.807,-61.343,86.740,54.701,44.933
'[14:43:13.734 06/11/2076]',-16.410,23.834,47.668,-1.563,25.006,-3.516,32.430,-1.172,32.821,29.304,6.642,-42.198,-13.284,58.217,48.449,-66.422,11.722,2.735,-46.886,-57.045,86.349,53.919,48.449
'[14:43:13.738 06/11/2076]',-2.344,25.788,42.589,1.563,37.509,7.814,32.430,-10.940,35.556,23.053,18.755,-36.337,6.642,32.821,43.370,-41.416,1.563,8.596,-41.807,-29.695,56.264,45.714,43.370
'[14:43:13.742 06/11/2076]',3.516,28.913,44.542,1.172,41.026,16.410,35.556,-15.238,35.946,17.973,26.960,-37.900,15.629,26.569,36.337,-34.774,-2.735,12.112,-43.761,-18.364,47.668,42.198,36.337
'[14:43:13.746 06/11/2076]',6.642,30.085,44.933,0.781,39.463,21.880,33.993,-12.503,34.774,12.503,26.178,-25.006,25.006,18.755,31.258,-25.788,-6.252,14.066,-44.151,-10.940,46.886,38.681,31.258
'[14:43:13.750 06/11/2076]',7.033,25.788,41.026,6.642,32.430,17.973,33.602,-4.298,31.258,6.642,20.317,-8.987,32.039,13.675,26.569,-21.880,-9.377,14.847,-40.244,-7.814,51.575,36.728,26.569
'[14:43:13.754 06/11/2076]',1.172,23.443,36.337,7.424,21.490,8.987,35.556,1.563,25.006,1.954,17.192,-8.987,25.397,21.880,21.490,-33.211,-11.331,12.112,-35.556,-14.847,64.860,38.291,21.490
'[14:43:13.758 06/11/2076]',-0.391,24.615,30.085,0.000,13.284,8.205,32.430,-0.391,24.225,-2.735,17.192,-10.940,23.834,25.788,19.145,-41.026,-12.894,7.424,-29.304,-16.801,69.158,37.118,19.145
'[14:43:13.762 06/11/2076]',0.781,23.443,20.317,-1.172,10.159,6.252,28.913,-1.954,21.880,-7.814,16.020,-0.391,28.132,21.490,14.066,-33.602,-17.582,3.516,-19.536,-11.331,63.687,34.774,14.066
'[14:43:13.766 06/11/2076]',-1.563,25.006,13.675,-0.781,4.689,3.516,26.569,0.391,16.410,-10.159,15.238,-4.298,20.708,29.695,8.205,-41.026,-23.443,1.172,-12.894,-12.503,61.734,35.946,8.205
'[14:43:13.770 06/11/2076]',-2.344,29.304,11.331,-5.861,2.344,5.079,24.615,0.391,14.066,-8.596,17.192,-18.364,12.503,43.761,4.689,-55.873,-25.006,3.516,-10.549,-17.192,64.078,35.946,4.689
'[14:43:13.773 06/11/2076]',3.907,30.476,9.377,-15.629,8.205,9.768,21.880,-12.112,15.629,-5.470,22.271,-16.410,23.053,35.556,4.298,-46.886,-22.271,7.814,-8.596,-7.033,50.794,30.867,4.298
'[14:43:13.777 06/11/2076]',7.033,25.006,3.126,-14.847,12.503,8.596,15.629,-17.973,16.801,-4.689,20.708,-5.861,32.039,23.834,1.172,-29.304,-21.490,8.987,-2.344,1.563,40.244,26.178,1.172
'[14:43:13.781 06/11/2076]',0.000,20.708,-1.954,-8.596,7.033,3.126,7.033,-8.596,9.768,-7.424,14.847,-11.722,12.894,32.039,0.000,-39.463,-24.615,1.954,2.735,-8.205,47.277,26.178,0.000
'[14:43:13.785 06/11/2076]',-8.205,16.801,-3.907,-3.516,2.344,-2.735,5.079,-4.298,4.689,-6.642,7.033,-11.331,1.172,38.291,0.391,-47.277,-21.490,-3.126,4.689,-20.708,63.687,25.397,0.391
'[14:43:13.789 06/11/2076]',-17.582,5.079,-8.205,17.973,-4.298,-18.755,14.847,5.470,0.000,-1.954,-9.768,18.364,7.424,33.993,-7.814,-28.523,-16.020,-2.344,8.987,-24.225,84.786,26.960,-7.814
'[14:43:13.793 06/11/2076]',-23.443,7.424,-5.861,19.536,-7.424,-18.364,23.053,0.781,0.391,3.516,-11.722,5.079,5.079,46.886,-10.549,-44.151,-10.159,2.344,6.642,-31.648,101.197,30.476,-10.549
'[14:43:13.797 06/11/2076]',-22.271,19.927,1.563,0.000,-1.172,-5.079,26.569,-20.708,6.252,10.940,2.344,-26.960,3.126,62.125,-3.126,-69.158,-0.391,7.033,-0.781,-39.072,107.839,32.039,-3.126
'[14:43:13.801 06/11/2076]',-6.642,24.225,-5.079,-2.344,17.192,10.549,14.847,-33.602,11.331,10.159,14.457,-23.053,14.457,45.714,0.391,-47.668,-1.954,13.284,5.861,-20.708,75.409,25.788,0.391
'[14:43:13.805 06/11/2076]',-0.391,28.132,-8.987,-2.344,25.788,20.708,11.331,-43.761,15.629,11.722,25.397,-33.211,21.880,38.681,1.563,-42.198,-0.781,22.271,9.768,-7.424,58.608,22.271,1.563
'[14:43:13.809 06/11/2076]',3.907,29.695,-12.503,-1.172,33.602,24.225,7.814,-46.105,17.582,12.894,29.304,-34.383,24.225,35.165,4.689,-38.291,-0.781,21.880,13.284,-3.907,53.138,19.927,4.689
'[14:43:13.813 06/11/2076]',7.424,26.569,-16.020,6.642,37.118,20.317,4.298,-38.291,15.629,12.503,25.397,-18.755,28.913,27.350,5.470,-26.569,0.000,21.099,16.801,-2.735,52.357,18.755,5.470
'[14:43:13.816 06/11/2076]',3.516,26.178,-16.020,11.331,32.039,16.020,8.596,-32.039,13.284,15.629,22.271,-17.973,30.476,27.741,5.861,-30.476,2.735,21.880,16.801,-4.689,58.217,19.145,5.861
'[14:43:13.820 06/11/2076]',0.391,28.132,-12.503,9.377,26.960,15.238,7.424,-25.006,11.331,18.755,21.099,-26.569,23.834,33.602,8.205,-40.244,4.689,19.145,13.284,-8.205,61.734,19.536,8.205
'[14:43:13.824 06/11/2076]',0.391,25.397,-8.596,9.377,22.662,12.503,5.470,-15.238,9.768,19.927,20.708,-16.801,23.443,32.039,8.596,-30.867,5.470,15.629,9.377,-6.252,59.389,19.927,8.596
'[14:43:13.828 06/11/2076]',0.781,19.536,-7.424,12.894,17.973,8.205,3.907,-4.298,8.596,20.317,16.801,-5.470,24.225,28.523,6.642,-18.364,4.689,11.722,8.205,-1.954,55.482,21.490,6.642
'[14:43:13.832 06/11/2076]',-0.391,16.410,-3.907,12.112,11.722,3.516,3.126,4.298,7.814,19.145,16.020,-16.410,13.284,37.509,6.642,-30.476,4.298,4.298,4.689,-0.781,55.873,24.225,6.642
'[14:43:13.836 06/11/2076]',3.907,15.238,-4.298,9.768,13.284,3.516,0.000,8.205,9.377,16.410,16.801,-23.053,5.079,42.198,7.424,-34.383,1.563,0.000,5.079,3.516,46.886,23.053,7.424
'[14:43:13.840 06/11/2076]',11.722,6.642,-8.596,17.973,16.801,-2.344,-3.126,16.410,12.503,14.066,11.331,-1.954,14.457,29.304,4.689,-12.503,-1.954,-5.079,9.377,15.629,34.383,20.317,4.689
'[14:43:13.844 06/11/2076]',11.722,1.172,-10.549,27.741,18.364,-13.284,-3.126,28.132,17.192,13.284,5.079,7.424,19.536,26.178,3.516,-4.689,-4.298,-8.987,11.331,17.582,36.728,21.490,3.516
'[14:43:13.848 06/11/2076]',3.907,-1.172,-9.768,35.556,13.284,-26.960,-5.861,47.277,15.238,14.066,-3.516,1.563,2.344,44.933,4.298,-23.053,-7.814,-20.317,10.549,-1.172,55.873,28.913,4.298
'[14:43:13.852 06/11/2076]',-10.940,-10.159,-10.940,57.436,2.735,-53.919,-3.907,79.707,9.768,14.066,-24.225,18.364,-13.284,61.734,1.563,-31.258,-13.675,-29.695,11.722,-25.788,87.131,39.853,1.563
'[14:43:13.855 06/11/2076]',-14.457,-12.503,-2.344,48.059,3.907,-62.515,10.940,64.860,14.457,19.536,-16.801,8.205,-1.954,60.562,3.126,-35.556,-5.079,-27.741,3.126,-24.225,97.289,40.635,3.126
'[14:43:13.859 06/11/2076]',-9.377,-5.470,2.735,29.695,13.675,-52.357,15.629,39.463,23.834,22.271,-1.954,-10.549,5.470,57.436,8.596,-37.509,0.391,-23.443,-1.954,-16.801,83.614,36.337,8.596
'[14:43:13.863 06/11/2076]',1.563,-0.781,-1.954,26.569,26.569,-35.946,1.954,32.039,26.960,14.066,8.987,3.516,7.424,39.072,15.629,-7.424,-5.470,-19.536,2.735,-1.172,43.370,28.132,15.629
'[14:43:13.867 06/11/2076]',9.768,2.735,-2.344,21.880,35.165,-23.834,0.391,19.536,29.304,10.159,24.225,9.377,12.894,28.132,22.662,10.940,-3.126,-10.940,3.126,7.424,19.536,24.225,22.662
'[14:43:13.871 06/11/2076]',12.894,5.079,-1.954,27.350,39.072,-15.629,3.907,15.238,28.132,7.814,39.072,10.159,12.112,23.443,27.350,23.834,-2.344,1.954,2.735,12.894,6.642,20.708,27.350
'[14:43:13.875 06/11/2076]',12.503,5.861,-0.781,37.509,35.946,-12.894,9.768,21.490,25.397,5.861,46.105,20.708,9.768,23.834,32.039,33.602,-3.907,12.894,1.563,8.205,6.642,23.053,32.039
'[14:43:13.879 06/11/2076]',10.159,6.252,4.298,40.244,32.430,-13.675,20.317,21.880,24.225,5.861,53.529,28.523,14.847,23.443,35.946,38.291,-1.563,25.788,-3.516,3.516,16.020,25.788,35.946
'[14:43:13.883 06/11/2076]',10.159,11.331,10.159,36.337,30.867,-10.159,31.258,16.410,26.569,6.252,63.687,19.536,21.099,23.443,41.026,31.648,0.391,39.853,-9.377,3.126,19.536,24.615,41.026
'[14:43:13.887 06/11/2076]',7.424,16.801,12.503,37.118,24.615,-6.642,34.383,21.880,25.006,4.298,65.641,19.927,21.490,24.225,43.761,26.569,-1.954,47.277,-11.722,1.563,19.536,25.788,43.761
'[14:43:13.891 06/11/2076]',7.424,15.629,17.973,39.463,21.099,-6.642,36.728,29.695,24.225,2.344,64.078,35.556,29.304,19.927,44.151,33.602,-3.907,51.966,-17.192,3.516,24.225,26.960,44.151
'[14:43:13.895 06/11/2076]',8.205,16.801,24.225,35.165,18.364,-4.298,42.589,28.523,24.615,3.907,66.032,41.026,41.416,15.629,45.324,35.165,-1.954,56.264,-23.443,8.205,28.913,26.569,45.324
'[14:43:13.898 06/11/2076]',7.033,19.927,29.304,29.695,11.331,1.563,44.933,28.913,21.099,3.907,69.939,26.569,37.118,19.536,46.496,19.145,-3.126,54.701,-28.523,9.377,29.304,25.006,46.496
'[14:43:13.902 06/11/2076]',7.424,17.973,28.523,32.430,4.689,1.954,39.072,40.635,14.457,-1.563,64.860,32.430,28.523,21.099,45.714,14.847,-7.033,48.840,-27.741,7.814,28.523,23.834,45.714
'[14:43:13.906 06/11/2076]',5.861,10.549,28.523,37.509,-1.563,-3.907,40.244,50.012,8.596,-4.298,56.264,53.138,34.383,11.722,41.416,25.788,-6.642,46.496,-27.741,13.675,33.211,20.317,41.416
'[14:43:13.910 06/11/2076]',1.563,5.079,30.867,43.370,-12.894,-9.768,43.370,61.343,5.079,-7.033,46.886,60.562,33.211,15.238,35.165,22.271,-4.689,38.681,-30.085,12.894,46.105,21.880,35.165
'[14:43:13.914 06/11/2076]',-13.284,-1.172,28.523,64.078,-32.430,-26.569,34.383,102.759,-5.079,-14.847,20.708,78.144,4.298,39.072,31.258,3.126,-7.424,17.973,-27.741,-16.020,80.098,32.039,31.258
'[14:43:13.918 06/11/2076]',-14.457,-1.563,32.821,62.515,-36.728,-28.913,37.118,108.620,-0.781,-15.238,14.457,77.363,4.298,48.840,32.039,-8.987,-0.781,13.284,-32.039,-23.053,94.554,35.165,32.039
'[14:43:13.922 06/11/2076]',-3.516,0.781,39.853,46.886,-30.085,-16.020,48.840,82.051,11.331,-10.940,26.960,53.919,20.708,45.324,30.867,-14.457,9.768,16.410,-39.072,-4.689,85.177,26.960,30.867
'[14:43:13.926 06/11/2076]',12.503,0.000,29.304,50.012,-14.847,-1.172,35.556,73.065,19.536,-18.364,35.165,60.562,31.648,25.006,28.132,12.503,5.079,13.675,-28.523,17.973,45.324,16.410,28.132
'[14:43:13.930 06/11/2076]',24.615,-1.172,24.615,46.105,-1.563,7.424,25.397,63.687,24.615,-20.708,36.337,66.813,36.337,17.582,26.569,27.350,5.079,14.847,-23.834,26.569,26.178,8.987,26.569
'[14:43:13.934 06/11/2076]',30.085,-1.172,19.536,47.277,8.987,12.112,19.145,55.482,25.397,-20.708,37.900,69.158,39.072,10.940,23.443,39.072,6.642,19.145,-18.755,33.602,12.112,3.516,23.443
'[14:43:13.938 06/11/2076]',28.523,-3.516,11.722,59.389,12.894,10.549,11.722,60.562,23.443,-21.099,30.085,71.893,30.476,10.940,17.582,45.324,5.861,14.066,-10.940,30.867,7.424,2.344,17.582
'[14:43:13.941 06/11/2076]',23.834,-4.689,11.331,63.687,16.410,7.424,9.377,60.171,23.053,-17.582,23.053,73.846,23.443,15.238,16.020,48.059,11.722,8.596,-10.549,20.317,14.847,4.298,16.020
'[14:43:13.945 06/11/2076]',23.443,-3.516,14.457,62.125,23.053,9.768,11.331,51.184,27.350,-12.503,24.225,72.283,27.350,10.159,18.755,55.873,19.536,8.596,-13.675,19.927,12.503,2.735,18.755
'[14:43:13.949 06/11/2076]',21.490,-4.689,14.066,64.078,26.960,10.940,13.284,43.761,26.960,-10.549,25.397,65.641,21.880,4.689,21.490,59.389,22.662,7.033,-13.284,21.880,4.689,-1.563,21.490
'[14:43:13.953 06/11/2076]',17.192,-5.861,12.503,67.985,27.741,8.596,12.112,42.979,23.053,-12.112,24.615,67.595,10.940,3.907,23.053,65.250,21.880,6.642,-11.722,15.629,1.172,-2.344,23.053
'[14:43:13.957 06/11/2076]',17.192,-4.689,14.847,62.906,31.258,6.252,17.582,33.602,19.927,-12.112,31.258,75.018,10.940,-4.298,27.350,80.488,19.927,15.238,-14.066,17.973,-7.033,-6.642,27.350
'[14:43:13.961 06/11/2076]',18.364,-2.344,14.847,56.264,35.556,8.205,20.317,22.271,18.364,-13.675,39.463,80.879,14.066,-17.973,30.476,99.634,14.457,24.615,-14.066,25.006,-25.788,-13.284,30.476
'[14:43:13.965 06/11/2076]',12.503,0.781,12.894,60.952,32.430,5.079,17.582,31.648,11.331,-17.582,40.244,86.740,-1.563,-16.020,34.383,104.713,1.172,25.397,-12.112,16.020,-33.211,-14.847,34.383
'[14:43:13.969 06/11/2076]',4.689,3.516,16.801,65.641,24.225,-1.563,20.708,46.105,3.907,-18.755,38.681,97.680,-14.457,-12.894,41.807,106.276,-5.470,30.476,-16.020,2.344,-27.350,-14.457,41.807
'[14:43:13.973 06/11/2076]',-0.781,0.391,22.662,66.422,15.629,-8.987,31.648,50.794,0.781,-15.238,33.602,115.653,-5.861,-18.755,42.198,117.998,-4.298,39.463,-21.880,1.563,-16.410,-18.755,42.198
'[14:43:13.977 06/11/2076]',-14.847,-8.596,24.615,80.488,-4.689,-26.960,40.244,73.065,-11.722,-14.457,14.457,141.050,-12.894,-15.238,35.165,121.514,-6.252,35.946,-23.834,-11.722,14.457,-17.973,35.165
'[14:43:13.980 06/11/2076]',-25.788,-7.033,30.476,69.548,-26.178,-28.132,46.496,74.628,-23.834,-14.847,14.457,119.951,-33.211,1.563,33.993,92.601,-1.563,28.913,-29.695,-28.913,39.853,-19.145,33.993
'[14:43:13.984 06/11/2076]',-24.615,0.000,31.258,39.853,-38.681,-10.940,47.668,48.840,-25.788,-15.238,18.755,89.084,-33.993,0.391,26.569,73.455,1.954,29.304,-30.476,-18.755,33.602,-31.258,26.569
'[14:43:13.988 06/11/2076]',-13.284,-3.907,17.582,37.509,-42.198,5.079,37.118,37.118,-28.523,-26.178,25.397,85.568,-28.913,-30.085,16.801,99.243,-8.205,25.397,-16.801,15.238,-11.722,-50.403,16.801
'[14:43:13.992 06/11/2076]',-6.642,-1.172,10.940,30.867,-48.059,19.927,30.476,30.867,-27.350,-30.867,26.960,75.409,-28.913,-43.370,10.940,104.713,-10.159,19.145,-10.159,28.913,-37.509,-58.217,10.940
'[14:43:13.996 06/11/2076]',2.344,1.563,7.033,23.834,-48.059,30.085,23.443,29.304,-23.834,-33.993,21.099,79.707,-25.397,-51.184,8.596,111.746,-9.377,13.675,-6.252,35.556,-55.873,-60.562,8.596
'[14:43:14.000 06/11/2076]',9.377,1.172,2.735,26.960,-46.886,31.258,19.927,35.946,-19.145,-35.556,11.331,87.912,-21.880,-55.092,5.079,116.044,-6.252,12.894,-1.954,38.291,-67.595,-59.780,5.079
'[14:43:14.004 06/11/2076]',12.894,5.861,3.126,26.178,-41.026,30.476,19.536,39.853,-13.284,-33.993,3.126,81.270,-23.834,-46.496,2.735,105.495,1.172,7.814,-2.344,28.132,-64.078,-53.919,2.735
'[14:43:14.008 06/11/2076]',20.708,11.331,4.298,16.410,-28.132,33.993,16.801,31.258,-3.516,-31.258,-2.344,73.065,-19.145,-41.807,0.000,98.071,8.205,1.172,-3.516,21.490,-63.297,-49.231,0.000
'[14:43:14.012 06/11/2076]',28.913,8.987,1.954,14.066,-12.112,32.821,10.159,24.225,5.470,-32.430,-8.205,74.237,-8.987,-49.231,-7.424,106.276,9.768,-3.126,-1.172,24.225,-67.595,-49.231,-7.424
'[14:43:14.016 06/11/2076]',31.258,5.861,-0.391,17.973,1.954,24.615,4.689,23.053,11.331,-35.556,-15.629,62.515,-8.987,-50.012,-15.629,99.634,8.596,-12.503,1.172,20.317,-63.297,-47.668,-15.629
'[14:43:14.020 06/11/2076]',31.258,5.470,0.000,12.112,15.629,17.582,1.172,14.066,15.629,-35.165,-17.582,41.026,-13.675,-44.542,-19.927,82.442,8.596,-19.536,0.781,13.675,-55.092,-45.714,-19.927
'[14:43:14.023 06/11/2076]',38.291,0.391,1.172,3.126,35.556,11.722,0.000,-4.298,24.225,-34.383,-14.066,33.993,-1.172,-55.873,-21.099,88.694,10.159,-21.490,-0.391,20.708,-61.343,-47.277,-21.099
'[14:43:14.027 06/11/2076]',41.416,-5.079,-1.954,5.470,51.966,1.954,-1.954,-12.112,28.913,-32.430,-16.020,38.291,9.377,-67.595,-23.834,101.197,9.377,-23.053,2.735,26.569,-67.595,-47.277,-23.834
'[14:43:14.031 06/11/2076]',33.211,-5.079,-3.516,7.814,54.701,-7.814,-7.814,-6.642,24.225,-29.304,-21.099,29.304,-6.252,-54.310,-20.317,85.177,6.642,-31.258,4.298,11.722,-58.217,-41.416,-20.317
'[14:43:14.035 06/11/2076]',24.225,-4.298,-3.516,6.642,52.747,-19.145,-7.424,-1.954,20.317,-23.443,-27.741,28.132,-15.629,-40.635,-17.192,71.502,4.689,-32.039,4.298,-6.252,-44.542,-32.821,-17.192
'[14:43:14.039 06/11/2076]',10.549,-13.675,-2.735,23.443,41.026,-41.807,3.907,14.066,16.410,-16.020,-46.105,58.217,-7.424,-40.635,-23.834,85.177,1.563,-28.913,3.516,-11.722,-22.271,-26.569,-23.834
'[14:43:14.043 06/11/2076]',-0.391,-10.159,0.781,16.801,32.430,-49.621,10.940,13.284,19.145,-13.284,-50.012,42.589,-8.205,-30.476,-25.788,63.297,-0.781,-28.913,0.000,-21.490,-6.252,-21.490,-25.788
'[14:43:14.047 06/11/2076]',-7.424,0.000,9.768,-7.814,25.788,-48.059,16.020,0.391,22.271,-10.940,-39.853,7.424,-14.457,-17.192,-21.099,32.039,-6.252,-31.648,-8.987,-29.304,-0.781,-17.973,-21.099
'[14:43:14.051 06/11/2076]',-2.344,2.344,5.079,-14.847,30.085,-40.635,5.470,-5.470,25.006,-19.145,-34.774,5.861,-8.596,-38.681,-19.145,44.151,-21.099,-33.993,-4.298,-8.596,-32.039,-24.615,-19.145
'[14:43:14.055 06/11/2076]',-4.298,3.907,2.344,-17.582,24.615,-36.728,2.344,-6.642,25.006,-23.443,-30.476,-5.861,-5.861,-49.231,-21.099,42.198,-31.648,-37.509,-1.563,5.470,-47.277,-29.304,-21.099
'[14:43:14.059 06/11/2076]',-8.987,7.033,0.391,-20.317,11.722,-31.648,-0.781,-2.344,21.099,-27.741,-29.304,-11.722,-8.987,-53.919,-21.880,39.072,-41.026,-42.979,0.391,10.549,-51.575,-31.648,-21.880
'[14:43:14.063 06/11/2076]',-13.675,6.642,-2.344,-17.582,-2.344,-28.913,-4.689,8.205,19.536,-33.211,-39.072,1.954,-8.205,-62.906,-21.490,43.370,-46.105,-49.231,3.126,13.675,-50.403,-31.258,-21.490
'[14:43:14.066 06/11/2076]',-20.317,7.033,-1.954,-16.410,-17.973,-26.178,-3.516,16.020,20.317,-37.509,-46.886,0.391,-10.159,-61.343,-25.006,32.821,-44.151,-56.654,2.735,13.284,-39.072,-30.476,-25.006
'[14:43:14.070 06/11/2076]',-22.271,9.377,-1.563,-21.880,-28.913,-18.364,-2.735,14.066,22.271,-42.198,-47.668,-16.410,-16.801,-57.045,-23.443,14.457,-41.807,-61.343,2.344,9.377,-32.039,-29.304,-23.443
'[14:43:14.074 06/11/2076]',-18.755,8.987,-1.563,-22.662,-30.867,-8.987,-6.252,12.894,27.741,-46.886,-53.138,-12.894,-16.410,-61.343,-21.880,14.066,-38.291,-68.376,2.344,8.987,-29.695,-26.960,-21.880
'[14:43:14.078 06/11/2076]',-13.675,5.861,-2.344,-17.973,-27.350,-2.735,-8.987,10.940,33.211,-51.184,-59.780,-7.424,-10.549,-67.985,-24.225,18.364,-31.648,-72.674,3.126,10.549,-25.006,-25.397,-24.225
'[14:43:14.082 06/11/2076]',-8.987,8.987,-2.344,-20.317,-22.662,7.814,-10.159,0.781,39.853,-53.138,-60.562,-28.913,-11.722,-62.515,-25.397,-1.563,-22.271,-76.581,3.126,3.907,-17.192,-21.099,-25.397
'[14:43:14.086 06/11/2076]',-1.172,13.675,-3.907,-24.615,-10.940,21.490,-14.457,-12.894,50.012,-55.873,-59.780,-43.761,-10.159,-60.952,-23.834,-13.284,-13.675,-77.363,4.689,2.344,-19.927,-19.536,-23.834
'[14:43:14.090 06/11/2076]',9.377,8.205,-7.033,-19.145,7.033,24.615,-16.410,-24.225,59.389,-57.436,-62.125,-29.695,3.907,-73.455,-23.443,3.516,-5.470,-75.409,7.814,8.596,-26.569,-19.145,-23.443
'[14:43:14.094 06/11/2076]',16.020,3.907,-7.814,-12.894,24.225,21.880,-14.847,-33.602,66.032,-54.701,-61.734,-27.350,12.112,-73.846,-23.443,7.424,0.781,-71.893,8.596,3.516,-20.708,-12.112,-23.443
'[14:43:14.098 06/11/2076]',11.331,2.735,-6.642,-7.814,33.993,14.066,-15.238,-33.211,64.078,-48.449,-63.297,-39.072,-2.344,-51.966,-16.410,-14.847,4.298,-72.674,7.424,-21.099,2.344,-1.954,-16.410
'[14:43:14.102 06/11/2076]',1.954,-6.252,-6.252,10.159,38.291,-7.814,-14.847,-16.410,54.310,-42.198,-75.018,-31.648,-20.708,-28.913,-12.894,-30.476,5.861,-72.283,7.033,-51.575,36.728,12.503,-12.894
'[14:43:14.105 06/11/2076]',4.298,-7.814,1.172,0.391,51.184,-14.457,-1.954,-37.118,54.701,-26.178,-64.078,-48.840,-8.987,-20.317,-7.424,-45.714,16.410,-60.171,-0.391,-55.092,48.840,18.755,-7.424
'[14:43:14.109 06/11/2076]',11.722,-1.954,7.033,-23.443,69.158,-7.424,2.344,-70.330,61.343,-12.112,-46.496,-82.051,2.344,-12.894,-2.344,-66.422,23.053,-46.105,-6.252,-51.184,44.151,21.490,-2.344
'[14:43:14.113 06/11/2076]',23.834,-1.563,0.781,-29.695,90.647,-3.907,-13.284,-79.707,59.780,-9.768,-36.337,-81.661,5.470,-21.490,2.344,-54.701,11.722,-39.853,0.000,-36.337,7.814,20.708,2.344
'[14:43:14.117 06/11/2076]',29.695,-2.344,-0.781,-40.635,103.932,-9.377,-16.410,-91.819,57.827,-2.344,-25.397,-88.694,14.066,-25.397,6.642,-53.919,5.470,-28.913,1.563,-28.132,-10.549,20.708,6.642
'[14:43:14.121 06/11/2076]',26.960,-3.907,-4.298,-45.324,106.276,-19.927,-16.020,-96.899,52.747,0.781,-19.145,-98.852,15.238,-25.006,3.516,-58.217,-5.470,-23.834,5.079,-20.317,-19.927,20.708,3.516
'[14:43:14.125 06/11/2076]',18.755,-8.205,-8.205,-46.886,97.289,-36.337,-17.192,-88.694,42.589,-1.172,-21.490,-97.680,9.377,-22.662,-1.954,-61.343,-19.536,-28.523,8.987,-22.271,-20.708,21.880,-1.954
'[14:43:14.129 06/11/2076]',9.377,-12.503,-7.814,-55.092,81.270,-50.403,-13.675,-84.005,33.211,-5.861,-26.178,-93.382,8.596,-23.443,-8.596,-67.595,-33.602,-30.085,8.596,-23.443,-13.675,20.708,-8.596
'[14:43:14.133 06/11/2076]',0.781,-11.722,-8.205,-71.111,62.906,-55.873,-10.159,-87.521,26.569,-14.847,-26.960,-103.150,6.252,-25.006,-17.192,-82.442,-49.231,-31.648,8.987,-18.364,-16.020,16.020,-17.192
'[14:43:14.137 06/11/2076]',-9.768,-11.722,-13.284,-79.316,38.681,-58.608,-16.020,-79.707,17.192,-30.476,-33.602,-102.759,-2.344,-28.523,-27.741,-89.866,-71.502,-35.556,14.066,-14.847,-21.099,8.205,-27.741
'[14:43:14.141 06/11/2076]',-19.927,-17.192,-16.801,-80.488,13.284,-60.952,-19.536,-68.376,8.205,-43.370,-42.979,-82.051,-7.424,-36.337,-37.118,-79.707,-87.912,-39.072,17.582,-9.768,-22.662,1.954,-37.118
'[14:43:14.145 06/11/2076]',-28.132,-16.410,-17.973,-85.177,-7.814,-57.045,-17.582,-66.032,6.252,-54.310,-46.105,-74.237,-5.861,-44.542,-43.370,-73.846,-96.117,-39.853,18.755,-1.954,-22.662,-7.033,-43.370
'[14:43:14.148 06/11/2076]',-33.602,-10.549,-20.708,-89.475,-26.569,-44.933,-20.708,-63.297,2.735,-66.422,-44.151,-85.568,-17.192,-44.542,-46.886,-83.614,-103.541,-42.979,21.490,1.954,-27.350,-14.847,-46.886
'[14:43:14.152 06/11/2076]',-35.556,-6.252,-27.741,-83.614,-39.853,-34.383,-26.960,-51.966,0.000,-77.753,-50.794,-79.316,-29.695,-46.105,-50.012,-81.270,-107.448,-46.886,28.523,1.563,-31.648,-19.927,-50.012
'[14:43:14.156 06/11/2076]',-32.430,-5.861,-30.476,-75.800,-44.542,-28.132,-25.006,-46.496,0.781,-84.005,-57.436,-58.999,-21.490,-58.608,-55.092,-63.687,-102.759,-43.761,31.258,8.596,-31.648,-24.225,-55.092
'[14:43:14.160 06/11/2076]',-31.648,-5.861,-32.039,-67.985,-48.059,-26.178,-21.099,-41.807,0.781,-85.568,-60.952,-50.403,-17.973,-57.436,-60.171,-60.562,-93.382,-39.463,32.821,7.033,-18.755,-23.443,-60.171
'[14:43:14.164 06/11/2076]',-40.244,-9.768,-35.556,-42.589,-57.045,-36.337,-28.523,-7.424,-10.159,-84.786,-78.535,-33.602,-43.370,-32.039,-60.952,-70.330,-83.223,-48.840,36.337,-21.099,13.675,-12.112,-60.952
'[14:43:14.168 06/11/2076]',-38.681,-10.940,-29.304,-35.946,-52.747,-37.509,-21.880,-3.516,-9.768,-73.846,-73.455,-34.774,-45.324,-16.801,-55.092,-75.800,-60.562,-46.105,30.085,-32.821,35.946,-7.033,-55.092
'[14:43:14.172 06/11/2076]',-26.178,-7.424,-19.145,-42.198,-34.383,-25.006,-7.424,-29.304,0.391,-57.827,-48.449,-59.780,-25.788,-16.801,-46.886,-76.972,-31.648,-32.821,19.927,-16.410,31.648,-12.894,-46.886
'[14:43:14.176 06/11/2076]',-3.516,-10.940,-22.662,-26.960,-7.033,-8.596,-15.238,-34.774,6.642,-51.966,-27.350,-53.919,-10.549,-34.774,-35.946,-44.933,-20.317,-26.178,23.443,7.814,-5.861,-20.317,-35.946
'[14:43:14.180 06/11/2076]',11.722,-12.894,-17.582,-18.364,14.457,0.391,-17.973,-34.774,11.722,-42.198,-13.284,-46.886,0.391,-38.291,-24.615,-27.741,-5.470,-16.410,18.364,18.364,-20.708,-22.662,-24.615
'[14:43:14.184 06/11/2076]',23.443,-16.020,-13.284,-8.205,33.602,1.172,-14.847,-35.165,16.020,-32.039,0.391,-43.761,12.894,-39.463,-15.238,-16.801,6.252,-0.391,14.066,28.523,-31.648,-21.880,-15.238
'[14:43:14.188 06/11/2076]',29.304,-22.271,-13.675,8.205,44.151,-9.377,-13.675,-19.536,11.331,-18.755,4.689,-38.291,11.722,-31.648,-9.768,-9.768,11.722,7.814,14.457,26.960,-33.993,-17.973,-9.768
'[14:43:14.191 06/11/2076]',31.258,-27.350,-8.987,12.894,54.310,-26.178,-11.722,-8.596,11.331,-5.470,5.079,-35.556,10.549,-17.192,-5.079,-11.722,16.801,10.159,9.768,18.755,-25.397,-10.159,-5.079
'[14:43:14.195 06/11/2076]',35.946,-30.085,-6.252,9.377,67.985,-43.761,-5.470,-8.596,14.457,6.252,8.596,-38.291,17.192,-11.331,-0.391,-12.503,18.364,12.503,7.033,19.536,-27.350,-6.252,-0.391
'[14:43:14.199 06/11/2076]',37.509,-34.774,-9.768,11.331,77.753,-63.687,-5.470,-4.298,14.847,9.768,7.814,-44.542,15.238,-7.814,1.954,-19.927,8.596,8.596,10.549,22.662,-35.556,-6.252,1.954
'[14:43:14.203 06/11/2076]',29.695,-40.244,-14.457,13.675,78.926,-85.958,-9.377,4.689,15.238,8.987,0.391,-48.449,7.424,-1.172,1.954,-32.039,-6.252,0.391,15.238,21.490,-35.165,-3.516,1.954
'[14:43:14.207 06/11/2076]',20.708,-46.496,-18.364,8.205,76.581,-103.932,-10.940,1.563,19.536,4.689,-5.079,-46.496,12.894,-5.079,-0.781,-32.821,-19.536,-6.252,19.145,28.523,-33.993,-3.516,-0.781
'[14:43:14.211 06/11/2076]',10.549,-50.403,-26.178,1.563,68.376,-110.965,-16.801,-5.079,22.271,-1.954,-8.987,-51.575,17.973,-15.629,-8.596,-33.602,-37.509,-13.284,26.960,40.635,-37.509,-6.252,-8.596
'[14:43:14.215 06/11/2076]',-11.722,-52.747,-33.993,3.907,43.761,-117.607,-26.569,4.298,17.582,-10.940,-22.662,-60.171,2.344,-12.503,-16.410,-50.012,-58.217,-30.867,34.774,37.118,-26.960,-4.298,-16.410
'[14:43:14.219 06/11/2076]',-36.728,-52.747,-35.165,4.298,12.894,-120.733,-29.304,15.238,13.284,-19.536,-37.118,-66.032,-12.503,-5.861,-23.053,-67.204,-71.502,-44.542,35.946,29.695,-6.642,-0.391,-23.053
'[14:43:14.223 06/11/2076]',-53.529,-53.919,-32.821,1.954,-11.331,-118.779,-22.662,14.066,15.629,-24.615,-51.966,-62.906,-6.642,-10.940,-32.821,-72.674,-75.409,-50.794,33.602,33.602,8.596,1.172,-32.821
'[14:43:14.227 06/11/2076]',-76.972,-60.952,-31.258,16.410,-44.933,-126.203,-18.364,35.556,12.503,-30.867,-79.316,-44.933,-13.284,-3.907,-42.198,-82.051,-79.316,-63.297,32.039,21.490,41.026,9.768,-42.198
'[14:43:14.230 06/11/2076]',-92.601,-52.747,-22.271,0.781,-68.376,-116.044,-12.503,30.476,13.284,-35.946,-80.488,-71.502,-31.648,18.755,-42.979,-118.388,-72.674,-76.190,23.053,3.516,70.330,16.410,-42.979
'[14:43:14.234 06/11/2076]',-83.223,-42.589,-21.880,-21.099,-66.813,-86.349,-19.927,2.735,23.834,-44.933,-77.363,-88.694,-28.132,12.894,-44.542,-126.984,-61.343,-76.972,22.662,14.457,56.654,13.284,-44.542
'[14:43:14.238 06/11/2076]',-71.893,-39.853,-31.648,-16.801,-59.780,-59.780,-30.085,-10.940,27.350,-54.701,-70.330,-85.568,-20.708,-13.675,-48.449,-99.243,-58.608,-80.098,32.430,37.900,23.834,1.563,-48.449
'[14:43:14.242 06/11/2076]',-60.952,-33.993,-33.602,-19.145,-52.357,-32.821,-35.165,-27.741,30.476,-58.999,-62.125,-92.210,-19.145,-27.350,-49.621,-87.131,-45.714,-82.051,34.383,46.886,9.377,-3.516,-49.621
'[14:43:14.246 06/11/2076]',-49.231,-28.523,-30.476,-19.145,-37.900,-11.331,-41.416,-37.900,32.430,-59.389,-59.780,-87.912,-15.238,-37.509,-48.059,-72.674,-28.523,-82.442,31.258,49.231,1.172,-5.470,-48.059
'[14:43:14.250 06/11/2076]',-39.853,-26.569,-25.788,-10.549,-25.397,0.000,-40.635,-38.291,35.165,-55.873,-60.171,-81.661,-9.768,-39.853,-46.886,-64.860,-9.768,-81.270,26.569,45.324,3.907,-4.298,-46.886
'[14:43:14.254 06/11/2076]',-34.383,-21.490,-17.973,-6.642,-16.020,6.642,-33.993,-38.681,35.556,-50.012,-55.482,-85.958,-11.722,-29.695,-42.589,-71.111,8.596,-79.707,18.755,31.648,17.192,0.391,-42.589
'[14:43:14.258 06/11/2076]',-21.490,-15.629,-7.814,-13.284,1.172,17.192,-31.258,-46.886,39.072,-44.542,-45.324,-85.958,-6.642,-22.662,-38.291,-67.985,25.006,-76.581,8.596,22.271,21.490,5.079,-38.291
'[14:43:14.262 06/11/2076]',-8.596,-12.503,-5.470,-12.112,20.317,20.708,-31.648,-49.621,40.635,-39.072,-38.291,-71.893,3.126,-25.788,-33.993,-51.966,35.165,-73.065,6.252,18.755,15.238,7.033,-33.993
'[14:43:14.266 06/11/2076]',0.781,-8.987,-7.033,-8.987,33.602,18.755,-32.039,-46.886,37.509,-33.602,-30.867,-71.893,1.563,-18.755,-27.350,-53.529,39.072,-69.158,7.814,9.377,14.457,8.987,-27.350
'[14:43:14.270 06/11/2076]',9.377,-3.907,-2.735,-16.020,47.277,19.927,-33.211,-48.449,35.946,-24.225,-20.317,-81.661,-1.172,-4.689,-18.364,-65.641,43.370,-62.125,3.516,-0.781,13.675,12.112,-18.364
'[14:43:14.273 06/11/2076]',24.615,0.000,0.391,-25.788,66.813,20.317,-31.648,-58.217,39.853,-13.675,-6.252,-73.846,13.284,-4.689,-9.768,-53.138,48.449,-51.966,0.391,1.172,-0.391,11.722,-9.768
'[14:43:14.277 06/11/2076]',33.993,-1.954,-0.391,-24.225,82.442,11.722,-33.211,-55.482,38.681,-7.814,0.391,-55.092,25.397,-8.205,-3.126,-37.900,42.589,-41.807,1.172,3.907,-14.066,11.331,-3.126
'[14:43:14.281 06/11/2076]',30.085,-1.563,0.391,-22.662,85.958,-3.126,-39.463,-36.728,28.132,-5.079,-1.172,-48.449,9.768,9.377,0.781,-48.840,31.258,-42.198,0.391,-12.894,-10.940,17.192,0.781
'[14:43:14.285 06/11/2076]',21.490,-1.172,1.563,-22.271,86.740,-24.615,-39.072,-23.834,18.755,-2.344,-5.470,-38.291,-1.172,26.178,3.516,-57.045,21.490,-42.979,-0.781,-31.258,-1.563,23.053,3.516
'[14:43:14.289 06/11/2076]',9.377,-12.894,-0.781,-8.205,82.051,-59.389,-31.648,-4.298,8.205,-1.954,-25.006,0.781,-0.391,23.834,-2.344,-37.509,7.424,-42.198,1.563,-36.728,10.159,25.006,-2.344
'[14:43:14.293 06/11/2076]',-2.735,-12.894,0.781,-9.768,76.190,-73.846,-24.615,-1.172,5.861,-3.907,-30.085,-1.563,-7.814,31.648,-5.470,-47.668,-3.907,-42.198,0.000,-46.886,21.099,25.397,-5.470
'[14:43:14.297 06/11/2076]',-10.549,-1.172,10.940,-32.039,70.330,-67.985,-17.582,-18.364,9.768,-5.079,-18.755,-25.006,-18.364,43.761,0.000,-63.687,-8.987,-43.370,-10.159,-56.654,25.788,25.397,0.000
'[14:43:14.301 06/11/2076]',-9.377,3.516,8.205,-34.383,71.893,-51.184,-24.615,-27.350,12.503,-18.755,-11.331,-12.112,-17.582,20.708,1.563,-33.602,-27.350,-40.244,-7.424,-40.244,-5.861,15.238,1.563
'[14:43:14.305 06/11/2076]',-13.284,10.159,10.159,-33.993,65.250,-35.165,-20.708,-35.946,13.284,-28.523,-2.735,-13.675,-17.582,5.470,-0.391,-19.927,-37.509,-37.118,-9.377,-29.695,-21.490,8.596,-0.391
'[14:43:14.309 06/11/2076]',-19.145,17.582,14.847,-36.337,55.873,-17.192,-19.927,-41.026,11.722,-37.509,0.391,-14.066,-23.443,-1.172,-1.172,-12.112,-41.807,-38.681,-14.066,-28.523,-27.741,5.861,-1.172
'[14:43:14.313 06/11/2076]',-24.615,22.662,17.192,-33.211,47.668,-5.861,-19.927,-38.681,10.159,-46.105,-4.689,4.298,-24.225,-12.894,-2.344,3.907,-43.370,-41.026,-16.410,-29.304,-28.523,2.735,-2.344
'[14:43:14.316 06/11/2076]',-28.523,28.913,22.271,-32.430,41.026,2.735,-13.284,-40.244,7.814,-48.059,-9.768,5.079,-28.132,-16.801,-4.298,5.079,-38.681,-39.853,-21.490,-35.556,-19.145,0.391,-4.298
'[14:43:14.320 06/11/2076]',-31.258,41.026,27.741,-34.383,36.337,20.708,-10.159,-43.761,7.033,-45.714,-6.642,-4.298,-33.993,-14.066,-3.126,0.391,-27.350,-38.291,-26.960,-42.198,-14.457,-0.391,-3.126
'[14:43:14.324 06/11/2076]',-26.178,52.357,34.383,-33.602,37.509,41.026,-7.424,-44.933,7.814,-40.244,-6.252,6.252,-30.867,-15.238,-1.563,16.020,-15.629,-35.556,-33.602,-46.496,-11.722,-0.781,-1.563
'[14:43:14.328 06/11/2076]',-17.582,61.343,42.198,-29.695,41.416,61.343,-1.954,-45.324,6.642,-30.476,-3.516,17.973,-22.662,-16.801,-2.344,32.430,-1.563,-28.132,-41.416,-49.621,-7.814,0.391,-2.344
'[14:43:14.332 06/11/2076]',-10.549,73.846,50.794,-29.695,42.198,84.005,5.079,-46.886,5.079,-19.536,5.470,4.298,-20.708,-6.252,-0.391,23.443,15.629,-17.192,-50.012,-52.357,-3.516,1.172,-0.391
'[14:43:14.336 06/11/2076]',0.391,86.349,57.045,-33.211,46.496,104.322,7.814,-49.231,6.642,-8.596,14.847,-3.126,-17.192,0.781,5.470,20.708,31.648,-5.079,-56.264,-52.747,-5.470,0.391,5.470
'[14:43:14.340 06/11/2076]',15.238,86.349,62.515,-27.741,51.184,113.309,15.238,-43.761,7.033,3.907,19.145,16.020,1.172,-5.470,8.596,42.198,44.933,9.377,-61.734,-44.542,-10.159,-0.781,8.596
'[14:43:14.344 06/11/2076]',21.099,86.740,67.204,-22.662,48.059,111.746,26.569,-34.383,5.079,19.145,21.880,25.397,13.675,-2.344,12.112,48.840,58.217,21.490,-66.422,-44.151,-6.252,1.172,12.112
'[14:43:14.348 06/11/2076]',19.536,89.084,69.158,-20.708,38.681,101.197,29.695,-13.284,-1.172,31.648,19.145,22.271,4.298,21.490,17.973,29.304,66.422,21.880,-68.376,-62.906,8.205,7.424,17.973
'[14:43:14.352 06/11/2076]',12.112,80.488,67.985,-6.252,19.927,71.502,36.337,25.397,-14.066,44.151,2.344,42.589,-5.470,47.668,15.238,17.973,66.032,22.662,-67.204,-87.521,34.774,19.145,15.238
'[14:43:14.355 06/11/2076]',13.675,78.535,73.065,-19.927,13.284,58.217,53.919,18.755,-12.894,56.264,10.159,30.476,10.549,54.310,14.066,5.470,74.628,31.258,-72.283,-80.098,38.681,17.582,14.066
'[14:43:14.359 06/11/2076]',22.662,79.316,67.204,-39.072,16.801,53.529,51.966,7.033,-5.861,57.827,18.364,14.066,25.397,51.966,12.503,-5.079,73.455,36.728,-66.422,-61.343,20.708,10.159,12.503
'[14:43:14.363 06/11/2076]',32.039,73.065,51.184,-39.072,22.271,47.668,30.085,15.238,-4.298,47.277,19.927,25.397,30.085,35.946,11.722,9.768,53.529,30.085,-50.403,-40.244,-10.549,1.563,11.722
'[14:43:14.367 06/11/2076]',34.774,67.985,38.681,-42.589,24.615,41.416,17.973,13.675,-1.172,37.900,21.490,25.397,37.509,21.880,11.722,13.284,42.589,24.225,-37.900,-22.662,-26.960,-5.861,11.722
'[14:43:14.371 06/11/2076]',30.867,59.389,24.615,-37.118,21.880,31.648,7.814,15.629,-0.391,28.523,18.364,21.880,35.946,12.503,8.205,11.331,30.476,14.066,-23.834,-8.987,-35.556,-12.112,8.205
'[14:43:14.375 06/11/2076]',20.708,47.668,13.284,-26.960,13.675,16.410,-2.344,26.569,-5.079,19.145,9.377,26.178,27.350,8.596,3.516,11.331,14.066,0.391,-12.503,-6.252,-31.648,-13.675,3.516
'[14:43:14.379 06/11/2076]',9.377,37.118,8.987,-20.708,3.126,3.907,-3.516,29.695,-7.424,13.675,1.172,28.132,22.662,6.252,0.000,7.424,4.689,-6.642,-8.205,-2.344,-22.662,-13.284,0.000
'[14:43:14.383 06/11/2076]',1.172,30.476,6.642,-20.317,-3.907,0.391,-3.516,25.397,-7.424,7.424,-0.781,14.847,17.973,3.126,-3.516,-2.735,-1.954,-9.377,-5.861,6.252,-20.708,-16.410,-3.516
'[14:43:14.387 06/11/2076]',-8.596,24.225,2.344,-12.894,-12.503,-3.516,-9.768,30.476,-11.331,0.391,-6.642,9.377,6.252,0.391,-7.033,-7.424,-12.894,-12.112,-1.563,12.503,-21.490,-17.973,-7.033
'[14:43:14.391 06/11/2076]',-18.364,15.629,-0.781,-4.298,-21.490,-8.205,-14.066,35.165,-12.112,-5.079,-14.066,19.536,4.689,-6.642,-10.159,0.391,-18.755,-16.020,1.563,16.020,-15.629,-16.020,-10.159
'[14:43:14.395 06/11/2076]',-25.397,9.377,0.391,-3.907,-28.132,-7.814,-11.722,28.132,-9.768,-7.424,-16.020,17.973,8.596,-13.284,-13.284,1.954,-17.582,-15.238,0.391,24.615,-10.549,-15.238,-13.284
'[14:43:14.398 06/11/2076]',-32.430,8.596,0.781,-5.470,-37.509,-0.391,-11.331,21.490,-11.331,-8.205,-14.066,-4.689,0.000,-11.722,-14.066,-13.284,-17.192,-17.582,0.000,28.913,-9.768,-16.020,-14.066
'[14:43:14.402 06/11/2076]',-39.072,7.033,0.391,4.689,-50.794,8.596,-14.457,28.913,-17.192,-9.768,-16.020,-9.377,-11.331,-8.205,-13.675,-19.145,-14.457,-18.364,0.391,29.695,-5.470,-13.675,-13.675
'[14:43:14.406 06/11/2076]',-37.509,1.954,2.344,16.410,-58.608,17.973,-8.596,32.821,-18.755,-6.252,-19.927,4.689,-2.344,-17.973,-14.847,-5.861,-2.344,-10.159,-1.563,36.728,0.781,-14.847,-14.847
'[14:43:14.410 06/11/2076]',-37.118,2.344,7.033,25.006,-68.767,28.132,0.781,37.118,-21.490,-0.781,-21.490,6.642,0.781,-16.020,-16.801,-5.470,11.722,-2.344,-6.252,32.821,17.973,-14.847,-16.801
'[14:43:14.414 06/11/2076]',-47.668,0.391,6.642,47.668,-89.084,25.397,-0.781,71.502,-37.509,1.172,-39.853,22.662,-25.788,8.596,-15.629,-20.317,22.271,-6.252,-5.861,0.781,55.092,-4.298,-15.629
