'Time and date','FP1-F7','F7-T7','T7-P7','P7-O1','FP1-F3','F3-C3','C3-P3','P3-O1','FP2-F4','F4-C4','C4-P4','P4-O2','FP2-F8','F8-T8','T8-P8','P8-O2','FZ-CZ','CZ-PZ','P7-T7','T7-FT9','FT9-FT10','FT10-T8','T8-P8'
'hh:mm:ss.mmm dd/mm/yyyy','uV','uV','uV','uV','uV','uV','uV','uV','uV','uV','uV','uV','uV','uV','uV','uV','uV','uV','uV','uV','uV','uV','uV'
'[13:50:45.000 25/07/2074]',-29.304,-9.377,101.587,-32.039,-32.430,37.509,94.554,-68.767,5.079,10.549,76.190,-28.132,12.894,20.317,28.913,1.563,27.741,110.574,-100.806,57.436,35.556,-53.138,28.913
'[13:50:45.004 25/07/2074]',0.391,0.391,0.391,0.391,0.391,0.391,0.391,0.391,0.391,0.391,0.391,0.391,0.391,0.391,0.391,0.391,0.391,0.391,0.391,0.391,0.391,0.391,0.391
'[13:50:45.008 25/07/2074]',0.391,0.391,0.391,0.391,0.391,0.391,0.391,0.391,0.391,0.391,0.391,0.391,0.391,0.391,0.391,0.391,0.391,0.391,0.391,0.391,0.391,0.391,0.391
'[13:50:45.012 25/07/2074]',1.172,0.391,0.391,0.000,1.172,0.781,0.000,0.391,0.391,0.391,0.391,0.000,0.391,0.781,0.391,-0.391,0.391,0.781,0.391,0.781,0.391,0.000,0.391
'[13:50:45.016 25/07/2074]',-0.781,0.391,0.781,1.172,-0.391,0.781,0.391,0.391,-1.954,0.391,0.781,1.563,0.781,-1.172,-0.391,1.563,0.391,0.781,0.000,0.391,1.172,0.391,-0.391
'[13:50:45.020 25/07/2074]',-2.735,0.000,0.781,1.563,-2.344,-0.781,2.344,0.781,0.781,0.781,0.000,1.563,0.391,0.000,0.391,2.735,-0.781,-1.563,0.000,-1.563,0.391,2.344,0.391
'[13:50:45.023 25/07/2074]',-0.781,1.563,-2.344,0.781,-1.563,-3.516,3.126,1.563,5.470,0.000,-1.563,0.391,0.000,0.391,3.126,0.391,0.000,-2.735,3.126,-3.126,-1.954,0.781,3.126
'[13:50:45.027 25/07/2074]',3.516,1.954,-2.735,0.000,2.344,-0.391,-0.781,1.563,0.391,-1.172,0.391,0.391,-1.172,2.344,0.000,-1.563,1.172,1.172,3.516,1.172,0.000,-1.563,0.000
'[13:50:45.031 25/07/2074]',3.126,-1.172,3.126,0.000,3.516,5.470,-3.126,-0.781,-7.424,0.391,2.735,0.781,2.344,-0.781,-3.516,-0.391,0.391,4.689,-2.344,4.298,4.298,0.000,-3.516
'[13:50:45.035 25/07/2074]',-1.954,-4.298,6.252,1.172,0.000,1.563,0.391,-0.391,0.781,1.954,0.000,1.563,1.954,-2.735,1.563,2.344,-1.563,-1.563,-5.470,0.000,0.781,3.907,1.563
'[13:50:45.039 25/07/2074]',-13.284,1.563,-1.563,7.814,-8.987,-8.987,5.861,7.424,1.172,-1.563,-2.735,8.205,-4.298,-6.252,4.689,11.331,-4.689,-8.596,2.344,-8.205,-1.563,2.735,4.689
'[13:50:45.043 25/07/2074]',-33.211,7.033,-9.768,21.880,-28.132,-19.927,16.801,17.973,-13.675,-3.126,-1.172,25.006,-6.252,-15.238,-2.735,31.648,-14.066,-15.238,10.549,-23.443,3.907,8.596,-2.735
'[13:50:45.047 25/07/2074]',-22.662,1.563,-15.238,14.457,-30.085,-32.430,26.960,13.675,24.225,-0.781,-12.112,11.331,-1.172,-5.079,10.549,18.364,-15.238,-30.085,16.020,-32.430,-8.596,19.927,10.549
'[13:50:45.051 25/07/2074]',-29.304,4.298,-21.880,26.960,-31.648,-38.291,18.364,32.039,1.172,-9.768,-13.284,26.569,4.689,-41.416,12.503,28.132,-15.629,-30.867,22.662,-22.662,-7.033,0.000,12.503
'[13:50:45.055 25/07/2074]',-8.205,-13.284,-5.861,23.443,-12.112,-26.569,7.424,27.350,-13.284,-21.490,-2.344,29.695,-28.132,8.987,-9.768,21.099,-20.708,-22.662,6.642,-16.801,7.033,22.662,-9.768
'[13:50:45.059 25/07/2074]',0.391,3.516,-17.582,19.536,9.768,-30.085,2.735,24.615,-0.391,-16.410,-14.457,22.662,-14.066,-28.913,18.364,14.457,-26.178,-33.211,18.364,-32.039,-2.735,11.722,18.364
'[13:50:45.063 25/07/2074]',-12.112,-10.159,-21.490,42.198,0.000,-44.933,-9.377,54.310,-1.563,-35.946,-19.536,49.231,-57.045,-8.205,20.708,35.556,-34.774,-46.105,22.271,-20.317,-12.112,-0.781,20.708
'[13:50:45.066 25/07/2074]',-22.662,-0.391,-36.728,37.118,-13.284,-50.012,-5.861,48.059,-5.470,-47.668,-14.847,42.589,-82.833,9.768,19.145,26.960,-46.886,-42.979,37.509,-32.039,-7.424,0.391,19.145
'[13:50:45.070 25/07/2074]',-29.695,4.689,-72.283,50.794,-30.085,-70.720,-1.172,57.436,-5.861,-41.026,-24.225,45.714,-65.250,-29.695,36.728,32.039,-55.092,-55.092,73.065,-49.621,-18.364,-14.457,36.728
'[13:50:45.074 25/07/2074]',-47.668,-46.886,-16.801,40.244,-50.012,-61.734,-7.814,48.840,-2.344,-43.370,-16.020,37.118,-37.900,-40.635,30.085,21.880,-51.184,-60.171,17.582,13.675,-23.053,-10.549,30.085
'[13:50:45.078 25/07/2074]',-44.933,-58.999,-30.867,66.032,-56.264,-71.111,-7.814,66.813,-25.788,-52.357,-13.284,56.264,-73.455,-33.602,31.258,38.681,-55.873,-57.436,31.648,1.954,-20.708,-10.159,31.258
'[13:50:45.082 25/07/2074]',-26.569,-32.821,-35.556,51.575,-12.112,-75.018,-8.205,51.575,-22.271,-45.324,-10.549,47.668,-48.449,-32.430,21.099,28.132,-46.886,-60.562,36.337,-14.847,-17.192,9.377,21.099
'[13:50:45.086 25/07/2074]',-14.457,-49.231,-38.291,69.548,-7.033,-73.455,-26.178,74.237,-33.602,-51.575,-15.238,73.455,-43.761,-48.449,9.768,53.919,-43.761,-69.158,39.072,-4.298,-30.867,7.814,9.768
'[13:50:45.090 25/07/2074]',-6.642,-40.635,-40.635,52.747,-4.298,-66.032,-23.053,58.608,-11.331,-51.575,-17.973,57.827,-53.919,-22.662,18.364,34.383,-37.118,-65.641,41.416,-4.298,-27.741,-2.735,18.364
'[13:50:45.094 25/07/2074]',-7.814,10.159,-105.885,53.919,-3.516,-78.144,-25.397,57.436,-39.463,-51.184,-25.006,60.562,-53.138,-49.621,10.940,35.165,-42.589,-66.813,106.667,-65.641,-17.192,-9.768,10.940
'[13:50:45.098 25/07/2074]',0.391,-23.053,-66.032,32.039,-4.298,-70.330,-17.192,35.946,-19.145,-46.886,-21.880,37.509,-14.457,-79.707,25.788,16.020,-42.589,-76.190,66.813,-31.648,-30.085,-6.252,25.788
'[13:50:45.102 25/07/2074]',10.940,-21.490,-63.687,25.006,2.735,-67.985,-11.331,27.741,-13.284,-49.621,-12.894,30.085,-46.886,-5.861,-0.391,5.861,-39.853,-71.502,64.469,-23.443,-22.662,12.503,-0.391
'[13:50:45.105 25/07/2074]',3.126,-17.582,-90.647,57.436,-1.563,-83.223,-12.894,50.794,-30.867,-48.840,-17.582,51.184,-64.078,-1.954,-9.768,28.523,-41.026,-69.939,91.429,-35.946,-24.225,17.192,-9.768
'[13:50:45.109 25/07/2074]',4.298,-57.045,-26.960,32.039,19.145,-71.893,-16.801,23.443,-5.079,-42.589,-10.549,28.913,-37.118,14.847,-26.178,17.192,-32.430,-68.376,27.741,-9.377,-30.085,66.422,-26.178
'[13:50:45.113 25/07/2074]',-2.735,-43.370,-48.059,47.668,5.861,-80.098,-10.940,39.463,-12.894,-53.529,-8.596,39.853,-86.740,44.151,-27.741,33.993,-26.569,-76.581,48.840,-12.503,-34.383,44.151,-27.741
'[13:50:45.117 25/07/2074]',-18.364,-12.112,-42.979,18.755,8.205,-57.045,-14.847,9.768,7.814,-28.523,-22.662,6.642,-96.899,18.364,32.430,8.205,-14.847,-65.641,43.761,-21.880,-36.728,-2.344,32.430
'[13:50:45.121 25/07/2074]',-3.516,-2.344,-55.873,7.814,19.927,-56.264,-11.722,-3.516,1.563,-28.913,-15.238,-0.391,-62.515,-19.927,29.304,7.814,-11.722,-59.780,56.654,-57.827,-26.178,3.126,29.304
'[13:50:45.125 25/07/2074]',3.126,-8.987,-27.741,-0.391,25.006,-36.337,-12.503,-9.768,8.987,-23.834,-9.768,-7.033,-52.357,-22.662,38.291,4.298,-8.205,-61.734,28.523,-38.681,-30.476,0.391,38.291
'[13:50:45.129 25/07/2074]',1.563,5.470,-41.026,3.516,12.894,-29.695,-5.861,-5.861,13.675,-19.536,-5.470,-5.861,-39.853,-10.549,27.741,3.516,-1.563,-55.482,41.807,-47.668,-25.788,5.861,27.741
'[13:50:45.133 25/07/2074]',-8.987,-23.443,-32.039,37.509,1.172,-37.509,-16.801,26.178,0.391,-32.430,-9.377,29.695,-33.211,-19.536,-2.344,42.589,-4.689,-53.138,32.821,-36.337,-34.774,32.430,-2.344
'[13:50:45.137 25/07/2074]',-19.145,-10.940,-22.271,28.132,-3.516,-20.708,-11.722,13.284,13.675,-33.211,-11.331,17.192,-44.542,-18.364,15.629,32.039,-6.252,-56.264,23.053,-29.304,-42.198,21.490,15.629
'[13:50:45.141 25/07/2074]',0.781,9.377,-26.960,-0.391,3.907,-7.424,0.000,-13.284,15.629,-24.225,-9.768,-0.391,-67.204,9.768,25.006,10.940,2.735,-51.966,27.741,-34.383,-45.324,9.377,25.006
'[13:50:45.145 25/07/2074]',-0.391,-5.861,-17.973,0.781,2.344,-3.516,-7.814,-14.066,10.159,-26.178,-19.145,5.079,-66.813,-5.861,21.490,20.317,1.954,-49.231,18.755,-37.118,-42.589,7.814,21.490
'[13:50:45.148 25/07/2074]',-5.861,-8.987,-1.563,-20.708,2.735,0.391,-5.079,-34.774,-2.735,-18.364,-9.768,-6.642,-55.092,-25.397,32.039,8.596,2.735,-54.701,2.344,-39.853,-46.105,9.768,32.039
'[13:50:45.152 25/07/2074]',-2.735,-32.430,19.927,-26.569,-0.391,1.563,-3.516,-39.072,-5.079,-19.927,-7.814,-8.205,-77.363,0.000,26.569,6.642,7.814,-55.482,-19.145,-11.331,-47.668,5.470,26.569
'[13:50:45.156 25/07/2074]',0.781,-8.987,-17.192,-3.126,-4.689,-8.596,-3.907,-10.940,-3.907,-22.271,-11.722,13.284,-67.204,-10.940,15.238,35.556,9.377,-50.403,17.973,-46.105,-56.654,7.814,15.238
'[13:50:45.160 25/07/2074]',1.563,10.549,-14.457,-20.317,16.801,-12.503,0.391,-27.350,-9.768,-16.410,-1.954,0.391,-53.919,-6.642,10.159,20.317,14.847,-46.886,15.238,-62.515,-45.324,23.053,10.159
'[13:50:45.164 25/07/2074]',-6.642,32.039,-30.085,-23.053,6.642,-21.490,14.847,-27.741,-10.159,-21.099,4.298,-0.391,-47.668,11.331,-7.814,13.675,11.722,-48.059,30.867,-62.125,-51.184,35.556,-7.814
'[13:50:45.168 25/07/2074]',15.238,89.866,-92.991,-29.304,16.801,-22.271,17.582,-28.523,-15.238,-20.708,12.112,-3.907,-32.821,1.954,-5.861,7.424,19.536,-42.198,93.773,-118.779,-31.258,7.814,-5.861
'[13:50:45.172 25/07/2074]',8.987,25.397,-16.020,-41.807,26.178,-17.973,9.768,-40.244,-25.397,-21.490,21.099,-10.159,-24.615,3.126,-11.722,-2.344,17.973,-36.337,16.801,-51.184,-23.443,19.536,-11.722
'[13:50:45.176 25/07/2074]',-27.350,-6.642,7.424,-22.662,-7.033,-17.973,3.126,-25.788,-30.476,-32.821,8.596,0.781,-74.237,3.516,2.735,12.112,2.344,-42.589,-6.642,-11.722,-35.946,4.689,2.735
'[13:50:45.180 25/07/2074]',16.801,-9.377,8.987,-36.728,21.880,-16.410,11.722,-35.946,11.331,-5.470,8.596,-15.238,-53.529,21.099,31.648,-1.172,11.722,-41.807,-8.205,-28.132,-35.556,1.172,31.648
'[13:50:45.184 25/07/2074]',22.271,-29.304,48.059,-30.867,43.370,-12.503,9.377,-29.304,23.053,4.298,10.940,-12.894,-40.635,35.165,28.913,1.563,14.457,-32.821,-47.277,1.563,-33.211,14.847,28.913
'[13:50:45.188 25/07/2074]',13.284,-12.112,23.053,-17.582,37.900,-15.629,5.079,-19.927,19.145,-2.344,5.079,-8.987,-45.324,21.490,28.523,6.642,1.563,-32.821,-22.271,-11.722,-45.714,24.225,28.523
'[13:50:45.191 25/07/2074]',35.946,22.662,-20.708,-27.741,43.370,-19.927,13.675,-26.178,28.523,-5.470,14.066,-18.364,-15.238,14.847,25.006,-6.642,1.563,-34.383,21.490,-46.105,-35.556,14.457,25.006
'[13:50:45.195 25/07/2074]',38.291,-0.391,-21.490,1.954,42.198,-27.741,2.735,1.563,24.225,-19.536,2.344,4.689,-35.165,8.987,20.708,15.629,-7.033,-31.648,22.271,-34.774,-42.198,15.238,20.708
'[13:50:45.199 25/07/2074]',33.993,-37.900,19.927,-9.377,40.635,-23.443,1.172,-11.331,26.178,-21.880,0.391,-2.344,4.689,-26.178,12.112,9.377,-16.020,-25.006,-19.145,5.079,-34.774,16.020,12.112
'[13:50:45.203 25/07/2074]',28.523,-43.761,20.317,-6.252,25.006,-22.662,7.033,-9.377,33.602,-22.662,1.954,-3.907,-30.085,20.317,9.768,7.033,-16.020,-29.304,-19.536,14.066,-34.774,12.503,9.768
'[13:50:45.207 25/07/2074]',32.821,-3.907,-13.675,-0.391,31.648,-24.225,14.847,-7.424,27.350,-6.642,3.516,-5.079,-15.629,16.020,12.112,4.298,-11.331,-27.741,14.457,-12.894,-35.165,14.066,12.112
'[13:50:45.211 25/07/2074]',-0.781,-3.126,15.238,-0.781,37.509,-23.834,12.112,-14.847,20.317,-13.675,9.377,-13.675,-27.741,37.900,-8.596,0.391,-17.192,-27.741,-14.457,17.192,-30.476,32.039,-8.596
'[13:50:45.215 25/07/2074]',-8.596,5.470,-14.066,12.503,19.927,-39.072,19.536,-5.470,8.987,-15.629,8.596,-9.768,-25.397,29.695,-21.099,8.987,-23.443,-38.291,14.847,-8.987,-33.993,44.542,-21.099
'[13:50:45.219 25/07/2074]',-2.344,90.647,-102.759,12.503,23.053,-46.496,28.913,-6.642,7.424,-16.020,12.503,-15.629,-20.708,16.020,-12.112,4.298,-21.880,-35.556,103.541,-75.800,-36.728,22.662,-12.112
'[13:50:45.223 25/07/2074]',12.503,-69.548,63.297,-0.391,33.602,-30.867,17.973,-15.238,12.503,-15.629,14.847,-22.662,-20.317,10.159,-3.126,1.954,-19.927,-24.615,-62.515,72.283,-26.569,7.814,-3.126
'[13:50:45.227 25/07/2074]',21.099,-60.952,47.668,3.516,32.430,-32.430,25.788,-12.894,6.642,4.298,13.284,-23.834,3.126,-21.880,15.629,3.516,-15.629,-19.927,-46.886,41.026,-27.741,8.205,15.629
'[13:50:45.230 25/07/2074]',30.085,-78.926,42.198,5.079,16.410,-36.728,29.304,-9.377,-2.344,-1.172,13.284,-25.397,-61.734,-5.079,45.324,3.907,-14.457,-25.397,-41.416,52.357,-45.324,-17.973,45.324
'[13:50:45.234 25/07/2074]',19.145,-68.376,42.198,-14.457,6.642,-24.225,23.834,-27.350,-14.457,12.503,15.629,-38.681,-68.376,19.145,33.211,-9.768,-5.470,-21.490,-41.416,51.184,-44.933,-3.907,33.211
'[13:50:45.238 25/07/2074]',-4.689,-46.886,-13.675,23.443,-20.317,-37.900,13.284,3.907,-27.741,-3.907,4.689,-5.470,-74.628,1.954,9.377,29.304,-12.112,-28.132,14.457,-8.596,-40.635,15.238,9.377
'[13:50:45.242 25/07/2074]',-22.662,12.503,-71.893,7.033,-48.840,-33.211,21.490,-13.675,-20.317,-6.252,9.377,-25.006,-56.654,-9.377,9.768,12.894,-7.424,-29.304,72.674,-68.376,-36.728,17.973,9.768
'[13:50:45.246 25/07/2074]',-15.238,-13.284,-45.324,8.596,-37.118,-37.900,21.880,-10.549,-23.443,-17.582,8.987,-23.834,-66.032,26.960,-30.085,12.112,-2.735,-27.350,46.105,-31.258,-19.145,32.821,-30.085
'[13:50:45.250 25/07/2074]',-4.298,-35.946,-0.781,16.020,-6.252,-35.556,25.006,-6.642,-19.927,-16.801,20.708,-20.317,-38.681,11.722,-27.741,16.801,1.954,-18.755,1.563,0.000,-5.861,31.648,-27.741
'[13:50:45.254 25/07/2074]',4.298,-39.463,2.344,19.145,-13.284,-32.821,42.979,-7.424,-13.284,-2.735,23.443,-25.397,-33.993,-12.112,14.847,11.331,7.814,-11.331,-1.563,8.205,-22.271,8.987,14.847
'[13:50:45.258 25/07/2074]',3.516,-66.422,35.165,22.662,-7.033,-28.523,38.681,-5.079,-16.801,-1.563,31.258,-18.755,-60.171,21.099,15.238,15.238,13.675,-7.814,-34.383,49.621,-27.741,3.907,15.238
'[13:50:45.262 25/07/2074]',-13.675,-29.304,3.126,28.132,-27.350,-28.132,44.933,-0.391,-19.927,1.954,42.589,-10.159,-40.244,32.430,-3.907,24.615,16.801,-3.126,-2.344,10.549,-17.192,17.973,-3.907
'[13:50:45.266 25/07/2074]',-23.053,-42.198,0.391,51.966,-49.621,-36.337,50.403,23.443,-21.880,4.298,31.648,7.424,-37.118,-36.728,50.012,45.714,9.768,-1.172,0.391,-3.907,-28.523,-14.457,50.012
'[13:50:45.270 25/07/2074]',-18.755,-58.608,45.324,34.383,-32.821,-17.582,43.370,9.768,-25.397,-0.391,38.681,-1.172,-25.006,-26.178,29.304,32.430,14.066,3.126,-44.542,31.258,-9.768,-8.205,29.304
'[13:50:45.273 25/07/2074]',-9.768,-39.463,34.383,37.900,-17.973,-17.582,44.542,14.847,-14.457,-2.735,38.681,0.391,-33.993,4.298,13.675,35.556,12.894,7.033,-33.602,26.178,-10.940,2.344,13.675
'[13:50:45.277 25/07/2074]',1.172,-26.178,13.284,42.589,-15.238,-15.629,43.370,20.708,-19.536,6.642,39.463,-1.954,-5.470,-52.357,48.840,32.039,10.159,9.377,-12.503,-0.391,-21.099,-10.549,48.840
'[13:50:45.281 25/07/2074]',-6.642,-16.801,17.973,25.006,-9.768,-9.377,35.946,4.298,-26.960,5.079,41.807,-17.192,-55.482,13.284,32.430,10.159,11.722,10.549,-17.192,-0.781,-14.847,13.284,32.430
'[13:50:45.285 25/07/2074]',-7.033,-17.582,12.503,24.225,-7.424,-14.066,26.960,7.033,-24.615,10.549,38.681,-19.536,-86.349,59.780,19.145,10.549,11.331,7.033,-11.722,5.470,-27.741,30.476,19.145
'[13:50:45.289 25/07/2074]',-0.391,37.118,-48.059,10.940,-7.033,-13.675,25.788,-3.516,-31.258,15.629,42.589,-30.476,-52.747,51.575,-4.298,1.563,15.238,11.331,48.840,-52.357,-5.861,29.304,-4.298
'[13:50:45.293 25/07/2074]',-10.940,-41.807,33.211,11.722,-15.238,-12.894,23.834,-1.563,-26.960,13.284,30.867,-25.006,-80.098,28.132,44.933,-1.172,5.079,6.642,-32.430,9.377,-18.364,18.364,44.933
'[13:50:45.297 25/07/2074]',-3.516,-10.549,12.503,7.814,-7.033,-9.377,21.880,0.781,-22.271,14.457,35.165,-14.457,-48.059,37.900,14.457,6.642,3.516,-3.516,-11.722,2.344,-1.954,7.424,14.457
'[13:50:45.301 25/07/2074]',1.954,3.907,-25.006,17.582,-24.615,-3.516,17.973,9.768,-14.847,9.768,26.960,-3.907,-27.350,3.126,28.132,12.503,-3.516,-2.735,25.788,-8.596,-11.331,-19.145,28.132
'[13:50:45.305 25/07/2074]',-29.304,-4.689,-41.807,58.217,-41.807,-18.755,-0.781,44.542,-24.225,-10.940,8.205,28.913,-60.952,-11.331,42.589,30.085,-24.225,-8.596,42.589,-34.383,-14.066,-2.735,42.589
'[13:50:45.309 25/07/2074]',-12.112,2.735,-24.225,23.834,-10.159,-9.377,-0.391,10.159,-25.788,-12.112,21.490,3.907,-37.900,41.807,-14.457,-1.954,-22.662,-8.596,25.006,-16.801,-10.940,59.780,-14.457
'[13:50:45.313 25/07/2074]',-8.205,-21.099,-18.364,34.774,-14.847,-22.271,0.781,23.443,-28.132,-25.006,14.457,16.801,0.000,-16.801,-16.020,9.768,-24.615,-7.033,19.145,6.252,-13.675,40.244,-16.020
'[13:50:45.316 25/07/2074]',-7.033,-23.834,4.689,9.768,-1.172,-19.145,2.735,0.781,-4.689,-14.457,10.549,-4.298,5.861,-0.391,-7.033,-12.503,-19.145,0.000,-3.907,7.424,1.954,38.291,-7.033
'[13:50:45.320 25/07/2074]',8.596,-12.112,21.880,-23.834,12.112,-8.205,16.410,-25.788,-18.755,-7.814,37.118,-23.053,79.316,-37.509,-27.350,-28.523,-12.112,0.391,-21.099,21.490,22.271,26.178,-27.350
'[13:50:45.324 25/07/2074]',7.033,-12.894,17.973,-18.755,0.391,4.298,6.252,-16.801,-7.814,7.033,15.629,-17.582,34.383,-19.927,-4.298,-14.457,-8.205,-5.079,-17.192,28.913,21.099,-24.225,-4.298
'[13:50:45.328 25/07/2074]',-12.503,17.973,-5.861,-8.205,-5.861,5.079,1.172,-9.377,1.563,3.126,3.126,-22.271,-19.927,42.198,-12.503,-23.834,-12.112,-5.470,6.642,-1.954,4.298,25.397,-12.503
'[13:50:45.332 25/07/2074]',-26.569,4.298,-7.814,21.490,-9.768,-10.549,-4.298,15.629,-17.192,8.987,-7.033,-6.252,-19.536,24.225,-19.145,-8.205,-19.145,-9.768,8.596,-12.503,-4.298,58.217,-19.145
'[13:50:45.336 25/07/2074]',-19.536,0.391,3.907,-1.563,-13.284,2.735,-1.954,-3.126,-33.211,14.847,-3.907,-17.192,-57.827,28.132,16.410,-26.569,-8.596,-4.689,-3.126,11.331,-10.159,17.973,16.410
'[13:50:45.340 25/07/2074]',-8.987,-11.331,12.894,-11.331,-16.410,4.298,5.470,-12.503,-13.675,5.470,8.596,-28.132,-41.416,28.523,26.178,-41.416,-1.954,5.470,-12.112,14.066,6.642,5.470,26.178
'[13:50:45.344 25/07/2074]',-19.145,-14.847,10.549,14.457,-20.317,2.735,-3.907,13.284,-31.258,8.205,8.596,3.126,-12.503,-26.569,36.728,-7.424,-3.907,7.033,-9.768,4.298,26.960,-26.960,36.728
'[13:50:45.348 25/07/2074]',8.596,-1.172,1.172,-7.424,-4.689,10.940,5.470,-9.768,-30.867,12.112,20.708,-15.629,-16.410,-20.708,45.714,-22.271,2.344,6.642,-0.391,-1.172,33.993,-54.310,45.714
'[13:50:45.352 25/07/2074]',3.126,44.542,-28.913,-7.814,-5.861,23.443,4.298,-10.159,-1.172,17.973,23.053,-24.225,14.457,17.973,14.457,-32.430,5.079,8.596,29.695,-40.244,27.741,-1.563,14.457
'[13:50:45.355 25/07/2074]',-75.800,-7.814,-13.284,100.415,-36.728,-7.814,-40.244,88.303,-23.053,-0.391,-34.383,48.840,-29.695,-14.066,-8.205,42.589,-17.973,-11.331,14.066,-13.675,0.781,47.668,-8.205
'[13:50:45.359 25/07/2074]',-22.662,19.145,-21.490,15.629,5.079,0.000,-16.020,1.172,17.192,17.192,-22.662,-26.178,-56.264,58.999,9.768,-28.523,0.391,-5.079,22.271,-38.291,-5.470,62.906,9.768
'[13:50:45.363 25/07/2074]',-28.132,-28.913,37.509,0.391,-9.768,8.596,-16.801,-1.954,18.364,21.880,-11.722,-30.085,-59.389,72.674,23.443,-39.463,7.424,-13.675,-36.728,22.271,-10.940,52.357,23.443
'[13:50:45.367 25/07/2074]',-40.635,-19.145,24.615,18.364,-15.238,5.079,-27.741,21.490,0.391,17.192,-18.364,-0.391,-8.987,34.774,-18.364,-8.987,15.629,-15.629,-23.834,28.913,0.781,53.529,-18.364
'[13:50:45.371 25/07/2074]',7.033,5.079,10.549,-25.397,14.066,8.596,-6.642,-19.145,2.735,32.821,1.563,-28.132,-1.172,3.907,45.324,-39.072,30.085,-7.033,-9.768,-1.563,9.768,-3.907,45.324
'[13:50:45.375 25/07/2074]',8.987,30.867,3.516,-35.946,9.768,29.304,-3.907,-26.178,-12.894,35.946,18.364,-33.993,21.490,21.880,8.987,-46.886,36.337,-8.987,-2.735,-17.582,19.927,22.662,8.987
'[13:50:45.379 25/07/2074]',-10.940,48.449,-4.298,-24.615,0.781,25.397,-7.814,-9.768,-53.138,23.443,25.788,-11.331,60.952,1.954,-44.933,-33.211,37.900,-7.814,5.079,-19.536,51.966,33.211,-44.933
'[13:50:45.383 25/07/2074]',-1.563,17.973,-7.814,-9.768,3.516,10.549,-13.284,-1.563,-31.258,29.304,-20.708,-14.066,-40.635,-9.377,43.370,-30.867,28.523,-10.159,8.596,-25.397,5.470,5.079,43.370
'[13:50:45.387 25/07/2074]',13.284,-22.271,32.821,-39.853,-3.516,23.053,-5.079,-28.523,-34.774,25.788,5.079,-34.774,-20.317,25.788,10.940,-56.264,29.695,-8.596,-32.039,23.053,10.940,25.397,10.940
'[13:50:45.391 25/07/2074]',11.722,-55.873,55.873,-37.509,-19.927,21.490,-7.424,-18.364,-25.788,24.225,-4.298,-26.960,-2.735,-21.099,39.072,-48.059,21.880,-14.457,-55.092,67.204,2.735,-21.099,39.072
'[13:50:45.395 25/07/2074]',-6.252,-5.861,-23.443,14.847,-20.317,1.954,-29.304,26.178,-29.695,27.741,-27.741,17.973,80.488,-115.653,30.867,-7.814,9.377,-19.536,24.225,5.470,-19.927,1.563,30.867
'[13:50:45.398 25/07/2074]',8.987,-6.642,-11.331,-2.344,-7.033,8.987,-24.615,11.331,-7.814,0.781,-12.503,9.768,20.317,-22.271,4.298,-12.503,5.470,-25.788,12.112,-13.284,10.159,15.629,4.298
'[13:50:45.402 25/07/2074]',-17.192,17.192,-32.821,16.801,-17.582,8.987,-42.198,34.383,-51.575,-7.033,-9.768,41.807,69.548,-13.284,-93.773,9.768,3.516,-29.304,33.602,-4.298,41.026,43.370,-93.773
'[13:50:45.406 25/07/2074]',-36.728,125.812,-133.626,23.834,-21.099,7.033,-46.496,38.681,-44.542,-33.211,-28.913,46.886,-1.563,48.059,-124.640,17.192,2.344,-26.960,134.408,-78.144,18.364,64.860,-124.640
'[13:50:45.410 25/07/2074]',0.391,-8.596,1.563,-21.099,-8.205,21.490,-41.026,0.391,-19.927,-38.291,-16.410,5.470,-46.886,62.125,-78.144,-7.033,-0.391,-30.476,-0.781,7.424,17.192,39.463,-78.144
'[13:50:45.414 25/07/2074]',-20.708,25.788,-41.416,-7.814,-25.788,6.252,-41.416,16.410,-56.654,-42.198,-10.159,16.801,-17.192,58.217,-141.832,7.033,-5.079,-39.463,42.198,-12.503,15.629,68.376,-141.832
'[13:50:45.418 25/07/2074]',-24.615,48.840,-62.125,-10.549,-30.867,3.516,-35.946,14.066,-45.714,-12.112,-22.271,0.391,7.814,-56.264,-28.132,-4.298,2.344,-39.072,62.906,-14.847,-29.304,-11.331,-28.132
'[13:50:45.422 25/07/2074]',-9.768,-18.755,7.814,-7.424,-7.814,1.563,-41.026,18.364,-18.755,2.735,-26.178,-0.391,16.410,-77.363,6.252,9.377,0.000,-38.291,-7.033,7.424,-33.602,-8.987,6.252
'[13:50:45.426 25/07/2074]',-11.331,-42.589,25.397,11.722,5.861,-1.563,-59.389,38.291,-28.523,-15.238,-27.741,30.085,12.112,-22.662,-60.171,28.523,4.298,-40.244,-24.615,42.589,-31.258,47.668,-60.171
'[13:50:45.430 25/07/2074]',6.642,-21.880,23.443,-16.410,10.159,10.549,-41.026,11.722,11.722,10.940,-31.258,-13.284,-35.556,0.391,31.648,-18.364,11.722,-39.072,-22.662,39.463,-37.118,-10.549,31.648
'[13:50:45.434 25/07/2074]',42.589,-38.291,21.880,-21.490,30.867,3.126,-36.728,7.033,12.894,4.689,-21.099,-17.582,7.033,28.913,-41.026,-16.410,11.722,-33.211,-21.099,41.807,-23.834,41.026,-41.026
'[13:50:45.438 25/07/2074]',30.476,-8.596,-27.741,-3.126,15.238,-4.298,-45.324,25.397,0.391,-18.755,-17.973,-1.563,-45.324,62.125,-50.012,-5.079,1.954,-36.728,28.523,-9.768,-29.695,61.734,-50.012
'[13:50:45.441 25/07/2074]',30.867,10.940,-52.357,-8.987,9.377,-3.516,-40.635,14.847,-8.205,8.987,-22.662,-16.020,-20.317,23.053,-24.225,-17.582,2.344,-37.509,53.138,-30.085,3.907,7.814,-24.225
'[13:50:45.445 25/07/2074]',12.894,90.647,-147.302,10.159,-0.781,-28.132,-35.165,31.648,-15.238,8.987,-30.085,3.907,45.714,-14.847,-71.502,7.814,1.563,-34.383,148.083,-81.270,-1.563,12.894,-71.502
'[13:50:45.449 25/07/2074]',3.516,-28.523,-5.861,-14.066,-1.563,-14.066,-42.979,13.284,11.331,-18.364,-33.993,-0.781,-10.940,0.391,-25.788,-5.079,-7.033,-28.523,6.642,29.304,-26.178,18.755,-25.788
'[13:50:45.453 25/07/2074]',39.072,5.470,-26.178,-42.589,26.178,4.298,-42.979,-12.503,4.689,16.410,-23.834,-23.053,41.416,-3.907,-30.085,-32.821,0.391,-25.788,26.960,-5.079,16.410,4.298,-30.085
'[13:50:45.457 25/07/2074]',24.615,23.443,-21.490,-49.231,14.457,-0.781,-24.225,-10.940,3.907,-3.126,-6.252,-27.350,29.695,11.722,-37.118,-37.900,-3.126,-26.960,22.271,30.085,0.781,-4.298,-37.118
'[13:50:45.461 25/07/2074]',44.542,-15.238,-22.271,-24.225,29.304,-14.066,-45.714,12.894,-11.722,-14.066,-24.225,-6.252,-12.112,-5.079,-26.960,-12.894,-16.801,-30.476,23.053,7.814,-13.675,17.973,-26.960
'[13:50:45.465 25/07/2074]',41.807,-12.503,-5.861,-32.430,40.244,-5.470,-50.012,6.252,-10.159,-3.516,-7.814,-10.940,37.900,9.377,-57.045,-23.834,-14.847,-35.946,6.642,3.126,10.549,48.840,-57.045
'[13:50:45.469 25/07/2074]',30.476,-49.231,-7.033,4.689,19.145,-16.801,-64.860,42.198,3.126,-15.629,-29.304,19.145,-0.391,1.954,-33.211,8.205,-18.364,-44.151,7.814,42.198,5.470,-9.768,-33.211
'[13:50:45.473 25/07/2074]',9.768,-34.774,-24.615,25.788,12.894,-19.145,-72.283,55.092,1.954,-20.708,-45.324,31.258,3.516,-70.330,16.410,16.410,-15.238,-43.761,25.397,40.635,-27.741,-28.132,16.410
'[13:50:45.477 25/07/2074]',37.509,14.847,-63.297,-7.424,33.211,-6.252,-58.999,14.066,9.768,-10.940,-19.927,8.205,48.449,-45.324,1.954,-17.582,-2.735,-40.635,64.078,-24.225,-8.205,12.503,1.954
'[13:50:45.480 25/07/2074]',32.430,-5.861,-48.059,17.973,20.708,-7.814,-55.092,39.463,-15.238,-15.629,-23.834,31.648,21.099,-62.906,-1.172,18.364,-0.391,-53.919,48.840,-3.516,1.563,-16.410,-1.172
'[13:50:45.484 25/07/2074]',23.053,85.958,-125.812,9.768,22.271,-6.642,-46.105,25.006,-10.549,-5.470,-26.569,15.629,-41.807,-35.556,51.184,-1.172,8.205,-44.933,126.593,-87.131,1.954,-44.151,51.184
'[13:50:45.488 25/07/2074]',28.132,-7.424,-16.410,-12.894,14.457,9.768,-36.728,2.344,-0.781,-6.252,-0.781,7.814,5.861,-17.973,25.397,-14.066,12.112,-33.602,17.192,-1.172,12.503,-10.940,25.397
'[13:50:45.492 25/07/2074]',24.615,-58.608,30.867,-16.410,-3.516,21.099,-33.993,-2.344,-10.549,19.927,-4.689,-8.205,-19.536,46.496,-1.172,-29.304,10.549,-32.039,-30.085,36.337,21.490,26.960,-1.172
'[13:50:45.496 25/07/2074]',-17.582,-14.457,12.503,-17.192,-15.238,19.927,-41.416,-0.781,0.391,11.722,-12.503,-6.252,-4.689,15.238,16.410,-34.383,7.814,-30.867,-11.722,29.304,21.099,5.079,16.410
'[13:50:45.500 25/07/2074]',6.642,-43.761,20.708,-19.145,-12.503,11.331,-38.291,3.516,-33.993,3.516,1.563,1.563,40.635,-20.317,-13.284,-32.821,4.689,-23.443,-19.927,53.138,24.615,11.331,-13.284
'[13:50:45.504 25/07/2074]',10.940,7.033,-27.350,-18.364,-2.735,8.987,-33.602,0.000,-28.132,-3.516,-3.126,-8.987,4.689,10.549,-27.741,-32.821,0.391,-28.132,28.132,1.954,13.284,36.728,-27.741
'[13:50:45.508 25/07/2074]',19.927,28.132,-59.780,-4.298,15.629,-3.907,-55.092,27.350,-36.337,-23.834,-15.629,26.569,-8.987,26.569,-80.488,11.722,-0.391,-36.728,60.562,-26.960,19.927,37.900,-80.488
'[13:50:45.512 25/07/2074]',20.708,55.482,-58.217,-15.238,18.755,0.000,-39.463,23.053,-30.476,-23.834,-6.642,21.099,-22.271,25.006,-43.761,0.391,8.205,-28.913,58.999,-6.252,-4.298,3.516,-43.761
'[13:50:45.516 25/07/2074]',40.635,4.689,-38.681,-23.443,7.814,-13.675,-34.774,24.615,-20.708,-28.132,-2.344,23.834,-7.033,48.449,-70.330,0.391,5.079,-29.304,39.463,-4.298,-2.344,37.118,-70.330
'[13:50:45.520 25/07/2074]',32.430,33.211,-75.800,-9.377,3.907,-10.159,-55.873,43.761,-33.211,-6.252,-32.821,48.840,20.317,10.940,-82.833,26.569,6.642,-34.383,76.581,-11.722,-2.735,10.159,-82.833
'[13:50:45.523 25/07/2074]',23.053,11.722,-18.364,-37.118,-8.205,4.689,-42.979,25.788,-10.549,1.954,-25.006,21.490,29.695,-54.701,30.476,-18.755,9.377,-30.867,19.145,34.774,-10.159,-63.687,30.476
'[13:50:45.527 25/07/2074]',29.695,-28.913,16.801,-47.668,-11.722,2.344,-39.072,17.973,-7.814,-1.954,-10.549,9.377,23.053,-17.973,11.722,-28.523,2.344,-34.774,-16.020,32.039,6.252,-26.569,11.722
'[13:50:45.531 25/07/2074]',7.033,10.549,-14.847,-31.648,-7.424,3.516,-53.919,29.304,-14.847,-17.582,-12.894,21.099,26.569,-43.761,0.391,-7.033,-7.033,-46.105,15.629,11.331,12.112,-39.463,0.391
'[13:50:45.535 25/07/2074]',4.689,-25.006,61.734,-46.886,-7.033,17.582,-40.635,24.615,-4.689,-7.814,-14.457,13.284,4.689,-7.033,10.549,-23.443,-1.172,-38.291,-60.952,66.422,3.907,-21.490,10.549
'[13:50:45.539 25/07/2074]',33.211,4.689,42.979,-73.065,25.788,28.523,-53.138,6.642,-25.006,-26.960,23.834,8.205,52.357,6.642,-43.761,-35.165,0.000,-20.317,-42.198,17.973,38.291,9.377,-43.761
'[13:50:45.543 25/07/2074]',16.801,34.383,-15.629,-30.085,8.987,9.377,-52.357,39.853,-11.331,3.907,-28.523,26.178,3.516,14.066,-17.973,-8.596,-15.238,-22.271,16.410,-15.629,12.894,-3.126,-17.973
'[13:50:45.547 25/07/2074]',23.053,60.562,-20.708,-31.648,24.615,5.861,-41.026,40.635,-3.907,15.629,-28.913,15.629,14.457,9.768,4.298,-31.258,-17.582,-19.927,21.490,-16.410,12.112,-9.377,4.298
'[13:50:45.551 25/07/2074]',32.821,77.753,-3.516,-61.734,33.211,20.708,-26.178,15.629,6.252,17.973,-3.516,-7.033,72.674,21.490,-23.053,-57.827,-15.629,-5.470,4.298,6.642,14.847,6.252,-23.053
'[13:50:45.555 25/07/2074]',-5.861,123.468,-91.038,-10.159,-5.861,-6.252,-23.053,51.966,-4.298,7.424,-21.490,10.940,12.112,14.457,0.391,-35.165,-35.946,-8.596,91.819,-57.045,7.424,-8.987,0.391
'[13:50:45.559 25/07/2074]',-3.907,19.927,3.907,-26.569,-21.099,5.470,-27.741,37.509,-10.549,7.424,-25.006,13.284,0.000,36.337,-20.708,-30.085,-29.695,-8.987,-3.126,7.814,14.066,21.490,-20.708
'[13:50:45.563 25/07/2074]',-3.126,59.780,-34.383,-34.383,-30.476,7.814,-20.317,30.476,-23.443,-1.954,-0.391,17.192,44.151,46.886,-66.032,-34.383,-17.192,-3.126,35.165,-18.364,26.960,36.337,-66.032
'[13:50:45.566 25/07/2074]',2.344,-12.503,5.470,-3.516,-26.178,3.516,-39.463,53.919,-40.244,16.801,-28.913,31.258,-14.847,0.000,17.582,-23.834,-17.582,-6.252,-4.689,3.516,14.066,-0.391,17.582
'[13:50:45.570 25/07/2074]',-4.689,45.324,-94.164,56.654,-34.383,-16.410,-50.794,105.495,-51.575,4.298,-47.277,73.455,-33.602,-2.735,-7.814,23.443,-28.132,-18.364,94.945,-71.111,15.629,-1.172,-7.814
'[13:50:45.574 25/07/2074]',30.476,-4.298,19.536,-9.377,7.814,14.457,-33.602,47.668,-5.079,16.410,-29.695,25.397,49.231,-23.443,8.205,-25.397,-11.331,-12.112,-18.755,29.695,27.350,-26.960,8.205
'[13:50:45.578 25/07/2074]',39.072,-20.317,13.675,9.377,4.298,12.894,-41.416,66.032,-3.907,3.907,-43.761,34.383,-6.642,-37.900,47.668,-12.503,-23.053,-15.238,-12.894,15.629,0.000,-32.821,47.668
'[13:50:45.582 25/07/2074]',50.794,53.529,-52.747,-7.424,25.397,11.722,-32.430,39.853,19.536,7.424,-33.602,16.410,-14.847,11.722,43.370,-28.913,-17.192,-12.503,53.529,-60.952,7.424,-17.582,43.370
'[13:50:45.586 25/07/2074]',46.496,40.244,-8.205,-37.900,26.569,23.834,-24.615,15.238,42.589,9.377,-28.523,5.470,19.536,-10.549,58.999,-36.728,-10.159,-15.629,8.987,-12.894,-1.172,-43.761,58.999
'[13:50:45.590 25/07/2074]',60.952,25.788,-20.708,-21.490,23.443,22.271,-32.430,29.695,24.615,8.987,-25.006,21.099,3.126,25.788,35.556,-33.993,-8.596,-16.020,21.490,-1.954,-13.675,-18.364,35.556
'[13:50:45.594 25/07/2074]',41.807,128.547,-145.348,17.973,25.006,-2.344,-33.602,55.873,8.987,14.066,-37.509,41.807,8.596,6.642,21.880,-9.377,-14.457,-19.927,146.129,-112.918,-14.847,-1.954,21.880
'[13:50:45.598 25/07/2074]',44.542,40.244,-50.403,7.424,14.066,-1.172,-22.662,51.575,-8.596,17.582,-25.397,47.277,71.893,-28.523,-10.159,0.000,-10.549,-29.695,51.184,-26.569,20.317,-15.629,-10.159
'[13:50:45.602 25/07/2074]',37.509,-22.662,6.252,13.284,16.020,5.861,-41.807,54.701,-19.927,3.907,-18.755,57.436,9.768,34.383,-30.085,8.205,-7.033,-33.993,-5.470,34.383,11.331,5.470,-30.085
'[13:50:45.605 25/07/2074]',31.648,-43.761,23.053,38.291,23.053,-2.735,-32.430,62.125,-13.675,17.192,-26.178,53.529,0.000,-33.211,61.343,3.907,-3.907,-27.350,-22.271,47.668,-1.563,-37.900,61.343
'[13:50:45.609 25/07/2074]',55.873,-37.900,11.331,19.927,35.946,-5.861,-20.708,40.635,21.880,19.536,-9.377,35.946,25.397,3.126,49.621,-10.549,-1.954,-26.569,-10.549,12.894,7.814,-16.020,49.621
'[13:50:45.613 25/07/2074]',45.714,-22.662,13.284,17.582,40.244,-1.563,-22.271,38.291,28.913,-4.689,10.159,42.198,15.238,66.422,3.126,-7.424,1.954,-25.788,-12.503,19.536,19.145,10.940,3.126
'[13:50:45.617 25/07/2074]',69.548,-10.549,9.377,8.987,56.654,2.735,-8.205,26.569,37.509,20.317,-3.907,20.317,28.913,55.482,10.549,-20.708,3.907,-13.284,-8.596,26.960,11.331,4.689,10.549
'[13:50:45.621 25/07/2074]',45.324,52.747,-73.846,30.867,23.834,-14.847,1.563,45.324,21.490,17.192,-2.344,37.509,50.794,67.204,-43.370,0.391,-7.033,-7.424,74.628,-61.734,17.192,54.310,-43.370
'[13:50:45.625 25/07/2074]',26.960,68.376,-77.753,15.629,8.596,-10.159,4.689,30.476,-27.350,6.252,13.284,36.728,20.317,59.780,-43.370,-5.861,-8.987,-9.377,78.535,-53.919,20.708,33.211,-43.370
'[13:50:45.629 25/07/2074]',10.940,-7.033,0.781,17.192,2.735,-14.457,8.205,26.178,-26.960,27.350,-8.596,24.225,29.695,-58.217,55.482,-10.940,-12.894,-8.987,0.000,34.774,-2.344,-46.886,55.482
'[13:50:45.633 25/07/2074]',16.410,-40.244,-9.768,50.403,3.126,-29.304,-13.675,55.873,-8.987,0.781,-17.582,51.184,-5.470,-21.880,44.151,9.377,-29.304,-12.503,10.549,-5.470,1.172,-5.079,44.151
'[13:50:45.637 25/07/2074]',22.662,3.516,-41.416,15.238,12.112,-19.927,-12.112,20.317,11.331,-5.079,-1.563,23.834,41.026,-16.020,21.490,-17.582,-23.443,-12.503,42.198,-19.927,8.987,-6.252,21.490
'[13:50:45.641 25/07/2074]',21.099,-31.258,8.205,14.847,14.066,8.596,-26.569,16.410,30.085,-1.954,-13.675,19.145,12.112,9.768,30.476,-18.755,-19.536,-9.768,-7.424,50.012,1.954,-25.006,30.476
'[13:50:45.645 25/07/2074]',24.225,10.940,-31.258,17.192,14.847,9.768,-26.960,23.834,25.397,-6.642,-15.629,25.788,11.722,111.746,-82.051,-12.112,-25.397,-3.126,32.039,-16.020,8.987,97.680,-82.051
'[13:50:45.648 25/07/2074]',12.503,141.832,-179.731,34.383,-2.735,-5.861,-10.549,28.913,-3.516,6.252,-24.225,16.020,-7.424,15.238,6.642,-18.364,-30.085,-4.298,180.513,-137.924,-0.391,13.675,6.642
'[13:50:45.652 25/07/2074]',8.205,86.740,-110.183,30.867,-0.781,5.079,-16.801,28.913,-25.788,-3.126,-17.582,25.006,-19.536,1.563,3.126,-6.642,-30.476,-8.205,110.965,-48.840,-18.755,-0.781,3.126
'[13:50:45.656 25/07/2074]',28.913,2.344,-44.933,38.681,12.894,-7.814,-17.192,38.291,-36.728,-9.768,-12.894,32.430,-18.364,5.470,-13.284,0.391,-31.258,-2.344,45.714,-3.516,-5.470,17.582,-13.284
'[13:50:45.660 25/07/2074]',25.397,0.391,-66.422,55.873,7.424,-26.960,-12.503,47.277,-25.006,-20.317,-14.066,37.118,-18.364,-23.834,7.424,12.112,-39.463,-3.907,67.204,-10.549,-11.722,-8.596,7.424
'[13:50:45.664 25/07/2074]',35.165,-37.509,-30.476,42.589,16.801,-19.536,-9.377,22.662,6.252,-20.317,5.861,21.490,6.252,5.079,7.424,-5.079,-33.211,0.391,31.258,43.761,-14.457,-11.331,7.424
'[13:50:45.668 25/07/2074]',19.145,-60.171,15.238,37.900,0.000,-12.503,-5.861,32.039,16.410,-2.344,-10.159,28.523,17.192,12.503,-7.033,9.768,-28.913,6.252,-14.457,63.687,0.391,-6.642,-7.033
'[13:50:45.672 25/07/2074]',23.834,-11.331,-48.449,42.979,-1.954,0.391,-13.284,22.662,27.741,9.377,-11.722,15.238,26.960,-8.596,19.145,4.689,-32.430,14.847,49.231,-16.020,10.940,-15.629,19.145
'[13:50:45.676 25/07/2074]',4.298,58.608,-85.177,37.118,4.689,12.112,-22.662,21.099,12.894,14.847,-5.861,16.801,25.397,-28.913,31.648,10.549,-33.993,10.940,85.958,-59.780,5.079,-24.225,31.648
'[13:50:45.680 25/07/2074]',-2.735,-12.503,10.940,42.198,7.814,19.145,-37.509,47.668,-17.192,8.987,-9.377,44.542,16.801,-26.569,-5.470,42.979,-32.430,1.954,-10.159,29.304,9.768,-16.020,-5.470
'[13:50:45.684 25/07/2074]',43.370,134.017,-164.103,26.569,35.946,10.159,-28.132,22.271,-8.987,7.033,2.735,15.629,21.880,-26.960,8.205,13.284,-31.258,7.814,164.884,-148.474,24.615,-23.443,8.205
'[13:50:45.688 25/07/2074]',44.151,11.722,-49.231,35.165,34.383,-8.987,-19.145,35.946,-0.781,-1.172,1.954,27.350,8.596,-8.987,-0.391,27.741,-39.463,0.000,50.012,-24.615,0.391,-8.987,-0.391
'[13:50:45.691 25/07/2074]',57.827,32.821,-41.416,19.927,47.277,1.172,-4.689,25.397,38.681,-1.954,4.689,14.457,29.695,40.244,-28.913,15.238,-32.821,-3.126,42.198,-18.364,2.344,17.192,-28.913
'[13:50:45.695 25/07/2074]',44.151,136.752,-183.639,54.310,19.536,-3.907,-6.252,42.589,41.807,-5.079,-0.781,22.662,30.867,13.284,-8.596,22.662,-34.774,-1.954,184.420,-137.143,1.563,-1.563,-8.596
'[13:50:45.699 25/07/2074]',4.298,-42.198,57.436,30.085,29.304,4.298,-16.801,32.039,44.933,1.172,-0.781,21.099,24.615,-5.861,21.490,26.178,-33.211,-3.907,-56.654,51.575,16.801,-23.053,21.490
'[13:50:45.703 25/07/2074]',-53.919,55.092,5.861,48.840,13.284,13.284,-25.788,56.264,23.053,6.642,-12.503,45.324,30.476,-39.072,25.788,46.105,-28.913,-7.424,-5.079,9.377,21.490,-40.635,25.788
'[13:50:45.707 25/07/2074]',17.192,13.675,-18.364,33.602,29.304,6.252,-24.225,35.165,20.317,7.033,-12.112,27.350,7.814,-25.006,34.383,25.397,-22.662,-3.516,19.145,-23.834,30.085,-40.635,34.383
'[13:50:45.711 25/07/2074]',28.132,-2.344,-1.172,18.364,41.807,-9.768,-10.940,23.053,28.132,5.470,-6.252,18.755,17.973,-0.391,11.722,17.582,-22.662,0.000,1.954,-32.430,42.589,-10.940,11.722
'[13:50:45.715 25/07/2074]',37.118,51.966,-44.933,7.814,36.337,-13.284,12.112,16.020,34.383,3.907,-4.298,8.987,23.443,22.662,-10.940,8.987,-22.271,-3.907,45.714,-69.548,14.457,27.741,-10.940
'[13:50:45.719 25/07/2074]',66.813,51.966,-74.237,10.549,41.807,6.642,0.391,5.861,36.728,1.172,-0.391,-1.563,21.099,78.926,-64.469,0.391,-16.801,-2.344,75.018,-78.144,18.364,66.813,-64.469
'[13:50:45.723 25/07/2074]',33.993,25.006,-26.178,17.973,44.542,16.410,-17.192,7.814,43.761,1.954,-0.391,0.391,34.774,36.337,-33.211,7.424,-14.847,0.781,26.960,-33.602,22.662,27.741,-33.211
'[13:50:45.727 25/07/2074]',-8.205,92.601,-72.283,30.085,30.085,7.814,-12.112,16.801,40.635,10.549,-5.079,1.563,46.886,-36.728,27.741,9.377,-16.020,0.000,73.065,-69.939,19.145,-31.648,27.741
'[13:50:45.730 25/07/2074]',34.383,48.840,-77.363,39.853,46.886,-1.172,-10.159,12.112,37.900,9.768,-6.252,-4.689,26.178,-10.159,13.675,6.252,-11.722,-6.252,78.144,-54.310,32.039,-34.383,13.675
'[13:50:45.734 25/07/2074]',34.774,1.172,-19.536,34.383,41.416,7.033,-8.205,10.940,53.138,10.940,-1.172,-0.391,53.138,-26.569,21.880,14.457,-0.391,3.516,20.317,6.642,31.648,-60.171,21.880
'[13:50:45.738 25/07/2074]',36.728,35.946,-36.337,10.159,48.059,0.000,-0.391,0.391,53.919,-1.563,3.126,-1.563,61.343,-15.629,-5.861,15.238,3.907,7.424,37.118,-37.900,32.039,-32.430,-5.861
'[13:50:45.742 25/07/2074]',50.012,-25.788,33.993,-1.954,53.529,10.940,7.814,-16.801,44.151,17.192,-7.033,-19.536,31.648,31.258,-33.602,5.470,12.112,2.735,-33.211,14.066,27.350,13.675,-33.602
'[13:50:45.746 25/07/2074]',19.927,-22.271,33.211,1.954,37.118,26.569,-20.317,-9.768,41.807,12.503,-9.377,-5.861,45.714,12.503,-39.463,21.490,18.364,2.344,-32.430,10.549,31.258,1.954,-39.463
'[13:50:45.750 25/07/2074]',3.126,43.761,-21.880,-7.424,41.416,17.582,-21.099,-19.536,39.463,16.801,-10.940,-20.708,37.900,-5.861,-11.722,5.079,17.192,1.954,22.662,-58.999,33.211,-11.331,-11.722
'[13:50:45.754 25/07/2074]',13.284,15.238,-10.159,8.987,28.913,15.629,-5.079,-10.940,29.304,22.271,-8.987,-13.284,23.834,-10.159,3.907,11.722,13.284,1.172,10.940,-16.020,15.238,-24.615,3.907
'[13:50:45.758 25/07/2074]',34.774,-4.689,-0.781,15.238,26.178,11.331,9.768,-2.344,27.741,23.443,1.563,-7.814,32.821,-7.814,3.516,17.192,14.457,5.470,1.563,16.410,5.470,-38.681,3.516
'[13:50:45.762 25/07/2074]',30.085,-48.059,87.131,5.470,34.774,35.946,9.377,-5.861,30.867,19.145,4.689,-3.907,33.602,-10.549,6.642,21.490,17.192,17.973,-86.349,96.899,-15.238,-28.523,6.642
'[13:50:45.766 25/07/2074]',50.403,-12.894,16.020,19.145,23.053,6.642,42.589,0.781,26.178,24.615,1.172,-6.252,30.085,-21.099,18.364,19.536,13.284,21.490,-15.238,46.886,-30.085,-31.648,18.364
'[13:50:45.770 25/07/2074]',35.165,83.223,-64.078,10.940,33.211,19.927,17.192,-4.689,13.284,27.350,5.079,-7.033,8.987,-1.563,10.159,21.880,12.112,23.053,64.860,-67.985,3.126,-35.946,10.159
'[13:50:45.773 25/07/2074]',11.331,31.648,2.735,2.735,19.536,22.662,21.880,-15.238,21.099,21.490,13.284,-19.145,33.993,17.582,-25.006,10.549,8.987,27.350,-1.954,32.430,-14.847,-13.675,-25.006
'[13:50:45.777 25/07/2074]',42.198,157.851,-166.838,4.689,25.397,6.642,25.006,-18.364,36.728,22.271,18.364,-25.397,58.217,8.596,-19.927,4.689,4.689,28.913,167.619,-160.195,25.788,-30.476,-19.927
'[13:50:45.781 25/07/2074]',44.933,37.900,-1.563,-22.662,31.648,8.987,46.105,-28.913,42.979,31.258,26.569,-35.946,51.575,14.457,-1.563,0.781,5.079,27.350,2.344,-8.205,3.516,-37.900,-1.563
'[13:50:45.785 25/07/2074]',73.065,-54.701,93.773,-32.821,48.449,28.132,35.946,-33.993,55.873,25.788,39.463,-36.728,83.223,91.038,-89.866,0.391,14.457,35.946,-92.991,69.939,21.880,38.291,-89.866
'[13:50:45.789 25/07/2074]',64.469,-7.033,20.708,-3.907,36.728,24.225,23.443,-10.940,57.045,42.589,7.814,-21.099,64.469,-12.112,21.880,11.722,19.536,39.853,-19.927,-7.424,20.317,-53.919,21.880
'[13:50:45.793 25/07/2074]',50.403,26.569,-1.563,-5.470,30.085,9.768,41.026,-12.112,54.701,37.509,9.768,-26.178,43.761,26.569,2.344,4.298,14.457,37.118,2.344,-26.178,5.861,-12.894,2.344
'[13:50:45.797 25/07/2074]',40.244,57.827,-26.178,-0.391,29.695,10.549,37.509,-6.642,46.105,35.165,19.145,-20.708,42.198,65.250,-28.523,1.172,16.801,32.821,26.960,-29.304,-3.126,17.582,-28.523
'[13:50:45.801 25/07/2074]',13.675,81.661,-23.053,7.814,22.662,27.741,25.788,3.516,50.403,19.927,12.503,-8.987,54.310,16.410,-6.642,10.940,14.066,33.602,23.834,-30.867,-7.424,-1.954,-6.642
'[13:50:45.805 25/07/2074]',9.377,151.209,-66.813,2.735,37.900,24.615,37.509,-3.516,50.403,26.178,19.145,-21.490,47.668,-23.834,55.482,-3.516,12.503,35.946,67.595,-64.860,-18.364,-52.357,55.482
'[13:50:45.809 25/07/2074]',49.621,-14.457,92.210,-20.708,44.933,48.059,30.085,-18.364,64.469,21.880,37.509,-28.523,63.297,18.364,22.662,-8.596,13.675,37.118,-91.429,67.985,-19.145,-17.192,22.662
'[13:50:45.813 25/07/2074]',69.158,10.549,39.853,14.066,55.873,46.496,10.940,19.927,77.363,18.755,14.847,4.298,66.032,-40.635,58.999,32.039,14.066,31.258,-39.072,-6.252,9.768,-76.972,58.999
'[13:50:45.816 25/07/2074]',71.502,79.316,-30.476,20.317,60.562,32.821,27.741,19.145,80.098,31.648,12.894,-7.033,67.985,-3.516,39.853,12.894,19.536,36.728,31.258,-53.919,-8.596,-39.072,39.853
'[13:50:45.820 25/07/2074]',99.243,121.514,-89.475,15.629,50.794,28.523,49.231,17.192,95.336,28.523,23.053,-8.987,86.740,41.026,-1.954,12.112,19.145,37.509,90.256,-110.574,-10.940,0.781,-1.954
'[13:50:45.824 25/07/2074]',73.455,103.150,-29.304,23.443,65.641,27.350,44.933,32.039,100.024,28.913,9.768,4.689,88.303,1.172,28.913,25.006,21.880,31.648,30.085,-71.893,-9.768,-17.192,28.913
'[13:50:45.828 25/07/2074]',12.112,230.525,-119.170,10.159,48.059,24.615,46.105,12.503,69.158,42.198,10.159,-17.973,57.827,12.894,33.993,-0.781,23.443,42.198,119.951,-164.103,-7.033,-5.079,33.993
'[13:50:45.832 25/07/2074]',25.788,69.548,39.853,-28.523,42.198,33.211,41.807,-11.722,55.482,39.853,25.788,-26.960,59.389,31.648,7.033,-3.516,16.801,42.589,-39.072,-31.648,-12.503,21.490,7.033
'[13:50:45.836 25/07/2074]',42.979,49.231,51.575,-21.099,62.515,44.542,19.145,-5.079,72.283,42.198,29.304,-15.629,70.720,37.118,12.112,7.814,19.536,42.589,-50.794,-42.979,8.205,17.192,12.112
'[13:50:45.840 25/07/2074]',50.012,147.692,-67.204,0.391,68.376,26.569,24.615,10.159,77.363,39.853,28.913,-7.424,79.316,64.860,-18.364,13.675,17.973,44.151,67.985,-111.355,-1.563,22.271,-18.364
'[13:50:45.844 25/07/2074]',87.912,84.786,-2.344,-24.225,87.131,30.867,33.211,-7.424,86.349,32.039,45.324,-16.801,104.322,101.978,-67.204,6.642,16.020,43.761,3.126,-58.608,-7.814,69.158,-67.204
'[13:50:45.848 25/07/2074]',56.264,32.039,71.502,-0.391,74.237,34.774,36.337,12.503,102.759,38.291,24.225,-12.112,73.455,25.397,48.449,4.689,12.503,32.039,-70.720,30.867,-36.337,-12.503,48.449
'[13:50:45.852 25/07/2074]',55.092,49.621,23.834,11.722,71.893,19.145,32.039,16.020,81.270,38.291,11.331,-18.364,53.919,10.940,43.761,3.907,13.675,27.741,-23.053,1.563,-19.927,-35.165,43.761
'[13:50:45.855 25/07/2074]',39.853,24.225,61.734,-12.503,65.250,26.569,24.615,-4.689,73.846,34.774,10.940,-27.350,62.515,13.675,16.020,0.391,12.894,30.867,-60.952,18.755,-17.192,-10.549,16.020
'[13:50:45.859 25/07/2074]',73.455,29.304,23.834,-15.238,79.316,30.867,8.596,-8.596,97.680,32.430,2.735,-31.258,73.065,-10.549,40.635,-1.172,7.424,25.397,-23.053,-41.807,-12.112,-15.629,40.635
'[13:50:45.863 25/07/2074]',98.462,12.503,14.847,-5.470,97.289,14.457,8.205,-0.781,121.905,27.741,2.344,-23.053,110.574,28.523,-14.066,3.516,9.768,14.066,-14.066,-23.834,5.079,0.781,-14.066
'[13:50:45.867 25/07/2074]',118.388,125.031,-88.694,-22.271,121.514,13.284,8.205,-12.503,105.495,28.523,-0.781,-35.556,91.429,40.244,-18.755,-16.020,8.205,13.675,89.475,-123.077,-8.596,18.755,-18.755
'[13:50:45.871 25/07/2074]',74.628,31.648,13.675,-31.648,76.190,3.907,27.741,-20.317,85.568,18.364,2.735,-46.105,67.595,23.443,-9.377,-21.099,2.344,2.735,-12.894,14.066,-40.635,0.000,-9.377
'[13:50:45.875 25/07/2074]',3.126,88.694,12.112,-39.853,62.125,18.364,9.377,-26.178,76.972,25.788,-4.689,-52.747,45.714,62.906,-33.993,-29.304,7.033,-5.861,-11.331,0.391,-43.370,33.602,-33.993
'[13:50:45.879 25/07/2074]',54.310,44.542,21.490,-51.966,72.283,26.178,0.391,-31.648,69.939,26.569,-1.563,-57.827,48.059,42.589,-24.225,-29.304,15.629,-2.735,-20.708,-25.006,-8.205,5.470,-24.225
'[13:50:45.883 25/07/2074]',48.449,110.965,-64.078,-28.132,53.138,1.954,19.927,-10.159,51.184,5.861,8.205,-37.118,46.886,30.867,-50.012,0.781,14.847,1.172,64.860,-66.813,-37.900,7.814,-50.012
'[13:50:45.887 25/07/2074]',44.542,-71.893,133.236,-33.602,66.422,25.397,-8.205,-11.722,78.535,26.569,0.781,-41.026,54.310,9.768,9.377,-8.987,18.364,1.172,-132.454,78.144,-17.582,-9.768,9.377
'[13:50:45.891 25/07/2074]',122.686,-107.448,135.971,-37.900,96.899,34.383,-6.252,-12.112,106.276,32.039,7.424,-46.886,89.866,26.178,-2.344,-14.457,25.397,3.907,-135.189,81.661,-12.503,0.781,-2.344
'[13:50:45.895 25/07/2074]',34.383,30.085,54.701,-15.629,80.879,0.781,16.410,4.689,91.819,18.364,16.801,-36.337,89.084,3.516,1.172,-2.735,16.410,4.689,-53.919,55.092,-39.072,-19.927,1.172
'[13:50:45.898 25/07/2074]',8.205,28.132,80.879,-31.258,73.846,9.377,9.377,-7.424,117.607,31.648,-1.954,-53.919,82.051,0.391,32.039,-21.490,10.940,-4.689,-80.098,25.788,-23.834,-6.252,32.039
'[13:50:45.902 25/07/2074]',45.324,51.184,48.449,-37.509,100.415,25.397,-5.470,-12.112,151.600,31.258,1.172,-54.701,131.282,12.503,10.549,-25.397,20.317,-0.781,-47.668,-9.377,1.954,-13.675,10.549
'[13:50:45.906 25/07/2074]',17.192,162.540,-57.436,-29.304,64.860,12.894,11.722,1.954,109.011,16.020,1.954,-35.946,102.759,-10.549,2.344,-3.907,20.317,7.814,58.217,-102.369,9.768,-43.761,2.344
'[13:50:45.910 25/07/2074]',46.496,64.860,-24.225,-18.364,51.966,-2.735,17.582,0.391,101.978,23.053,-1.563,-37.900,91.429,8.596,-3.126,-11.722,15.629,8.205,25.006,-59.389,-6.252,-6.642,-3.126
'[13:50:45.914 25/07/2074]',65.250,69.158,10.549,-41.026,78.144,33.602,7.814,-15.629,132.063,29.695,9.377,-48.059,142.222,60.562,-54.701,-24.225,23.443,10.159,-9.768,-50.794,20.708,38.291,-54.701
'[13:50:45.918 25/07/2074]',81.270,123.077,-65.250,-23.053,76.972,9.768,31.258,-3.516,116.044,20.708,16.410,-39.463,141.441,17.973,-30.085,-14.066,21.880,16.020,66.032,-54.701,-6.642,-18.755,-30.085
'[13:50:45.922 25/07/2074]',84.786,151.990,-108.230,-8.205,84.786,-7.814,35.165,5.861,141.441,21.099,10.549,-34.383,141.832,46.496,-26.178,-22.271,7.814,17.973,109.011,-91.429,-16.410,8.596,-26.178
'[13:50:45.926 25/07/2074]',65.250,-10.159,79.316,-27.741,91.038,27.350,-7.424,-4.298,144.957,14.066,4.298,-32.039,146.129,25.397,-21.880,-17.582,2.344,10.549,-78.535,33.602,24.615,-1.172,-21.880
'[13:50:45.930 25/07/2074]',57.827,-7.033,34.383,-32.430,38.681,8.205,12.503,-7.814,151.990,11.331,4.298,-33.993,141.441,11.722,7.424,-25.397,1.954,7.424,-33.602,37.509,-2.344,-47.277,7.424
'[13:50:45.934 25/07/2074]',23.053,-96.899,138.706,-27.741,25.397,13.675,-7.814,5.079,104.322,0.391,-5.470,-7.033,81.270,9.768,0.781,-0.781,-8.205,0.000,-137.924,116.825,0.391,-43.761,0.781
'[13:50:45.938 25/07/2074]',55.873,-114.481,138.315,-44.151,51.966,23.834,-18.755,-21.490,131.673,4.298,-8.205,-26.178,113.309,-16.410,25.397,-20.317,-5.079,-6.642,-137.534,92.210,-6.642,-26.960,25.397
'[13:50:45.941 25/07/2074]',103.150,-23.443,15.629,-23.053,45.324,29.304,8.596,-11.331,171.917,1.563,4.689,-18.755,181.294,-2.344,2.344,-20.317,1.172,-8.987,-14.847,38.681,-31.258,-24.615,2.344
'[13:50:45.945 25/07/2074]',121.123,75.409,-32.821,-16.410,114.481,13.284,16.020,1.954,190.672,3.907,3.126,-8.987,193.016,12.112,-4.298,-12.112,0.391,-6.252,33.602,-38.291,-16.410,-5.470,-4.298
'[13:50:45.949 25/07/2074]',105.495,32.039,-4.298,-3.907,109.792,18.364,-5.470,6.252,221.148,-0.391,-1.172,0.391,229.353,-7.033,-3.907,0.781,0.391,-3.516,5.079,-41.026,26.569,-15.629,-3.907
'[13:50:45.953 25/07/2074]',108.620,57.436,-24.225,-41.026,55.482,46.496,7.033,-9.768,216.850,-5.079,17.973,-3.907,244.982,35.165,-55.092,0.391,6.252,8.596,25.006,-82.051,76.581,-30.085,-55.092
'[13:50:45.957 25/07/2074]',54.701,86.349,36.728,-55.482,85.177,58.217,-0.391,-21.099,231.306,18.364,0.391,-25.397,210.208,11.722,23.834,-22.271,8.987,6.642,-35.946,-30.085,33.993,-48.449,23.834
'[13:50:45.961 25/07/2074]',43.761,39.072,50.403,-41.416,74.628,37.509,-8.596,-11.331,223.101,3.907,-0.781,-12.894,212.161,0.391,5.079,-5.470,-0.781,2.735,-49.621,-38.291,45.714,-21.099,5.079
'[13:50:45.965 25/07/2074]',41.807,38.291,56.264,-42.198,71.502,19.536,16.410,-14.066,250.452,10.940,5.861,-23.053,242.247,-11.331,40.244,-26.178,-2.735,-1.954,-55.482,4.298,5.470,-27.741,40.244
'[13:50:45.969 25/07/2074]',62.125,140.269,-48.449,-33.211,92.991,12.503,25.006,-10.549,272.723,18.755,12.503,-28.913,270.769,-0.781,37.900,-32.821,1.954,-9.768,49.231,-48.059,-36.728,-15.238,37.900
'[13:50:45.973 25/07/2074]',73.065,-25.006,101.978,-28.132,95.336,43.370,-14.847,-2.735,230.134,5.079,17.192,-8.987,237.558,8.987,1.954,-4.689,6.642,-6.642,-101.197,58.999,1.172,-0.781,1.954
'[13:50:45.977 25/07/2074]',80.098,-38.291,84.396,-24.225,67.595,32.821,8.596,-8.205,233.260,16.020,21.880,-18.364,250.061,-12.503,26.569,-10.549,12.503,0.000,-83.614,51.575,4.298,-25.006,26.569
'[13:50:45.980 25/07/2074]',144.176,-1.563,-1.954,-19.536,53.529,46.496,30.867,-11.331,257.875,21.099,39.463,-26.960,276.630,15.629,15.238,-14.847,24.225,-2.735,2.735,4.689,5.470,-42.979,15.238
'[13:50:45.984 25/07/2074]',142.222,-8.987,9.377,10.940,65.250,60.562,19.927,6.252,280.147,31.258,26.569,-15.238,287.179,20.317,12.894,1.563,28.913,1.172,-8.596,19.927,-3.907,-21.880,12.894
'[13:50:45.988 25/07/2074]',100.415,-4.689,14.066,42.979,85.958,0.000,42.589,23.053,291.868,26.960,30.085,-6.642,300.464,39.853,-3.907,6.252,20.708,0.391,-13.284,48.059,-5.861,0.781,-3.907
'[13:50:45.992 25/07/2074]',166.838,106.276,-143.394,29.695,75.409,-8.205,76.581,14.847,305.153,32.430,41.026,-18.364,291.087,66.422,2.735,0.391,22.662,3.126,144.176,-89.475,-35.556,0.391,2.735
'[13:50:45.996 25/07/2074]',194.579,-52.357,28.913,1.563,66.422,91.819,17.973,-3.907,291.477,46.105,27.350,-25.397,291.868,44.542,1.172,1.563,39.463,7.814,-28.132,7.424,-16.410,18.755,1.172
'[13:50:46.000 25/07/2074]',80.098,-42.198,112.137,4.298,82.051,35.165,27.350,8.205,310.232,28.523,28.913,-9.768,318.046,37.900,-11.331,13.675,35.946,12.503,-111.355,87.521,-33.602,35.165,-11.331
'[13:50:46.004 25/07/2074]',126.593,-122.295,147.692,-14.847,54.701,53.529,42.198,-14.457,389.158,33.602,32.430,-30.085,388.767,58.608,-19.927,-0.781,38.681,17.192,-146.911,79.316,12.503,37.118,-19.927
'[13:50:46.008 25/07/2074]',17.582,-17.192,141.441,-19.145,62.125,79.707,1.954,-22.662,462.222,47.277,25.397,-33.211,464.176,-6.252,52.357,-7.424,40.244,15.238,-140.659,66.032,10.549,-27.350,52.357
'[13:50:46.012 25/07/2074]',-44.151,32.821,142.613,0.391,104.713,26.178,10.549,-10.549,569.670,29.695,30.867,-19.927,567.326,16.020,23.443,2.735,30.867,10.940,-141.832,82.833,18.364,-13.284,23.443
'[13:50:46.016 25/07/2074]',54.701,60.562,53.529,0.391,103.932,37.118,33.993,-6.252,584.908,47.668,19.927,-24.615,586.471,-31.258,75.409,-1.563,23.834,12.894,-52.747,-0.391,12.112,-62.906,75.409
'[13:50:46.020 25/07/2074]',194.188,-41.807,19.927,-3.126,79.316,69.939,27.741,-9.377,584.127,41.807,15.238,-24.225,574.359,6.642,33.211,1.954,23.443,10.159,-19.145,-11.722,-19.927,-19.145,33.211
'[13:50:46.023 25/07/2074]',107.839,-12.503,68.767,1.954,100.415,14.066,44.933,5.470,566.154,28.913,9.768,-13.284,575.531,13.675,-10.940,13.284,14.847,7.814,-67.985,63.687,-46.496,13.675,-10.940
'[13:50:46.027 25/07/2074]',158.632,112.137,-115.653,16.801,121.905,-7.424,41.026,15.629,545.836,20.708,-0.391,-5.470,543.492,18.364,-19.927,19.145,8.987,10.549,116.435,-145.739,-13.675,25.788,-19.927
'[13:50:46.031 25/07/2074]',138.315,-28.132,16.020,-32.039,98.462,7.424,19.927,-33.211,537.241,18.755,18.364,-44.542,528.645,73.846,-54.310,-16.801,3.907,6.642,-15.238,-53.138,14.847,64.078,-54.310
'[13:50:46.035 25/07/2074]',94.945,10.549,16.020,-45.714,73.065,50.794,-17.582,-31.258,543.101,21.099,16.410,-37.509,551.306,-12.894,32.039,-25.006,6.642,11.331,-15.238,-69.548,23.053,-16.410,32.039
'[13:50:46.039 25/07/2074]',110.965,157.460,-171.136,-21.099,41.026,49.231,1.954,-16.801,538.022,26.569,20.317,-27.350,568.889,-10.940,23.443,-22.662,3.516,23.834,171.917,-176.215,17.192,-52.357,23.443
'[13:50:46.043 25/07/2074]',273.504,-169.573,15.629,-41.026,-7.033,92.210,23.834,-32.039,532.161,22.271,28.523,-44.542,554.823,27.350,-2.344,-39.463,-3.516,21.490,-14.847,-29.695,19.145,10.159,-2.344
'[13:50:46.047 25/07/2074]',97.680,-32.430,-7.033,18.755,21.880,12.894,17.192,23.834,512.234,1.954,10.159,9.377,523.565,17.582,-15.629,9.377,-19.145,8.596,7.814,-23.053,24.615,0.391,-15.629
'[13:50:46.051 25/07/2074]',9.377,178.559,-100.415,11.722,65.641,-23.443,50.794,5.079,466.911,9.768,9.377,-14.066,461.832,50.403,-30.476,-7.424,-14.457,14.066,101.197,-88.694,20.708,11.722,-30.476
'[13:50:46.055 25/07/2074]',78.926,12.503,8.205,16.020,67.985,9.768,39.853,-2.344,486.447,-0.391,21.490,-17.192,487.228,24.615,-14.847,-5.079,-15.629,14.457,-7.424,39.853,-8.987,10.159,-14.847
'[13:50:46.059 25/07/2074]',-17.582,57.045,92.210,-3.126,103.932,18.755,21.099,-16.020,459.096,7.033,23.834,-21.880,467.302,5.861,14.847,-18.755,-11.331,12.503,-91.429,112.137,-23.834,10.159,14.847
'[13:50:46.063 25/07/2074]',85.568,-58.217,69.939,12.894,64.469,37.900,14.066,-5.861,448.938,13.284,14.066,-16.020,441.514,-5.079,35.946,-10.549,-7.424,18.364,-69.158,128.547,-26.960,-31.648,35.946
'[13:50:46.066 25/07/2074]',58.608,-62.125,75.018,0.391,64.469,21.880,6.252,-21.490,465.348,14.457,22.662,-28.132,460.659,-2.735,36.337,-19.145,-7.814,24.225,-74.237,101.587,-18.364,-7.424,36.337
'[13:50:46.070 25/07/2074]',212.552,-148.474,36.337,3.126,57.436,46.886,9.377,-10.549,416.899,19.145,15.238,-22.662,391.502,42.979,6.252,-11.331,-3.516,26.960,-35.556,-7.033,25.397,37.509,6.252
'[13:50:46.074 25/07/2074]',-48.840,155.116,-64.469,16.410,40.244,-1.172,26.569,-8.205,405.177,13.284,17.582,-26.960,374.701,30.085,9.768,-5.470,-3.516,22.271,65.250,-98.852,39.072,17.582,9.768
'[13:50:46.078 25/07/2074]',74.237,67.595,-98.852,24.225,-45.714,50.403,60.171,1.172,420.024,8.987,39.072,-25.788,416.508,30.476,-0.781,-2.735,7.033,26.960,99.634,-89.866,12.894,12.503,-0.781
'[13:50:46.082 25/07/2074]',108.230,79.316,-81.661,12.503,25.397,44.151,54.310,-6.642,402.442,12.112,41.807,-35.165,400.488,33.993,2.344,-16.410,5.861,22.662,82.442,-74.628,-25.788,52.747,2.344
'[13:50:46.086 25/07/2074]',-95.336,57.045,104.713,0.391,78.926,6.252,5.470,-24.225,385.250,3.126,39.072,-33.211,379.780,40.244,-24.615,-0.781,-0.781,10.549,-103.932,70.330,-3.126,75.409,-24.615
'[13:50:46.090 25/07/2074]',-35.556,101.197,-7.424,7.033,97.680,-8.205,1.563,-25.397,375.092,10.940,32.430,-28.913,337.973,41.807,8.987,1.172,0.781,16.410,8.205,-25.788,8.987,29.304,8.987
'[13:50:46.094 25/07/2074]',52.747,-40.244,82.442,-21.490,146.129,-25.006,16.020,-64.860,334.847,47.668,14.457,-65.641,290.305,62.906,5.470,-27.350,2.735,23.053,-81.661,61.734,-11.331,67.595,5.470
'[13:50:46.098 25/07/2074]',-38.291,89.866,17.582,-7.814,152.772,-28.132,5.079,-68.376,320.000,39.072,16.020,-56.654,282.100,59.780,-13.284,-8.596,7.424,13.284,-16.801,28.913,8.205,39.463,-13.284
'[13:50:46.102 25/07/2074]',62.125,174.652,-178.168,-8.205,57.827,-3.516,57.045,-61.734,318.046,43.370,22.662,-49.231,294.603,67.204,-19.536,-6.252,16.020,22.271,178.950,-105.104,-16.801,19.927,-19.536
'[13:50:46.105 25/07/2074]',228.181,-32.039,-194.969,6.642,-2.735,-1.172,60.171,-49.621,329.377,31.258,30.867,-44.151,324.689,65.641,-25.006,-16.801,7.814,28.523,195.751,-86.740,-53.138,51.575,-25.006
'[13:50:46.109 25/07/2074]',420.024,-86.349,-326.642,-7.424,3.516,30.476,18.755,-54.310,336.410,7.033,42.198,-28.132,362.589,3.907,-7.814,0.391,7.424,25.006,327.424,-289.524,-7.814,30.476,-7.814
'[13:50:46.113 25/07/2074]',67.985,223.883,-261.392,-41.416,-14.457,44.542,24.615,-66.032,319.609,15.629,32.821,-33.211,318.046,-7.033,25.006,-0.391,4.298,25.788,262.173,-269.597,5.861,-8.987,25.006
'[13:50:46.117 25/07/2074]',187.546,-99.634,-80.098,-29.304,-12.112,35.946,14.066,-60.171,318.046,23.443,21.099,-30.476,315.702,-28.523,53.529,-7.424,0.781,29.304,80.879,-64.078,-6.252,-32.039,53.529
'[13:50:46.121 25/07/2074]',128.547,-124.640,48.840,-50.012,14.066,65.641,1.563,-80.098,301.636,14.066,30.085,-43.370,291.477,-8.205,39.072,-18.364,6.252,29.695,-48.059,52.357,5.079,-26.569,39.072
'[13:50:46.125 25/07/2074]',8.596,31.648,1.954,-38.681,4.298,49.231,15.238,-65.641,291.477,13.284,28.132,-18.364,304.371,36.728,-30.867,5.079,8.987,19.927,-1.172,49.231,-9.768,2.735,-30.867
'[13:50:46.129 25/07/2074]',110.183,-124.640,50.012,-22.662,48.840,-2.344,23.443,-57.436,273.504,22.662,14.066,-27.350,264.518,25.788,7.814,-14.847,5.861,12.894,-49.231,83.614,-11.331,15.629,7.814
'[13:50:46.133 25/07/2074]',316.874,-195.360,-119.170,-16.410,4.298,5.861,25.006,-50.403,272.332,-16.020,25.006,-23.053,245.763,68.767,-36.337,-19.145,0.781,11.331,119.951,-48.449,-52.747,75.409,-36.337
'[13:50:46.137 25/07/2074]',-89.866,81.661,30.867,-52.357,94.554,-51.184,0.391,-73.455,257.875,14.847,1.172,-30.476,227.399,36.728,-6.252,-14.457,-3.516,-4.689,-30.085,12.894,16.801,24.615,-6.252
'[13:50:46.141 25/07/2074]',3.516,-84.786,73.455,-39.072,71.111,-25.397,-32.430,-60.171,268.816,19.536,3.126,-26.569,275.067,-17.192,28.132,-20.317,-3.516,-7.424,-72.674,76.581,14.066,-14.457,28.132
'[13:50:46.145 25/07/2074]',28.132,-87.912,6.642,-39.463,43.761,-41.026,-35.165,-58.608,294.212,-0.781,8.205,-21.880,316.874,-23.053,-1.172,-12.503,-12.894,-8.987,-5.861,45.714,13.675,-28.132,-1.172
'[13:50:46.148 25/07/2074]',78.535,-56.264,-79.707,-26.178,-8.205,-10.549,-21.099,-43.370,277.411,10.159,2.344,-3.907,325.079,-51.184,8.596,5.470,-7.033,-12.112,80.488,-10.549,7.424,-64.860,8.596
'[13:50:46.152 25/07/2074]',51.966,51.575,-124.249,-16.410,51.575,-16.020,-22.662,-49.231,287.179,36.728,-2.735,-17.973,357.118,-23.053,-11.722,-17.973,4.298,-9.377,125.031,-26.960,-12.894,-15.238,-11.722
'[13:50:46.156 25/07/2074]',117.607,-54.701,-99.243,-27.741,27.350,-25.788,-7.033,-58.608,263.346,-0.391,-19.145,-31.258,254.750,1.563,-15.629,-28.132,-3.907,-8.987,100.024,0.000,-42.198,13.284,-15.629
'[13:50:46.160 25/07/2074]',98.462,-67.595,-61.343,-26.569,13.284,7.424,-23.053,-55.873,223.492,11.331,-30.085,-27.350,180.904,-14.066,34.774,-24.615,-0.391,-10.159,62.125,-15.238,-37.118,4.298,34.774
'[13:50:46.164 25/07/2074]',69.548,-108.620,23.053,-41.026,40.244,-16.020,-12.112,-68.767,257.094,-5.861,-10.940,-37.509,237.558,15.629,-19.927,-30.476,0.000,-18.755,-22.271,57.827,-19.927,42.979,-19.927
'[13:50:46.168 25/07/2074]',-90.256,-1.172,2.344,-8.596,24.615,-41.416,-48.059,-32.039,238.339,-39.072,-6.252,-7.033,230.916,-11.722,-33.602,0.781,-16.801,-27.350,-1.563,62.515,7.033,-10.940,-33.602
'[13:50:46.172 25/07/2074]',-25.397,45.714,-41.416,-46.496,7.814,-3.516,-16.020,-55.482,205.910,-3.516,-24.615,-32.039,164.493,-17.973,20.317,-21.099,-7.814,-16.410,42.198,1.563,-19.927,-33.211,20.317
'[13:50:46.176 25/07/2074]',-63.297,52.747,-12.112,-46.105,49.231,-37.509,-18.755,-60.952,250.452,-9.768,-3.516,-34.383,255.140,84.005,-102.759,-32.821,-13.675,-16.801,12.894,47.668,-0.391,67.204,-102.759
'[13:50:46.180 25/07/2074]',-81.661,191.844,-121.905,-45.324,48.449,-70.720,20.317,-56.264,231.697,31.258,-27.741,-48.449,276.630,71.502,-98.071,-62.515,-20.708,-11.331,122.686,19.536,-59.389,69.548,-98.071
'[13:50:46.184 25/07/2074]',18.364,33.602,-95.726,-30.085,45.324,-58.217,-27.741,-32.430,194.579,22.662,-61.343,-21.880,178.950,-8.205,0.781,-37.509,-21.099,-11.722,96.508,-44.933,-26.960,10.549,0.781
'[13:50:46.188 25/07/2074]',-56.264,169.182,-203.956,-4.689,20.708,-61.734,-29.304,-25.397,239.121,23.053,-41.807,-12.503,283.663,-15.238,-21.880,-37.900,-14.457,-4.689,204.737,-107.057,-30.867,20.708,-21.880
'[13:50:46.191 25/07/2074]',97.680,136.361,-320.000,-18.755,-19.145,-28.523,-28.523,-26.178,218.803,28.132,-40.635,-14.457,254.750,-51.966,18.364,-28.132,-10.549,-6.252,320.781,-229.353,-51.966,-23.834,18.364
'[13:50:46.195 25/07/2074]',-85.177,80.879,1.172,-48.840,37.509,-3.126,-53.529,-31.648,182.466,19.536,-44.542,-8.205,151.600,-59.780,65.641,-8.205,2.735,-5.861,-0.391,-39.463,33.993,-89.084,65.641
'[13:50:46.199 25/07/2074]',-117.607,166.838,-25.397,-73.455,35.946,1.954,-28.132,-58.999,189.890,30.867,-14.066,-29.695,176.215,74.237,-39.463,-33.602,10.159,5.861,26.178,-39.853,-28.523,60.171,-39.463
'[13:50:46.203 25/07/2074]',-50.012,-23.053,135.971,-96.899,76.190,13.675,-47.668,-76.972,187.155,27.350,4.298,-35.946,170.745,91.038,-41.807,-35.165,14.847,-0.391,-135.189,93.773,-1.954,40.244,-41.807
'[13:50:46.207 25/07/2074]',-70.330,35.556,64.469,-42.198,78.535,-36.337,-21.099,-33.602,126.593,31.258,-14.847,-11.722,102.369,56.264,-10.940,-16.410,8.596,-11.331,-63.687,66.422,-32.039,26.960,-10.940
'[13:50:46.211 25/07/2074]',-50.012,-5.861,50.794,-10.940,30.085,-32.821,0.391,-13.675,154.725,24.615,1.172,7.424,193.016,84.786,-78.926,-8.205,12.112,-5.079,-50.012,69.548,-46.105,117.607,-78.926
'[13:50:46.215 25/07/2074]',76.972,-46.886,-50.012,-4.689,36.728,-24.615,-20.708,-16.020,193.016,-13.284,20.317,10.549,225.446,54.701,-64.860,-3.126,6.252,-18.364,50.794,-33.602,-14.457,74.628,-64.860
'[13:50:46.219 25/07/2074]',328.205,-171.526,-140.659,16.410,0.391,-5.861,25.788,12.112,171.526,23.443,-13.675,26.569,271.551,-80.098,4.689,12.112,21.099,-15.238,141.441,-87.521,-17.582,-22.662,4.689
'[13:50:46.223 25/07/2074]',20.708,69.939,-39.072,-27.741,42.979,-2.344,4.298,-21.490,211.380,-9.768,32.039,12.503,313.358,73.846,-147.692,7.424,20.317,-1.954,39.853,-14.847,-11.722,109.011,-147.692
'[13:50:46.227 25/07/2074]',151.600,-181.294,-0.391,-12.894,13.675,19.536,-58.608,-17.582,191.844,-36.337,7.033,28.132,200.830,48.059,-89.475,30.476,16.020,-6.252,1.172,-19.927,24.225,54.310,-89.475
'[13:50:46.230 25/07/2074]',138.706,-84.005,-68.376,7.814,42.979,-29.695,-7.424,-12.503,164.103,-11.331,18.364,-1.954,154.335,35.165,-16.801,-3.907,10.940,-12.112,69.158,29.304,-57.045,-2.344,-16.801
'[13:50:46.234 25/07/2074]',143.394,-182.076,9.377,7.033,24.615,-8.987,-32.430,-4.689,153.553,-42.589,26.960,6.642,215.287,-2.735,-88.303,21.099,0.391,-12.894,-8.596,73.846,-33.211,47.668,-88.303
'[13:50:46.238 25/07/2074]',210.989,-174.652,-69.548,16.020,-1.563,21.490,-27.741,-8.205,98.852,-20.317,-1.954,-23.443,33.602,-34.774,68.767,-14.066,-2.735,-7.424,70.330,-3.516,-57.827,-39.072,68.767
'[13:50:46.242 25/07/2074]',399.316,-269.597,-89.475,-1.563,40.244,10.159,8.205,-21.099,124.640,5.861,15.629,-36.337,113.309,-62.125,97.289,-37.509,-0.781,-7.814,90.256,-37.509,-45.714,-54.310,97.289
'[13:50:46.246 25/07/2074]',-172.698,166.056,-13.675,3.126,72.283,-28.132,-48.059,-11.331,114.481,9.768,21.880,-15.238,166.447,-82.833,58.608,-10.549,-3.516,-4.298,14.457,4.298,-32.430,-18.364,58.608
'[13:50:46.250 25/07/2074]',-50.403,12.112,19.145,16.020,-4.689,26.960,-17.192,-7.033,113.700,10.549,25.397,-10.549,80.488,42.589,18.364,-2.344,3.907,15.238,-18.364,47.668,-40.244,28.913,18.364
'[13:50:46.254 25/07/2074]',-66.422,131.673,-70.330,35.165,23.834,-13.284,11.722,6.642,108.230,31.258,34.774,-0.391,95.726,41.416,28.132,8.596,10.159,22.662,71.111,-48.840,-21.880,21.099,28.132
'[13:50:46.258 25/07/2074]',-105.885,89.866,-6.252,46.886,24.615,-4.689,-5.079,9.768,130.110,11.331,58.608,9.768,193.407,48.449,-59.780,28.913,17.973,20.708,7.033,82.833,-64.078,73.846,-59.780
'[13:50:46.262 25/07/2074]',274.676,-104.713,-128.156,81.661,-66.032,77.753,64.469,46.105,59.389,30.476,19.145,12.112,26.960,61.734,-1.954,35.556,30.085,32.821,128.938,-7.033,-99.243,43.761,-1.954
'[13:50:46.266 25/07/2074]',-4.298,144.567,-81.661,53.529,90.256,-31.648,36.337,15.629,87.521,44.933,17.582,-3.907,41.416,15.238,69.158,20.317,22.662,18.755,82.442,-53.919,-23.053,-12.112,69.158
'[13:50:46.270 25/07/2074]',97.680,-125.812,58.999,13.284,76.972,3.126,-23.053,-12.112,124.249,30.085,35.165,-9.768,118.388,43.761,11.331,7.033,17.973,15.629,-58.217,40.244,13.675,28.132,11.331
'[13:50:46.273 25/07/2074]',-197.314,177.778,15.238,32.430,48.449,-14.847,-21.880,16.801,142.222,6.252,28.523,19.145,144.176,54.701,-30.085,27.741,3.126,17.192,-14.457,17.973,2.344,56.654,-30.085
'[13:50:46.277 25/07/2074]',21.490,-35.165,34.774,-1.172,14.457,14.457,-10.549,0.391,137.534,30.867,21.490,7.424,173.480,10.549,-10.549,24.615,4.689,23.053,-33.993,-5.470,64.078,-11.331,-10.549
'[13:50:46.281 25/07/2074]',3.126,-14.457,-41.416,63.297,-7.814,-30.476,-6.252,55.873,101.978,10.549,0.000,47.668,136.361,94.554,-110.183,39.853,-5.470,10.940,42.198,-11.331,-40.244,168.010,-110.183
'[13:50:46.285 25/07/2074]',182.857,-19.145,-171.526,70.330,-35.165,-0.391,35.946,60.952,64.469,23.834,0.391,28.913,105.885,9.768,-16.020,19.145,-1.563,15.238,172.308,-59.389,-82.051,57.045,-16.020
'[13:50:46.289 25/07/2074]',260.611,69.548,-312.186,97.680,20.317,-51.184,66.422,79.707,43.761,53.138,-21.490,28.523,57.827,-22.662,58.217,10.549,-8.987,19.145,312.967,-203.175,-74.628,13.675,58.217
'[13:50:46.293 25/07/2074]',-85.958,5.470,63.297,68.767,7.033,-12.894,0.781,57.045,53.138,46.886,-18.755,31.648,76.972,-2.344,28.523,9.768,-11.722,18.364,-62.515,98.462,-33.602,47.668,28.523
'[13:50:46.297 25/07/2074]',26.178,160.586,-136.361,5.470,-10.549,17.192,32.039,16.801,112.137,30.867,22.662,9.768,167.228,28.132,-8.596,-9.377,-4.689,26.960,137.143,-74.628,-11.722,-0.391,-8.596
'[13:50:46.301 25/07/2074]',-26.569,-21.099,66.813,12.112,-1.563,-1.954,-2.344,37.900,102.759,14.847,3.907,42.979,159.023,-50.012,39.463,16.410,-14.066,21.099,-66.032,48.840,50.012,-52.747,39.463
'[13:50:46.305 25/07/2074]',230.525,-153.553,-7.033,7.814,-36.337,58.608,8.596,45.324,79.707,14.066,-5.470,45.714,103.150,51.184,-37.509,17.582,0.391,17.582,7.814,-20.708,11.722,48.059,-37.509
'[13:50:46.309 25/07/2074]',141.050,222.711,-309.060,10.159,26.178,-27.350,33.211,32.821,96.117,12.894,7.814,30.476,163.712,16.020,-37.118,6.252,-1.172,3.126,309.841,-289.915,24.615,22.662,-37.118
'[13:50:46.313 25/07/2074]',37.900,51.184,-35.946,14.066,92.210,-73.065,14.847,32.430,67.204,33.993,-16.801,28.132,95.336,13.284,6.252,-0.781,-5.079,-11.331,36.728,-95.726,71.502,22.662,6.252
'[13:50:46.316 25/07/2074]',12.112,-98.071,40.635,59.389,-35.946,-3.516,-18.364,72.283,19.927,44.933,-63.687,54.310,-4.689,-29.695,55.482,35.946,-4.689,-16.410,-39.853,24.615,-16.020,8.987,55.482
'[13:50:46.320 25/07/2074]',28.523,58.999,-125.421,24.615,-103.150,37.509,13.675,37.509,41.026,50.012,-41.807,26.569,46.105,-11.331,34.383,7.033,11.331,-2.344,126.203,-67.985,-60.562,4.689,34.383
'[13:50:46.324 25/07/2074]',-91.038,87.131,-63.297,34.383,-21.099,-48.840,-1.172,38.681,32.039,53.529,-35.165,27.741,16.020,-5.470,67.595,1.172,5.470,-9.377,64.078,-8.987,-60.562,-7.424,67.595
'[13:50:46.328 25/07/2074]',388.767,-311.404,-47.277,19.536,-61.343,34.383,32.039,43.370,50.012,32.039,-13.675,32.821,27.741,25.397,37.118,11.331,14.847,4.298,48.059,58.608,-130.110,12.894,37.118
'[13:50:46.332 25/07/2074]',460.659,-5.470,-337.192,5.470,27.741,27.741,39.463,26.960,83.223,45.324,21.490,10.940,110.574,77.753,-18.364,-7.814,22.271,10.940,337.973,-291.868,-62.906,69.548,-18.364
'[13:50:46.336 25/07/2074]',105.104,-119.170,68.376,13.284,94.945,-78.144,29.304,21.490,54.701,46.886,19.536,11.722,43.761,135.189,-39.853,-4.298,5.861,0.000,-67.595,68.767,-4.298,85.958,-39.853
'[13:50:46.340 25/07/2074]',37.509,-121.123,170.354,0.000,91.819,-25.006,0.391,18.755,53.138,28.913,28.132,23.834,59.780,23.443,32.821,19.145,7.424,3.907,-169.573,92.991,51.966,-7.424,32.821
'[13:50:46.344 25/07/2074]',65.641,-93.773,94.945,21.099,71.111,17.973,-34.774,32.430,76.581,27.350,17.973,39.853,101.197,5.470,16.410,40.244,14.457,15.238,-94.164,3.516,44.151,23.834,16.410
'[13:50:46.348 25/07/2074]',-176.996,-21.880,164.493,35.165,7.033,-46.496,5.861,33.211,41.026,19.927,18.755,25.006,26.960,-24.225,73.455,31.258,2.735,10.549,-163.712,146.520,-16.410,-28.132,73.455
'[13:50:46.352 25/07/2074]',35.165,-15.238,28.913,36.728,22.271,10.159,16.801,35.556,54.701,16.020,32.039,26.960,45.714,-18.755,75.018,29.695,23.834,25.006,-28.132,58.999,-61.734,-31.648,75.018
'[13:50:46.355 25/07/2074]',240.684,-153.553,-23.443,20.317,-27.350,42.198,35.946,32.039,89.084,-7.814,49.231,25.397,109.011,83.223,-75.800,40.244,22.662,37.509,24.225,23.443,-94.945,100.024,-75.800
'[13:50:46.359 25/07/2074]',305.543,-135.580,-139.487,56.654,-72.674,41.026,74.237,43.370,5.079,60.562,3.516,-3.907,-11.722,17.192,62.906,-1.954,17.582,33.993,140.269,-53.529,-117.607,17.973,62.906
'[13:50:46.363 25/07/2074]',164.884,165.665,-281.319,51.966,53.138,-37.509,43.370,41.026,5.861,30.476,-3.907,8.205,-46.105,53.919,30.085,3.516,14.066,17.582,282.100,-222.711,-73.846,28.132,30.085
'[13:50:46.367 25/07/2074]',75.018,178.168,-165.665,-2.344,77.753,-26.569,15.238,17.973,21.490,29.304,-12.894,6.252,-0.781,20.317,17.973,7.033,10.159,13.284,166.447,-219.585,3.126,16.020,17.973
'[13:50:46.371 25/07/2074]',135.971,135.189,-237.558,17.192,30.867,-19.536,13.284,26.178,36.728,20.708,-25.397,11.722,1.563,46.105,-11.331,8.987,5.079,10.549,238.339,-209.817,-64.078,45.324,-11.331
'[13:50:46.375 25/07/2074]',-19.536,168.400,-150.427,19.536,50.012,-82.051,16.410,32.821,74.628,-6.252,0.391,36.337,81.270,59.780,-54.701,19.145,2.344,0.781,151.209,-141.832,-23.053,61.343,-54.701
'[13:50:46.379 25/07/2074]',-74.628,109.792,68.376,-51.184,79.707,-57.045,46.886,-17.973,69.158,0.000,11.331,0.781,85.958,64.469,-61.343,-6.642,12.894,7.033,-67.595,25.006,-21.880,80.488,-61.343
'[13:50:46.383 25/07/2074]',169.573,-161.758,-0.781,-35.556,-40.244,64.469,-29.695,-23.053,75.800,12.503,0.391,0.000,103.541,23.053,-30.085,-5.861,17.973,6.642,1.563,-76.972,14.847,55.873,-30.085
'[13:50:46.387 25/07/2074]',88.694,-32.039,45.324,-89.084,18.755,42.198,17.973,-67.204,57.045,21.490,23.053,-36.728,98.462,-27.741,43.761,-48.840,30.867,9.768,-44.542,-49.621,39.072,-17.973,43.761
'[13:50:46.391 25/07/2074]',91.819,-51.184,2.344,-53.529,9.377,26.569,-8.987,-37.900,34.383,3.907,-6.642,-10.549,-14.457,-22.271,73.846,-14.457,17.192,1.563,-1.563,-112.918,54.310,-43.761,73.846
'[13:50:46.395 25/07/2074]',-39.853,44.542,-22.271,-38.681,-2.344,14.847,-35.556,-32.821,21.490,1.954,-28.523,-8.205,-66.813,-22.662,81.661,-3.907,12.112,3.516,23.053,-105.104,4.689,-28.913,81.661
'[13:50:46.398 25/07/2074]',-109.011,142.222,-76.190,-25.788,-42.589,-13.675,10.159,-23.834,66.032,-19.145,-1.954,9.768,29.695,17.582,3.907,3.907,3.516,5.861,76.972,-63.297,-46.496,20.317,3.907
'[13:50:46.402 25/07/2074]',-204.347,177.387,-34.774,24.615,18.364,-95.336,14.066,24.225,71.502,-38.681,0.781,51.575,86.349,-64.078,25.788,38.291,-7.033,7.814,35.556,49.231,-81.270,-23.834,25.788
'[13:50:46.406 25/07/2074]',-132.063,93.382,28.523,-27.741,51.966,-49.231,-17.582,-23.053,43.761,4.298,-9.377,7.814,8.205,-44.933,82.442,2.735,7.033,13.284,-27.741,59.389,-78.926,-41.416,82.442
'[13:50:46.410 25/07/2074]',5.079,49.621,-23.834,-9.377,5.861,-11.331,40.244,-14.066,64.469,7.424,18.755,-2.344,89.866,-54.310,75.018,-20.708,10.940,25.006,24.615,125.812,-152.772,-36.728,75.018
'[13:50:46.414 25/07/2074]',141.050,-139.487,71.502,-34.383,38.291,-46.105,70.720,-25.006,12.503,20.708,18.755,-23.834,-39.853,21.490,82.442,-33.602,6.252,21.099,-70.720,115.263,-91.819,-11.331,82.442
'[13:50:46.418 25/07/2074]',290.696,-298.510,52.357,-27.350,15.629,-17.582,39.853,-20.708,30.476,21.490,23.443,-9.768,-8.987,141.441,-35.556,-28.132,14.847,27.741,-51.575,48.840,-45.324,116.044,-35.556
'[13:50:46.422 25/07/2074]',130.501,-13.284,-169.573,48.059,-35.946,-5.079,-0.781,37.900,14.066,13.284,2.735,29.304,-30.867,114.481,-38.681,15.629,7.033,18.755,170.354,-114.090,-92.991,134.408,-38.681
'[13:50:46.426 25/07/2074]',-55.873,51.184,-14.847,-3.907,45.714,-61.734,-6.252,0.000,24.225,17.582,17.582,19.145,38.291,187.546,-165.275,19.536,10.549,13.675,15.629,-48.059,-8.987,226.618,-165.275
'[13:50:46.430 25/07/2074]',146.520,-19.536,-192.234,35.946,1.172,-22.662,-49.621,41.416,64.078,19.927,8.205,65.250,148.083,13.284,-50.012,47.668,23.053,8.205,193.016,-184.420,-5.079,81.270,-50.012
'[13:50:46.434 25/07/2074]',-202.784,447.375,-325.079,83.614,37.118,-89.866,-19.927,75.018,22.271,31.258,-25.788,68.767,49.621,-55.873,32.039,72.283,19.536,-1.172,325.861,-239.121,-73.455,6.252,32.039
'[13:50:46.438 25/07/2074]',-86.740,69.158,98.071,-44.542,71.111,-21.490,14.847,-29.304,-3.516,50.403,3.907,-26.569,-44.542,-4.689,111.355,-35.946,31.258,20.317,-97.289,98.462,-46.496,-23.053,111.355
'[13:50:46.441 25/07/2074]',-30.085,-57.436,150.037,-37.509,53.138,2.735,-2.344,-30.085,9.377,44.933,14.066,-21.880,7.814,-49.231,114.872,-24.225,27.741,21.880,-149.255,138.315,-28.523,-39.463,114.872
'[13:50:46.445 25/07/2074]',-157.851,59.389,111.355,-10.549,60.562,-67.595,21.099,-12.503,10.940,17.973,7.424,-10.549,-23.443,-5.470,63.687,-7.424,17.973,18.364,-110.574,132.454,-42.198,-1.954,63.687
'[13:50:46.449 25/07/2074]',-27.741,-134.799,198.486,-16.020,41.807,-32.430,20.317,-11.722,25.397,-5.079,25.397,-0.781,22.271,3.126,16.410,2.344,17.582,27.350,-197.705,256.313,-83.223,30.476,16.410
'[13:50:46.453 25/07/2074]',24.615,-3.126,-15.238,-1.563,44.542,-43.370,9.377,-7.424,49.621,18.755,13.284,19.536,116.044,-25.788,-21.490,33.993,23.443,22.271,16.020,44.542,-62.515,31.648,-21.490
'[13:50:46.457 25/07/2074]',188.327,-35.946,-192.234,33.211,-8.596,-64.860,26.178,39.463,54.310,-9.377,0.391,79.316,87.912,-11.331,-38.681,88.694,24.225,19.927,193.016,-165.275,21.880,-25.788,-38.681
'[13:50:46.461 25/07/2074]',293.431,-259.048,28.913,-16.410,-12.503,88.694,-15.629,-13.284,-13.284,34.383,8.596,12.894,-61.343,0.781,82.442,21.880,44.542,35.946,-28.132,-5.861,-35.556,-20.317,82.442
'[13:50:46.465 25/07/2074]',142.613,117.998,-175.433,-29.304,65.250,30.476,2.735,-42.979,32.430,35.946,35.946,-5.861,29.695,83.614,-16.020,3.516,44.151,35.556,176.215,-265.690,65.250,35.165,-16.020
'[13:50:46.469 25/07/2074]',156.288,-134.799,71.893,-22.662,35.165,84.786,-28.913,-20.317,12.112,26.178,18.364,23.834,16.410,-2.344,32.039,35.946,45.324,33.993,-71.111,-26.178,35.946,-23.053,32.039
'[13:50:46.473 25/07/2074]',-103.541,237.167,-30.085,-5.470,98.071,0.000,16.801,-18.364,12.503,6.642,22.271,9.768,58.608,-59.780,19.145,34.774,35.946,36.728,30.867,-90.647,19.927,-30.476,19.145
'[13:50:46.477 25/07/2074]',-66.813,325.861,-176.996,-19.145,126.203,-26.960,0.391,-36.728,78.535,-15.238,23.834,4.689,128.938,51.575,-131.282,42.979,26.569,31.258,177.778,-232.088,5.861,94.945,-131.282
'[13:50:46.480 25/07/2074]',30.867,-100.415,141.441,-36.728,51.966,28.913,-12.894,-33.993,23.834,2.344,2.344,-7.814,57.045,-33.993,-48.059,46.105,26.960,16.410,-140.659,48.449,-27.741,40.635,-48.059
'[13:50:46.484 25/07/2074]',-10.549,66.032,10.940,-22.662,86.349,-13.284,-5.861,-23.443,12.112,-14.457,9.768,-19.927,-50.794,-17.973,29.695,26.178,23.053,10.159,-10.159,-99.243,-19.927,-2.735,29.695
'[13:50:46.488 25/07/2074]',9.768,-13.675,66.032,-50.794,89.084,-14.066,-0.781,-62.906,47.277,-12.112,51.966,-65.641,-1.954,20.317,26.569,-23.053,21.880,16.801,-65.250,-17.582,-68.376,41.416,26.569
'[13:50:46.492 25/07/2074]',205.910,-386.032,183.248,8.596,25.006,-14.847,11.722,-9.377,80.879,-19.536,32.039,-16.020,33.993,-63.297,72.283,34.774,12.112,9.377,-182.466,141.832,-91.429,-26.960,72.283
'[13:50:46.496 25/07/2074]',-100.806,39.853,62.906,44.542,50.794,-46.105,19.927,20.317,13.284,-30.085,28.132,9.768,-31.648,-75.409,85.568,43.370,11.331,11.722,-62.125,67.204,-93.773,-53.919,85.568
'[13:50:46.500 25/07/2074]',106.667,-31.648,-36.337,2.344,40.635,7.424,26.569,-33.993,9.768,-10.940,31.258,-41.026,-53.919,36.728,3.516,2.735,20.708,25.397,37.118,-78.144,-66.032,57.045,3.516
'[13:50:46.504 25/07/2074]',125.031,-82.833,-28.132,4.298,-1.563,0.391,37.118,-18.364,23.443,-22.662,42.979,-19.927,-55.873,107.057,-58.608,31.648,20.708,26.960,28.913,-75.018,-69.548,104.713,-58.608
'[13:50:46.508 25/07/2074]',-61.343,0.391,66.422,26.960,0.391,48.449,-20.708,2.735,-17.192,-15.629,31.648,1.172,-78.535,-37.118,74.628,41.807,24.225,13.284,-65.641,-53.138,0.000,-6.642,74.628
'[13:50:46.512 25/07/2074]',-9.768,138.706,-96.508,-10.549,48.449,-0.781,18.755,-44.933,14.066,-15.238,62.515,-38.681,-17.973,88.694,-50.794,3.126,32.821,14.847,97.289,-182.857,12.112,96.508,-50.794
'[13:50:46.516 25/07/2074]',-26.178,-214.896,174.652,38.681,5.079,-35.556,3.516,-1.172,55.482,-32.430,46.886,8.596,11.331,-0.781,10.940,57.827,11.722,5.079,-173.871,160.586,-14.066,-11.722,10.940
'[13:50:46.520 25/07/2074]',-173.089,61.343,17.192,79.316,19.536,-51.184,-19.536,37.118,33.602,-35.556,20.317,48.840,45.324,-84.786,28.523,77.753,4.298,-0.781,-16.410,41.416,-26.960,-26.178,28.523
'[13:50:46.523 25/07/2074]',111.746,95.726,-259.438,66.422,-8.596,-42.589,58.999,7.424,1.172,-15.629,21.490,-0.391,2.344,12.112,-31.258,23.443,9.377,9.768,260.220,-109.792,-117.607,51.575,-31.258
'[13:50:46.527 25/07/2074]',234.823,-295.385,7.814,42.979,-43.761,10.159,3.907,19.927,30.867,-32.039,0.000,37.509,-4.689,6.252,-29.304,64.860,5.470,8.987,-7.033,55.482,-69.548,27.741,-29.304
'[13:50:46.531 25/07/2074]',-22.662,252.796,-267.643,25.397,5.079,-39.463,23.443,-1.563,44.933,-40.244,15.238,7.033,30.867,-126.593,111.746,10.549,-4.689,7.814,268.425,-283.663,-5.470,-70.720,111.746
'[13:50:46.535 25/07/2074]',138.706,-175.043,47.668,-39.072,-7.424,-12.503,47.277,-55.873,3.907,-12.503,-0.391,-28.132,-40.635,-35.946,52.747,-13.675,5.470,6.642,-46.886,4.298,-11.331,-12.503,52.747
'[13:50:46.539 25/07/2074]',-157.070,-107.839,235.604,-57.436,76.581,-10.159,-79.707,-74.628,20.708,-16.020,-9.768,-29.304,-49.621,-56.264,91.819,-20.708,-1.172,-3.907,-234.823,95.336,57.827,-39.853,91.819
'[13:50:46.543 25/07/2074]',-217.241,48.840,135.189,-45.324,76.581,-25.788,-58.999,-69.548,13.284,-10.159,-11.722,-35.165,-54.310,-25.397,69.548,-33.993,-7.814,-5.470,-134.408,35.165,26.569,-0.781,69.548
'[13:50:46.547 25/07/2074]',-151.600,35.556,108.230,-44.151,71.111,-32.039,-25.397,-64.469,5.079,-12.112,-11.331,-37.118,-47.277,26.178,0.391,-36.337,-4.298,-14.457,-107.448,57.436,12.503,37.118,0.391
'[13:50:46.551 25/07/2074]',-108.620,-11.331,97.680,-33.602,62.906,-35.946,-36.337,-45.324,34.774,-32.039,-5.470,-14.457,-1.563,5.079,-4.298,-17.192,-3.126,-17.192,-96.899,64.469,13.675,14.457,-4.298
'[13:50:46.555 25/07/2074]',38.291,-86.349,20.317,-22.662,9.768,-15.238,-13.675,-30.476,56.654,-36.337,0.000,-2.735,39.463,-12.894,3.126,-12.112,0.000,-12.112,-19.536,10.549,8.596,-3.516,3.126
'[13:50:46.559 25/07/2074]',261.001,-53.529,-238.339,7.033,-61.734,-6.252,62.125,-18.364,58.999,-31.258,-4.689,-12.894,55.482,-34.774,10.159,-20.708,5.079,-9.768,239.121,-159.414,-17.582,-28.132,10.159
'[13:50:46.563 25/07/2074]',243.810,-150.037,-197.705,45.714,-70.330,-17.192,24.615,4.689,76.972,-42.589,-13.675,5.470,58.217,-35.165,9.377,-5.861,11.331,-18.364,198.486,-66.813,-72.283,-1.954,9.377
'[13:50:46.566 25/07/2074]',401.661,-428.620,-53.529,50.794,-98.462,70.330,-24.615,21.880,39.463,-20.317,-32.430,19.145,26.569,-24.615,-3.516,7.814,19.927,-16.410,54.310,71.502,-96.899,17.582,-3.516
'[13:50:46.570 25/07/2074]',-28.523,137.924,-126.593,40.244,-38.681,41.416,16.801,3.126,23.834,-8.596,-23.834,-17.192,10.549,31.258,-42.589,-25.397,20.708,-10.159,127.375,12.112,-90.647,60.171,-42.589
'[13:50:46.574 25/07/2074]',-194.188,-17.192,147.692,14.066,5.861,-19.145,-34.383,-0.781,21.880,-25.397,-24.225,2.344,6.642,-3.126,-42.979,14.066,8.596,-27.741,-146.911,185.201,-27.741,27.741,-42.979
'[13:50:46.578 25/07/2074]',-90.647,-36.728,119.170,1.563,45.714,0.000,-46.886,-5.861,-0.391,-1.954,-26.960,-8.205,-15.629,-54.701,46.105,-14.457,15.238,-17.192,-118.388,129.328,-29.695,-14.847,46.105
'[13:50:46.582 25/07/2074]',-56.654,63.297,-33.602,9.377,21.880,-27.741,-10.549,0.000,3.516,19.145,-34.383,-13.675,-12.503,-81.661,80.879,-12.112,7.424,-14.066,34.383,-33.993,-16.410,-44.151,80.879
'[13:50:46.586 25/07/2074]',89.866,167.228,-362.198,26.178,-6.252,-82.442,21.490,-9.768,32.821,-10.940,-3.516,-28.913,9.768,31.258,-22.662,-29.695,0.391,-17.582,362.979,-319.219,25.788,13.284,-22.662
'[13:50:46.590 25/07/2074]',204.347,-103.150,-193.797,38.291,-48.840,-39.072,10.549,22.662,29.695,-24.615,0.000,9.768,40.635,22.662,-45.714,-3.126,3.126,-13.284,194.579,-118.779,-28.523,39.853,-45.714
'[13:50:46.594 25/07/2074]',-119.170,-86.349,131.673,-4.298,-49.621,-0.391,-20.708,-6.252,24.615,-18.364,6.252,-6.252,34.774,-2.344,-19.536,-6.642,-6.642,-10.940,-130.891,126.593,7.424,7.424,-19.536
'[13:50:46.598 25/07/2074]',-287.570,89.475,168.400,-39.463,-7.814,2.735,-19.145,-45.714,58.608,-59.389,48.840,-19.145,88.694,163.321,-208.645,-14.066,-1.563,-12.894,-167.619,142.222,55.873,153.553,-208.645
'[13:50:46.602 25/07/2074]',-179.341,71.502,81.270,-8.987,-44.151,42.979,-22.662,-11.331,-23.053,-11.722,-0.391,-15.238,-61.343,-72.283,107.839,-24.615,2.344,-8.205,-80.488,98.852,-26.960,-82.833,107.839
'[13:50:46.605 25/07/2074]',-11.722,-120.733,160.977,-37.118,4.689,37.900,-24.615,-27.350,-5.079,-3.516,11.331,-26.178,-58.217,-43.761,113.700,-34.774,9.768,-1.172,-160.195,144.957,-14.847,-81.270,113.700
'[13:50:46.609 25/07/2074]',143.004,-26.178,-77.363,-5.079,-16.410,32.430,29.695,-12.503,22.662,-4.298,32.039,-30.085,-20.708,0.781,86.740,-45.714,10.159,4.298,78.144,6.642,-85.958,-34.383,86.740
'[13:50:46.613 25/07/2074]',-12.503,87.521,-17.582,-16.801,46.886,3.907,-3.126,-7.424,6.642,7.033,27.350,-17.582,8.987,19.145,16.020,-19.536,10.940,-1.563,18.364,-6.252,-29.695,12.112,16.020
'[13:50:46.617 25/07/2074]',128.938,-201.221,84.786,20.708,-17.582,17.192,3.126,30.476,3.126,9.768,19.145,2.344,-1.172,-43.370,86.349,-5.470,3.516,-0.391,-84.005,121.905,-64.860,-33.211,86.349
'[13:50:46.621 25/07/2074]',-186.374,7.814,235.214,-3.126,57.827,30.085,-39.853,5.470,23.053,-12.894,32.821,-1.954,11.331,17.192,12.894,0.000,5.079,3.907,-234.432,144.567,30.476,46.886,12.894
'[13:50:46.625 25/07/2074]',-241.856,140.659,70.720,7.814,19.927,-3.126,-40.635,1.954,12.894,4.689,28.523,-16.801,19.536,1.954,23.053,-14.457,0.781,5.079,-69.939,-10.549,49.231,41.026,23.053
'[13:50:46.629 25/07/2074]',138.315,-38.291,-141.832,48.059,-45.324,7.814,0.000,44.151,-10.940,5.861,11.722,3.126,-71.893,-10.549,89.084,2.344,2.344,8.987,142.613,-148.083,-13.675,-13.675,89.084
'[13:50:46.633 25/07/2074]',56.654,42.198,-108.230,24.615,-41.807,13.284,9.768,33.602,29.695,-28.132,43.761,8.987,6.642,0.000,39.072,8.987,-2.344,21.880,109.011,-104.713,-22.271,7.033,39.072
'[13:50:46.637 25/07/2074]',-125.031,375.873,-245.763,0.391,25.788,-42.198,20.708,-0.781,44.542,12.112,51.575,-26.960,62.125,10.940,35.165,-26.960,0.391,23.443,246.545,-201.612,-52.747,22.271,35.165
'[13:50:46.641 25/07/2074]',235.995,-162.149,-100.806,49.231,-64.469,-8.987,33.602,61.734,-0.391,-6.252,23.443,25.788,-26.569,6.642,34.383,26.960,-9.377,15.238,101.587,-40.244,-57.045,-6.252,34.383
'[13:50:46.645 25/07/2074]',-185.201,75.409,134.017,12.112,0.781,20.708,-5.079,19.536,14.066,1.954,32.430,0.391,-1.954,-32.821,80.879,5.079,-2.344,23.443,-133.236,133.236,-10.159,-48.840,80.879
'[13:50:46.648 25/07/2074]',-307.888,175.043,114.090,3.126,32.039,-41.807,-4.689,0.391,33.211,-8.987,47.277,-17.192,6.642,87.131,-27.350,-12.894,-13.675,16.410,-113.309,91.038,17.582,69.158,-27.350
'[13:50:46.652 25/07/2074]',-3.516,-79.316,60.171,47.668,-20.708,-5.861,3.907,48.840,-28.132,-7.814,28.913,9.768,-73.065,69.158,-2.735,9.377,-18.364,12.894,-59.389,122.686,-69.939,60.171,-2.735
'[13:50:46.656 25/07/2074]',28.523,-73.455,29.304,50.794,-59.389,16.801,5.079,73.846,14.066,-33.993,34.383,55.482,16.020,32.430,-43.370,64.469,-9.768,22.662,-28.523,96.899,-50.794,20.708,-43.370
'[13:50:46.660 25/07/2074]',82.833,-124.640,60.171,-2.344,9.377,-13.675,-6.642,27.350,21.099,-3.907,39.463,21.099,42.589,101.587,-84.396,18.755,-9.377,24.225,-59.389,44.151,-6.252,102.759,-84.396
'[13:50:46.664 25/07/2074]',394.237,-439.951,22.271,25.006,-80.879,20.708,7.814,54.310,14.847,10.940,19.536,36.728,49.621,-38.681,54.310,17.582,-3.516,16.801,-21.490,35.556,-19.927,-24.615,54.310
'[13:50:46.668 25/07/2074]',303.199,-344.225,24.225,18.364,-55.873,21.099,-1.172,37.900,7.033,16.410,17.973,30.867,56.654,-25.397,23.053,17.973,3.126,22.271,-23.443,30.476,27.741,-41.416,23.053
'[13:50:46.672 25/07/2074]',-57.436,192.625,-147.302,12.112,18.364,-49.231,13.284,16.801,47.668,21.099,16.020,2.344,45.714,5.470,51.575,-14.066,-5.861,26.960,148.083,-193.016,66.032,-25.006,51.575
'[13:50:46.676 25/07/2074]',-123.858,166.056,-15.238,11.722,33.602,-7.814,0.391,12.112,-10.159,11.331,11.722,-5.861,-72.283,5.861,87.131,-12.894,-11.722,12.503,16.020,-32.821,-25.006,-4.298,87.131
'[13:50:46.680 25/07/2074]',-264.908,259.048,40.244,7.814,86.349,-10.159,-39.463,6.252,-1.172,-3.516,21.490,4.689,-44.542,28.913,26.960,9.768,-5.470,3.516,-39.463,-3.516,9.377,13.284,26.960
'[13:50:46.684 25/07/2074]',-303.980,329.768,-9.377,12.894,42.589,-6.642,-20.708,14.066,14.847,3.907,21.880,10.940,8.205,-10.159,26.960,27.350,0.391,8.205,10.159,-30.476,4.298,-12.112,26.960
'[13:50:46.688 25/07/2074]',-188.327,58.999,148.083,-8.205,42.589,3.907,-24.615,-11.331,-7.814,23.443,17.192,-12.112,-65.641,16.801,64.078,5.470,5.861,2.735,-147.302,97.289,1.954,-10.159,64.078
'[13:50:46.691 25/07/2074]',-101.978,-8.596,69.939,12.894,-12.894,-12.112,-1.954,0.000,-8.596,19.927,26.960,0.391,-13.284,17.973,6.252,27.741,10.159,10.159,-69.158,46.496,36.728,-11.722,6.252
'[13:50:46.695 25/07/2074]',137.924,-100.024,-35.165,37.509,-37.118,20.708,37.900,17.192,0.781,35.556,27.350,-1.172,-8.987,-17.973,76.190,14.066,18.364,26.960,35.946,5.861,-26.178,-36.728,76.190
'[13:50:46.699 25/07/2074]',-32.430,56.654,36.337,34.383,29.695,-7.033,44.151,27.350,1.954,27.741,26.569,-3.907,-30.867,-3.907,76.190,12.112,11.331,27.350,-35.556,27.741,-39.072,15.629,76.190
'[13:50:46.703 25/07/2074]',-21.490,-34.383,57.045,73.455,38.291,-25.788,-3.516,65.641,1.563,16.410,25.006,35.946,28.913,-32.039,20.317,62.515,7.424,22.662,-56.264,50.012,-26.178,32.430,20.317
'[13:50:46.707 25/07/2074]',145.348,-223.101,158.242,28.523,-19.536,95.336,0.391,32.821,21.880,4.689,54.701,3.126,40.244,39.072,-21.490,27.350,24.225,32.430,-157.460,143.004,-26.960,61.343,-21.490
'[13:50:46.711 25/07/2074]',24.615,-78.535,51.184,66.813,-48.059,46.496,-16.410,82.833,-5.861,-1.172,15.629,39.072,-11.331,-24.225,15.238,68.767,5.079,26.178,-50.403,33.602,-55.482,28.132,15.238
'[13:50:46.715 25/07/2074]',-63.297,-7.033,33.602,52.747,-48.840,-10.549,19.927,56.264,-13.675,-10.159,15.238,16.801,-48.840,46.886,-44.933,55.092,-7.033,23.443,-32.821,35.946,-49.231,62.125,-44.933
'[13:50:46.719 25/07/2074]',130.891,-205.910,133.236,23.834,-32.821,83.614,-0.781,32.039,-6.252,-6.642,34.774,1.172,-17.192,42.589,-20.708,17.973,9.377,36.728,-132.454,92.210,-16.801,52.357,-20.708
'[13:50:46.723 25/07/2074]',-65.641,148.474,-55.482,51.966,-58.608,41.416,28.913,66.422,7.033,-26.178,31.258,26.569,-1.563,28.132,-25.006,37.118,-0.781,38.681,56.264,-10.549,-103.150,67.204,-25.006
'[13:50:46.727 25/07/2074]',-13.284,157.070,-120.733,53.138,31.258,-46.496,35.556,53.529,2.735,-24.225,31.648,12.894,-3.907,71.502,-78.535,34.774,-11.331,28.523,121.514,-120.342,-12.112,86.349,-78.535
'[13:50:46.730 25/07/2074]',-37.900,30.476,72.283,16.410,40.244,0.000,18.364,22.271,20.317,9.768,39.463,-8.596,64.860,-58.608,48.449,6.642,8.596,29.695,-71.502,50.403,-8.987,-11.331,48.449
'[13:50:46.734 25/07/2074]',14.847,-59.780,1.563,8.205,-94.164,28.523,10.940,17.582,28.132,-18.755,30.867,-9.377,17.582,-56.654,53.919,16.410,-1.563,23.834,-0.781,11.722,-20.317,-50.403,53.919
'[13:50:46.738 25/07/2074]',-111.746,134.408,-20.708,-7.814,93.382,-69.158,-10.940,-18.755,1.563,11.722,19.536,-50.794,-10.549,-86.740,113.309,-31.648,-5.470,17.192,21.490,-62.125,10.159,-37.118,113.309
'[13:50:46.742 25/07/2074]',-144.567,-17.192,154.725,-28.523,43.761,-13.675,-27.350,-37.509,6.252,-7.033,21.880,-41.807,-42.589,-13.675,52.747,-15.629,-5.470,10.940,-153.944,129.719,-10.159,1.954,52.747
'[13:50:46.746 25/07/2074]',-66.032,112.527,-42.589,-24.615,72.283,-46.496,-12.503,-33.993,23.443,-21.099,40.244,-38.681,-3.516,52.747,-28.132,-16.020,1.172,12.894,43.370,-41.807,-17.192,69.158,-28.132
'[13:50:46.750 25/07/2074]',-54.701,200.830,-187.937,40.635,77.363,-67.204,-29.695,19.145,-3.516,-17.582,8.205,6.252,-58.999,73.455,-44.151,23.443,-2.735,10.159,188.718,-175.433,-3.516,73.846,-44.151
'[13:50:46.754 25/07/2074]',57.436,-153.944,8.596,22.271,-15.238,-53.138,3.516,0.000,8.987,-17.192,7.814,1.172,-5.079,51.575,-75.018,29.304,3.516,15.629,-7.814,56.654,-9.768,44.933,-75.018
'[13:50:46.758 25/07/2074]',191.062,-245.763,20.317,-4.689,-7.424,0.391,-23.443,-8.205,35.165,11.331,-17.973,14.066,83.614,-80.098,11.722,28.132,25.788,19.927,-19.536,32.821,-9.377,-38.681,11.722
'[13:50:46.762 25/07/2074]',107.057,-202.002,110.965,-31.258,25.006,15.629,-23.443,-32.821,-14.457,1.172,-21.099,-20.708,-39.072,-25.397,18.755,-9.768,18.364,14.847,-110.183,94.945,-13.675,-13.675,18.755
'[13:50:46.766 25/07/2074]',128.156,-235.604,208.254,-85.568,59.389,41.416,-18.364,-67.204,-6.252,16.410,-12.894,-50.403,-26.960,-45.714,75.018,-55.092,19.927,14.847,-207.473,178.950,-27.741,-45.714,75.018
'[13:50:46.770 25/07/2074]',305.543,-249.670,53.138,-55.873,44.151,28.523,10.549,-29.695,-1.563,4.298,-15.238,-13.675,-10.549,40.244,-32.430,-23.443,14.066,14.066,-52.357,103.150,-64.860,29.304,-32.430
'[13:50:46.773 25/07/2074]',225.836,-73.065,3.126,-54.701,94.164,26.960,1.172,-21.880,-20.708,-11.331,12.894,-13.675,-50.794,71.893,-7.814,-46.105,11.722,11.722,-2.344,16.801,-26.960,40.244,-7.814
'[13:50:46.777 25/07/2074]',9.768,253.968,-184.420,-26.178,64.469,-21.099,0.781,7.424,-18.364,23.053,-2.344,7.814,-53.919,73.065,17.973,-27.350,2.735,16.020,185.201,-166.447,-8.596,18.364,17.973
'[13:50:46.781 25/07/2074]',164.493,-109.792,-23.834,30.867,-3.126,-26.569,37.900,53.138,30.085,9.768,16.801,60.562,100.806,28.913,-28.913,17.973,4.298,14.457,24.615,118.779,-31.648,-5.861,-28.913
'[13:50:46.785 25/07/2074]',280.928,-341.099,184.029,2.344,54.701,27.741,1.954,40.244,31.648,21.099,36.728,53.529,107.448,62.906,-48.840,21.880,23.834,21.099,-183.248,280.537,-17.582,21.880,-48.840
'[13:50:46.789 25/07/2074]',-187.546,255.140,-33.211,55.092,97.680,-91.429,5.470,76.581,-22.271,34.774,0.000,53.138,-42.979,-31.258,124.640,16.801,0.000,14.457,33.993,44.151,-9.768,-79.707,124.640
'[13:50:46.793 25/07/2074]',36.728,22.662,64.469,45.324,101.978,-19.536,19.927,66.422,-20.708,60.952,-0.391,46.886,8.596,-31.648,96.508,13.284,21.490,22.662,-63.687,187.937,-31.648,-81.661,96.508
'[13:50:46.797 25/07/2074]',477.851,-187.155,-97.289,13.675,143.004,11.331,11.331,39.072,-40.635,59.389,4.689,10.940,-51.966,28.913,89.475,-30.476,26.569,19.927,98.071,-64.860,23.443,-33.602,89.475
'[13:50:46.801 25/07/2074]',25.397,347.741,-216.850,25.788,143.004,7.033,-31.648,63.687,-26.569,45.324,6.642,36.728,-23.443,26.178,62.906,-2.735,16.801,12.894,217.631,-214.505,22.662,-20.317,62.906
'[13:50:46.805 25/07/2074]',90.256,92.210,-26.569,51.184,123.468,29.695,-20.708,73.846,17.192,37.118,15.238,65.250,118.388,-6.642,-1.172,25.397,26.178,14.457,27.350,20.317,55.092,-47.277,-1.172
'[13:50:46.809 25/07/2074]',427.448,-307.106,17.192,6.642,38.681,69.548,13.284,21.490,60.562,5.861,52.357,28.523,157.851,138.706,-136.361,-11.722,29.304,11.331,-16.410,131.282,-3.126,78.144,-136.361
'[13:50:46.813 25/07/2074]',-187.155,160.586,45.324,98.462,87.521,-27.741,-64.078,122.686,43.761,-41.807,-7.424,144.567,162.540,-74.237,-81.661,132.454,10.159,-24.225,-44.542,101.978,37.900,-34.383,-81.661
'[13:50:46.816 25/07/2074]',-212.161,306.325,-2.344,14.847,166.838,-34.774,-26.569,0.781,-47.668,33.211,-50.794,28.132,-61.343,-21.490,39.463,7.814,38.681,-14.066,3.126,80.098,15.238,-82.442,39.463
'[13:50:46.820 25/07/2074]',209.426,17.973,-82.442,-24.225,157.070,28.523,-24.225,-41.026,-79.707,41.026,-53.138,-10.159,-89.866,16.410,-2.344,-26.178,47.668,-21.880,83.223,-48.059,32.430,-14.066,-2.344
'[13:50:46.824 25/07/2074]',153.944,26.569,-35.556,-29.304,146.129,64.469,-58.608,-37.900,-64.469,29.695,-55.482,1.954,-67.595,-39.463,36.337,-16.410,49.621,-28.523,36.337,-24.615,50.403,-73.455,36.337
'[13:50:46.828 25/07/2074]',253.578,32.821,-109.011,-51.966,118.779,72.674,0.000,-66.813,-57.436,41.416,-44.151,-33.602,-56.264,26.178,-3.126,-60.171,53.529,-19.536,109.792,-67.595,44.151,-39.463,-3.126
'[13:50:46.832 25/07/2074]',213.333,-117.607,-2.735,-39.853,67.204,30.867,0.000,-46.496,-7.424,-1.954,-31.648,-5.470,43.761,10.940,-72.674,-30.476,30.085,-31.258,3.516,-8.987,94.945,-3.516,-72.674
'[13:50:46.836 25/07/2074]',68.767,171.917,-212.552,-32.039,63.297,-15.238,-15.629,-35.946,8.987,-27.741,-33.602,0.391,28.523,-33.993,-14.066,-32.821,14.066,-39.072,213.333,-161.368,53.919,-75.409,-14.066
'[13:50:46.840 25/07/2074]',7.424,143.394,-34.383,-37.900,163.321,-18.364,-30.867,-35.165,-5.079,-4.298,-51.966,1.172,11.331,-52.357,3.126,-23.053,22.271,-36.728,35.165,10.940,38.681,-92.210,3.126
'[13:50:46.844 25/07/2074]',32.430,42.198,43.370,-31.258,227.399,-14.066,-87.912,-37.900,-12.503,4.298,-69.939,0.000,-16.020,-40.635,-6.252,-14.847,17.582,-40.635,-42.589,58.999,37.509,-56.654,-6.252
'[13:50:46.848 25/07/2074]',464.957,-153.553,-168.791,-22.271,139.487,45.714,-33.993,-32.821,-18.755,8.987,-51.184,-21.099,5.079,-45.324,2.735,-45.324,20.317,-42.589,169.573,-57.827,-30.867,-55.092,2.735
'[13:50:46.852 25/07/2074]',231.306,-113.309,103.541,-53.138,188.718,72.674,-53.138,-41.026,-8.596,21.099,-32.039,-21.880,43.761,-3.516,-40.635,-39.853,33.211,-36.728,-102.759,158.242,7.033,-37.900,-40.635
'[13:50:46.855 25/07/2074]',48.059,-82.051,57.827,-25.788,55.482,10.159,-49.231,-19.536,-9.768,-9.768,-37.118,-17.582,3.516,25.397,-80.879,-23.443,8.205,-36.337,-57.045,99.634,4.298,18.755,-80.879
'[13:50:46.859 25/07/2074]',11.722,-55.873,-9.768,-23.834,13.284,-21.880,-51.575,-17.973,0.391,-16.801,-21.880,-21.099,48.059,-67.204,-11.331,-29.304,-4.689,-38.291,10.549,12.503,29.304,-50.012,-11.331
'[13:50:46.863 25/07/2074]',-189.890,116.044,73.846,-50.012,52.747,-12.112,-66.813,-23.053,-5.079,-19.536,-14.066,-17.582,-15.629,27.350,-57.045,-11.331,5.861,-27.350,-73.065,84.396,0.391,-15.238,-57.045
'[13:50:46.867 25/07/2074]',-196.923,114.090,36.337,2.344,55.482,-26.960,-96.508,24.615,-0.391,-2.735,-45.324,14.457,13.675,-52.747,-15.629,20.317,3.516,-20.317,-35.556,44.933,-14.066,-30.476,-15.629
'[13:50:46.871 25/07/2074]',147.692,-75.409,-47.277,-4.298,40.635,1.563,-37.509,14.457,0.781,4.689,-42.198,-3.126,10.940,-28.523,-21.099,-0.781,13.675,-4.298,48.059,2.344,-50.403,-17.973,-21.099
'[13:50:46.875 25/07/2074]',59.780,40.635,12.112,-28.523,54.701,33.993,3.516,-8.205,-13.675,17.973,-25.397,-33.602,-17.582,69.548,-73.455,-32.821,25.006,2.735,-11.331,70.330,-80.879,59.389,-73.455
'[13:50:46.879 25/07/2074]',-94.164,174.261,25.397,-18.364,52.357,42.979,-4.298,-4.689,6.642,7.033,-10.159,-34.383,4.298,123.077,-119.951,-38.291,25.788,2.735,-24.615,57.827,-43.370,102.369,-119.951
'[13:50:46.883 25/07/2074]',227.790,-265.690,71.111,23.834,-57.045,43.761,36.337,33.602,-29.304,7.814,-30.085,-10.549,-35.165,-60.952,48.059,-15.238,10.549,7.424,-70.330,95.336,-38.291,-51.966,48.059
'[13:50:46.887 25/07/2074]',110.183,-170.745,115.653,5.079,-70.720,56.654,61.343,13.284,-5.470,-3.516,-4.298,-22.271,0.391,-61.734,52.747,-27.350,14.847,16.020,-114.872,208.645,-92.210,-75.018,52.747
'[13:50:46.891 25/07/2074]',260.220,-339.145,178.950,3.907,-26.960,100.024,4.689,26.178,6.252,3.907,-2.344,3.126,39.853,-82.051,52.747,0.391,17.973,17.973,-178.168,219.194,-41.807,-113.700,52.747
'[13:50:46.895 25/07/2074]',272.332,-132.454,-116.825,10.940,-43.761,21.099,34.383,20.708,-11.331,0.781,-26.960,-14.066,-14.457,-95.336,73.846,-16.410,2.344,15.238,117.607,-89.475,-43.761,-94.945,73.846
'[13:50:46.898 25/07/2074]',169.963,98.071,-244.591,5.861,-28.913,-29.695,73.455,14.066,35.165,5.079,-9.377,-22.271,78.144,-14.847,-18.364,-35.165,-0.391,14.066,245.372,-216.850,-19.927,-10.159,-18.364
'[13:50:46.902 25/07/2074]',-67.595,277.021,-156.679,20.317,41.026,10.159,-14.457,35.165,14.066,-16.020,-14.847,17.192,15.238,81.270,-104.322,6.642,-3.516,5.079,157.460,-157.460,-14.066,60.562,-104.322
'[13:50:46.906 25/07/2074]',-47.277,219.585,-142.222,28.523,5.861,8.596,5.470,37.118,-20.708,2.344,-35.165,10.549,-54.310,2.344,18.755,-10.159,-1.563,8.596,143.004,-171.526,-0.391,-17.582,18.755
'[13:50:46.910 25/07/2074]',-23.443,-36.728,130.501,17.192,-10.549,65.641,-10.159,42.198,4.689,-0.781,-25.397,37.900,21.490,-76.581,55.482,15.238,5.861,21.880,-129.719,67.204,23.834,-81.661,55.482
'[13:50:46.914 25/07/2074]',43.761,-297.729,353.211,17.192,-36.728,100.806,-0.391,53.138,24.225,-26.960,-3.516,57.436,55.092,-80.488,41.026,35.165,7.814,22.662,-352.430,366.496,-54.310,-94.945,41.026
'[13:50:46.918 25/07/2074]',66.813,-142.222,157.070,-16.020,-37.509,55.092,28.523,18.364,-14.847,13.284,-25.006,19.145,39.072,-89.866,42.589,0.781,13.284,21.099,-156.288,139.096,-26.178,-90.256,42.589
'[13:50:46.922 25/07/2074]',-44.542,85.568,-44.933,4.689,-64.469,-11.722,52.357,24.615,-39.463,12.503,-39.463,14.457,13.675,-24.225,-42.198,1.172,4.298,15.629,45.714,-104.713,8.205,16.020,-42.198
'[13:50:46.926 25/07/2074]',-205.128,9.768,205.910,0.781,-68.376,0.391,56.264,23.834,-15.629,25.397,-32.039,17.582,55.092,-56.264,-1.954,-1.563,7.424,11.331,-205.128,169.573,-29.304,-24.615,-1.954
'[13:50:46.930 25/07/2074]',-44.151,-69.158,145.348,-18.755,-72.283,68.767,17.582,-1.563,-12.503,20.317,-35.556,3.907,27.741,-10.940,-28.132,-12.112,21.880,8.205,-144.567,72.283,2.735,-4.298,-28.132
'[13:50:46.934 25/07/2074]',-154.725,36.337,143.785,6.252,-32.821,53.529,-0.781,12.894,-8.596,18.755,-34.774,17.192,35.946,9.377,-51.966,-0.781,21.099,8.987,-143.004,75.409,15.629,8.205,-51.966
'[13:50:46.938 25/07/2074]',28.523,-153.553,217.241,16.020,-80.488,123.468,35.165,29.304,50.403,6.252,-9.768,22.662,109.402,-78.144,48.840,-10.159,28.132,21.880,-216.459,214.505,-24.225,-107.448,48.840
'[13:50:46.941 25/07/2074]',-31.258,184.811,-114.872,45.324,-17.582,1.954,53.919,44.933,30.085,-39.072,-3.516,33.993,69.939,-17.973,-41.807,11.331,8.596,5.079,115.653,-143.394,26.178,-37.509,-41.807
'[13:50:46.945 25/07/2074]',199.658,126.984,-295.775,68.376,-24.225,-4.298,58.608,68.376,4.298,-26.569,-30.867,48.059,58.999,-31.258,-59.780,26.569,8.205,-1.954,296.557,-343.443,39.463,-11.722,-59.780
'[13:50:46.949 25/07/2074]',-78.144,114.872,-46.496,55.482,-79.707,-21.490,87.521,59.389,13.675,-37.509,-28.913,37.118,45.324,-55.873,-17.192,12.503,1.954,2.735,47.277,-112.918,50.403,-39.853,-17.192
'[13:50:46.953 25/07/2074]',-101.197,189.109,-131.673,45.714,-69.548,-49.231,79.707,40.244,53.138,-70.720,-6.642,34.383,80.488,81.270,-163.321,10.940,-2.735,1.563,132.454,-172.698,52.747,77.753,-163.321
'[13:50:46.957 25/07/2074]',-92.991,-43.370,102.759,22.662,-81.270,0.781,40.244,27.741,44.151,-16.020,-50.012,32.039,133.626,-94.945,-42.589,14.066,6.252,5.861,-101.978,94.164,7.033,-46.496,-42.589
'[13:50:46.961 25/07/2074]',-235.604,119.951,59.389,30.476,-71.502,-67.595,87.131,26.569,15.238,-17.192,-46.105,1.954,57.436,-76.581,16.410,-43.761,-6.252,17.192,-58.608,87.912,-21.880,-45.324,16.410
'[13:50:46.965 25/07/2074]',-128.938,-63.297,200.830,-9.768,-37.118,-10.159,48.059,-3.126,-5.079,-14.457,-39.463,-17.192,9.768,-71.893,39.072,-54.701,-9.377,17.582,-200.049,127.375,18.364,-35.946,39.072
'[13:50:46.969 25/07/2074]',-56.654,-73.846,108.230,10.159,-52.747,-38.681,60.171,19.536,11.722,-24.225,-33.602,0.781,82.442,-183.248,95.336,-41.026,-15.629,19.145,-107.448,43.761,37.118,-114.090,95.336
'[13:50:46.973 25/07/2074]',162.540,-331.331,171.526,5.470,-102.759,14.457,65.641,30.085,7.814,-41.416,-17.973,12.894,45.324,-54.701,5.470,-34.383,-17.582,37.900,-170.745,76.190,43.370,-14.066,5.470
'[13:50:46.977 25/07/2074]',86.349,-206.300,160.977,4.298,-78.926,33.211,58.608,32.430,38.291,-70.720,2.735,23.834,53.138,26.960,-59.780,-25.006,-22.271,46.105,-160.195,107.057,10.549,34.774,-59.780
'[13:50:46.980 25/07/2074]',-8.205,-47.668,29.304,23.443,-115.653,-8.205,66.422,53.919,56.654,-70.330,4.689,43.761,135.971,-29.304,-54.310,-16.020,-34.383,46.105,-28.523,29.304,0.781,-0.781,-54.310
'[13:50:46.984 25/07/2074]',-211.380,42.198,134.799,-3.126,-38.681,-71.502,41.807,30.867,27.350,-30.085,-19.536,19.536,73.065,-10.940,-15.629,-48.840,-35.556,47.668,-134.017,102.759,13.284,-6.642,-15.629
'[13:50:46.988 25/07/2074]',-321.563,183.248,136.752,10.549,-29.304,-49.621,46.886,41.807,-16.410,-23.053,-33.602,14.847,3.126,27.741,-25.006,-64.078,-41.416,47.277,-135.971,128.156,-12.503,30.867,-25.006
'[13:50:46.992 25/07/2074]',-169.963,57.827,87.131,-11.722,-52.747,-86.740,77.753,25.397,14.066,-21.490,-20.317,8.205,91.038,-64.078,29.695,-76.972,-44.933,41.026,-86.349,31.648,48.059,-34.383,29.695
'[13:50:46.996 25/07/2074]',5.470,-185.201,184.811,-40.635,-106.667,-28.913,88.694,10.549,17.582,-16.410,-15.629,2.344,102.759,-28.913,4.298,-91.819,-33.602,46.496,-184.029,121.514,46.496,-8.205,4.298
'[13:50:47.000 25/07/2074]',115.263,-86.740,-0.781,-4.689,-94.945,-22.662,91.038,48.059,-16.801,-33.602,-23.053,38.291,37.509,78.144,-90.256,-60.562,-33.602,41.807,1.563,-51.575,29.304,98.071,-90.256
'[13:50:47.004 25/07/2074]',116.825,-41.416,-58.217,-29.304,-146.520,-18.755,123.468,28.523,39.072,-51.966,20.317,29.695,108.230,1.172,10.159,-82.833,-31.258,47.668,58.999,-56.264,32.039,-52.357,10.159
'[13:50:47.008 25/07/2074]',-133.236,60.171,110.183,-33.211,-79.316,-2.344,56.264,29.304,-21.099,16.020,-39.853,33.993,26.960,-35.946,70.330,-72.283,-14.847,38.681,-109.402,56.654,25.397,-62.125,70.330
'[13:50:47.012 25/07/2074]',-274.676,119.170,195.751,-50.403,-7.033,-2.735,-3.516,2.735,2.735,5.079,-37.900,26.178,33.211,-3.516,45.714,-78.144,-13.675,26.960,-194.969,127.375,26.569,-32.821,45.714
'[13:50:47.016 25/07/2074]',-288.742,210.989,99.243,-37.509,-73.455,-18.755,46.886,28.913,27.741,-5.861,-39.072,51.575,72.283,9.768,5.079,-52.747,-18.755,29.695,-98.462,74.628,10.549,-39.463,5.079
'[13:50:47.020 25/07/2074]',-92.210,-21.099,155.897,-76.190,-60.171,23.443,12.894,-11.331,1.172,0.781,-46.886,26.569,78.144,-69.158,36.337,-63.687,-8.596,26.178,-155.116,37.900,39.072,-34.774,36.337
'[13:50:47.023 25/07/2074]',-100.415,51.966,29.304,-39.463,-67.595,-31.648,32.039,7.424,-21.880,-9.377,-55.092,37.509,24.615,42.589,-83.614,-33.602,-11.331,21.099,-28.523,-30.085,1.172,64.469,-83.614
'[13:50:47.027 25/07/2074]',-36.337,-1.172,-8.596,-22.662,-103.541,-28.132,35.946,26.178,-2.735,-14.457,-53.919,59.780,65.641,-30.085,-25.006,-21.490,-12.894,25.397,9.377,-69.939,21.880,-14.457,-25.006
'[13:50:47.031 25/07/2074]',-66.032,-37.509,109.402,-59.389,-80.488,-3.126,30.867,-0.781,-3.516,1.563,-51.966,44.542,42.589,-55.873,28.913,-25.006,0.391,23.834,-108.620,-24.225,35.946,-39.463,28.913
'[13:50:47.035 25/07/2074]',-85.568,-110.574,195.751,-52.357,-46.105,-23.834,25.397,-8.596,-31.258,10.940,-62.906,33.602,-33.211,-11.331,19.536,-23.443,6.642,17.973,-194.969,95.336,7.424,-21.880,19.536
'[13:50:47.039 25/07/2074]',-147.302,41.807,112.918,-60.952,-67.204,-28.523,56.264,-13.675,12.503,9.768,-59.389,40.244,40.244,-46.105,25.788,-15.238,8.987,26.960,-112.137,33.602,23.053,-69.158,25.788
'[13:50:47.043 25/07/2074]',32.039,-50.403,63.687,-69.158,-68.376,-11.722,82.051,-25.397,0.391,23.443,-53.529,13.284,18.755,-21.880,14.066,-27.350,6.252,30.476,-62.906,-37.900,12.112,-16.410,14.066
'[13:50:47.047 25/07/2074]',-49.231,-34.774,152.772,-44.151,0.000,-20.708,55.873,-12.112,-13.284,3.907,-48.449,29.304,33.211,-44.933,-26.960,9.768,6.252,19.536,-151.990,61.734,26.178,-12.894,-26.960
'[13:50:47.051 25/07/2074]',-164.884,64.078,115.263,-41.416,-16.410,-58.608,63.297,-14.847,-14.847,21.099,-48.840,17.192,41.026,-17.582,-50.794,1.954,1.172,18.364,-114.481,40.635,7.033,23.053,-50.794
'[13:50:47.055 25/07/2074]',-169.182,33.602,133.626,-16.801,-39.853,-3.907,20.317,4.689,19.536,-3.126,-48.449,42.198,33.602,-21.490,-31.648,29.304,0.781,20.317,-132.845,69.158,-19.927,12.112,-31.648
'[13:50:47.059 25/07/2074]',12.503,-71.893,78.535,-33.211,-85.177,40.244,42.198,-10.940,15.238,-36.337,-3.907,26.960,26.569,39.072,-91.038,26.569,4.689,15.629,-77.753,12.112,-17.192,56.654,-91.038
'[13:50:47.063 25/07/2074]',186.374,-244.200,14.847,-20.708,-132.454,0.391,83.223,-13.675,4.689,0.781,-27.741,0.000,-16.801,2.735,-12.894,3.907,8.205,17.192,-14.066,-1.172,-37.118,-11.722,-12.894
'[13:50:47.066 25/07/2074]',181.294,-257.875,94.164,5.079,-121.123,28.913,111.746,3.126,16.801,-13.675,-17.973,0.391,8.596,-43.761,5.470,13.284,11.722,23.053,-93.382,184.420,-113.309,-46.886,5.470
'[13:50:47.070 25/07/2074]',214.896,-126.984,-64.469,30.476,-66.422,14.847,74.628,29.304,25.006,-5.470,-20.317,28.913,62.515,-21.490,-68.767,55.873,12.112,21.099,65.250,-52.747,-39.463,13.284,-68.767
'[13:50:47.074 25/07/2074]',80.098,-118.388,-11.331,65.641,-74.237,-44.542,92.210,41.026,-16.410,0.000,-39.463,18.755,12.503,-80.879,-18.755,47.668,9.768,7.033,12.112,41.807,-50.012,-24.615,-18.755
'[13:50:47.078 25/07/2074]',-284.444,263.736,28.132,8.596,-20.317,-39.463,66.032,8.987,-25.006,7.033,-35.556,-1.563,-67.595,19.927,-32.821,23.443,19.536,14.457,-27.350,35.946,-85.958,38.291,-32.821
'[13:50:47.082 25/07/2074]',-176.606,350.476,-196.142,13.675,-21.099,-27.350,25.788,14.066,1.172,8.596,-28.132,15.629,-10.549,-11.722,-26.960,47.277,25.397,10.159,196.923,-343.443,48.840,35.165,-26.960
'[13:50:47.086 25/07/2074]',173.089,-45.714,-143.785,-23.053,-139.878,42.198,69.158,-11.722,-28.132,5.470,-12.503,-4.689,-15.629,-1.954,-31.648,7.814,36.728,17.582,144.567,-217.241,13.675,8.987,-31.648
'[13:50:47.090 25/07/2074]',-169.963,92.991,75.018,-41.807,-19.536,-5.470,11.331,-28.913,-44.933,7.033,-26.960,-4.689,-69.158,-66.813,49.621,15.629,32.821,16.410,-74.237,-47.277,10.940,-44.542,49.621
'[13:50:47.094 25/07/2074]',-111.746,-189.109,352.039,-58.217,10.940,49.621,-23.053,-44.933,-13.675,-1.172,-4.298,3.907,-5.861,-67.595,31.648,25.397,35.165,18.364,-351.258,148.474,70.330,-22.662,31.648
'[13:50:47.098 25/07/2074]',61.343,-328.596,300.855,-29.304,-21.880,46.496,1.954,-22.271,28.913,-57.045,26.960,37.118,101.978,16.410,-147.692,64.469,22.662,11.722,-300.073,186.764,71.111,55.482,-147.692
'[13:50:47.102 25/07/2074]',-39.463,-48.840,116.435,-23.443,-13.284,19.145,29.304,-31.648,0.391,-22.271,-3.516,0.391,-16.020,-40.244,24.615,6.252,19.145,9.768,-115.653,31.648,22.662,-21.099,24.615
'[13:50:47.105 25/07/2074]',-311.404,300.464,84.786,-72.674,62.125,-18.364,29.304,-72.283,19.145,-15.238,32.430,-30.085,20.708,7.814,7.424,-30.476,20.317,19.927,-84.005,-57.045,55.482,19.927,7.424
'[13:50:47.109 25/07/2074]',-147.692,319.609,-113.309,-44.542,8.205,11.722,36.337,-44.933,75.018,1.172,18.364,2.735,168.400,-66.422,0.000,-2.735,19.927,20.708,114.090,-178.559,60.562,-51.966,0.000
'[13:50:47.113 25/07/2074]',-73.846,436.825,-323.516,-42.589,5.079,-7.424,59.780,-61.343,-41.416,10.549,-22.271,-32.430,-74.237,-40.635,59.389,-30.476,16.020,9.377,324.298,-311.013,-49.231,-35.165,59.389
'[13:50:47.117 25/07/2074]',-274.286,211.770,118.779,-97.680,12.112,36.728,-1.954,-88.694,-35.165,21.099,-14.457,-27.350,-18.755,-53.919,37.509,-21.880,27.741,8.205,-117.998,64.469,-15.238,-37.118,37.509
'[13:50:47.121 25/07/2074]',26.960,-137.924,130.891,-67.985,-48.059,57.827,3.516,-61.734,23.834,-11.331,-15.629,15.629,90.647,-10.940,-92.601,25.006,22.662,7.814,-130.110,96.899,18.755,30.476,-92.601
'[13:50:47.125 25/07/2074]',265.690,-255.922,-54.701,-8.596,-92.991,28.523,41.026,-30.867,-16.410,-29.304,-27.350,20.317,-23.834,13.675,-81.661,36.728,15.238,-3.126,55.482,11.722,-34.774,25.397,-81.661
'[13:50:47.129 25/07/2074]',-143.394,-56.654,173.089,-82.833,-44.933,18.364,-9.768,-73.846,-12.112,5.861,-23.834,-13.675,1.563,-102.369,85.568,-30.085,20.708,0.391,-172.308,81.661,32.039,-45.714,85.568
'[13:50:47.133 25/07/2074]',-303.199,212.161,37.509,-52.357,2.735,-62.906,6.252,-51.575,31.258,-3.907,-10.549,4.689,46.886,-55.092,45.714,-16.410,8.987,5.861,-36.728,-17.582,35.946,-24.225,45.714
'[13:50:47.137 25/07/2074]',-226.227,164.103,-15.629,-35.946,-43.370,-8.596,-23.053,-37.900,-0.391,-7.814,-20.708,12.503,5.861,-36.337,12.894,0.781,3.126,2.344,16.410,-36.728,-2.735,5.861,12.894
'[13:50:47.141 25/07/2074]',-259.048,309.451,-105.495,-71.893,7.814,-28.913,-35.556,-69.939,-22.662,12.503,-16.020,-10.549,-12.503,-55.092,55.092,-25.397,7.814,-1.172,106.276,-191.844,66.032,-37.900,55.092
'[13:50:47.145 25/07/2074]',-68.767,91.038,-90.647,-52.357,-68.767,14.066,-21.490,-43.761,3.907,4.689,-18.364,8.596,42.589,15.238,-53.529,-4.689,3.907,5.470,91.429,-132.454,28.132,54.701,-53.529
'[13:50:47.148 25/07/2074]',41.416,-106.276,-24.225,-48.059,-84.786,-10.549,-1.172,-39.853,7.814,-4.298,-19.536,13.675,53.138,-61.734,-16.801,21.880,-5.470,0.391,25.006,-62.515,52.357,-32.821,-16.801
'[13:50:47.152 25/07/2074]',-55.873,-16.801,-18.755,-60.171,-49.231,-18.755,-18.755,-64.469,-8.987,7.814,-25.006,-14.457,12.894,-97.289,53.529,-12.112,-2.344,0.391,19.536,-57.436,54.701,-77.363,53.529
'[13:50:47.156 25/07/2074]',-145.739,35.165,89.475,-111.746,-8.205,-27.350,-0.391,-95.726,20.317,21.099,-10.159,-38.291,67.985,-37.900,-1.563,-34.774,3.516,9.768,-88.694,63.297,35.165,-40.635,-1.563
'[13:50:47.160 25/07/2074]',-94.164,-59.780,157.070,-100.024,30.867,14.847,-52.747,-89.475,34.774,0.000,-3.907,-18.755,80.879,5.079,-70.330,-5.079,1.563,5.470,-156.288,74.237,56.654,36.337,-70.330
'[13:50:47.164 25/07/2074]',73.846,-37.509,-51.575,-78.144,14.066,28.132,-42.979,-92.210,-0.781,25.006,-15.238,-32.821,61.734,28.523,-93.382,-21.099,8.596,0.000,52.357,-74.628,30.867,65.250,-93.382
'[13:50:47.168 25/07/2074]',51.966,-67.985,25.397,-107.057,14.457,28.132,-25.788,-114.090,35.556,12.112,3.516,-57.045,67.595,42.979,-67.595,-48.840,10.549,-1.563,-24.615,32.430,-34.383,75.409,-67.595
'[13:50:47.172 25/07/2074]',12.112,-53.919,-18.755,-39.072,1.563,9.377,-55.092,-56.264,-1.563,7.033,-13.675,-6.252,43.370,9.768,-75.800,6.642,-3.516,-9.377,19.536,-17.192,-23.443,73.846,-75.800
'[13:50:47.176 25/07/2074]',44.151,91.819,-268.816,-38.291,-65.641,-19.927,-12.503,-70.330,-3.516,-6.642,-24.225,-24.615,1.954,-107.448,46.496,-3.516,-5.861,-8.596,269.597,-227.399,-13.284,-70.720,46.496
'[13:50:47.180 25/07/2074]',-82.442,69.548,-92.991,-4.689,-39.072,-71.111,37.118,-37.118,-10.940,-10.549,-25.788,-14.066,-32.430,-49.231,17.973,0.391,-7.814,-18.364,93.773,76.581,-115.263,-44.542,17.973
'[13:50:47.184 25/07/2074]',137.534,-196.923,50.794,-58.999,11.331,41.807,-55.482,-64.860,-27.741,0.781,-29.695,-12.503,-36.337,-58.999,14.847,10.159,12.503,-16.410,-50.012,30.476,10.940,-45.324,14.847
'[13:50:47.188 25/07/2074]',285.226,-272.723,-53.138,-20.317,-47.668,50.794,-26.569,-37.509,-14.457,-17.192,-28.132,5.470,-8.205,-80.098,13.284,18.364,9.377,-16.801,53.919,-23.443,0.391,-51.966,13.284
'[13:50:47.191 25/07/2074]',305.543,-318.437,-21.880,-33.993,-42.589,36.728,4.298,-66.813,-6.252,0.391,-19.145,-32.430,0.391,-26.960,-10.940,-21.099,17.973,-21.490,22.662,81.270,-53.138,-19.927,-10.940
'[13:50:47.195 25/07/2074]',125.421,-232.088,12.112,-29.695,-27.350,33.211,-62.515,-67.595,-1.172,-17.192,-15.238,-12.503,14.847,5.079,-70.330,2.344,6.642,-32.430,-11.331,60.171,-1.954,20.708,-70.330
'[13:50:47.199 25/07/2074]',-240.684,107.448,-14.066,-28.132,3.126,-50.403,-66.032,-60.952,11.331,-50.794,-5.470,4.689,66.032,-0.781,-138.315,30.476,-4.689,-32.039,14.847,-10.549,33.211,68.767,-138.315
'[13:50:47.203 25/07/2074]',-216.068,377.436,-374.310,26.569,-18.755,-121.905,-4.689,-39.072,26.569,-48.840,-2.344,0.000,50.794,16.020,-114.090,20.708,-9.377,-32.039,375.092,-244.200,0.391,20.317,-114.090
'[13:50:47.207 25/07/2074]',-156.679,-7.814,42.198,-3.907,4.298,-3.126,-85.568,-41.807,24.615,-22.662,-17.192,16.020,73.065,-67.985,-41.026,36.728,12.503,-30.867,-41.416,100.806,-17.192,-14.457,-41.026
'[13:50:47.211 25/07/2074]',-151.990,-6.642,-15.629,19.927,-7.814,-64.860,-59.780,-19.927,24.225,-46.886,-19.927,31.258,46.886,-73.455,-44.542,60.171,1.954,-28.913,16.410,-5.079,33.993,-12.894,-44.542
'[13:50:47.215 25/07/2074]',-14.847,51.966,-209.426,12.112,-55.482,-36.337,-25.397,-41.807,16.020,-21.099,-6.642,-6.252,31.648,-96.117,31.648,12.894,11.331,-27.741,210.208,-171.917,23.834,-59.780,31.648
'[13:50:47.219 25/07/2074]',84.005,-326.252,90.647,-3.516,-103.150,21.490,-32.821,-39.853,19.927,-10.940,-16.020,5.079,35.165,-59.389,-0.781,21.880,19.536,-28.913,-89.866,164.884,-34.383,-32.039,-0.781
'[13:50:47.223 25/07/2074]',-148.864,-13.675,0.781,24.615,-19.536,-45.714,-57.827,-12.112,-5.470,-50.794,-8.987,29.304,5.861,18.364,-121.514,58.608,5.861,-39.072,0.000,14.457,54.701,41.807,-121.514
'[13:50:47.227 25/07/2074]',-230.916,248.498,-150.427,-11.722,25.397,-80.879,-33.211,-55.092,16.020,-56.264,24.615,-19.145,34.774,27.350,-100.024,1.172,-1.172,-35.165,151.209,-126.593,71.111,24.615,-100.024
'[13:50:47.230 25/07/2074]',-0.781,-133.626,-20.317,44.151,-37.900,-26.960,-51.966,8.205,4.689,-48.449,0.000,19.145,0.781,-35.946,-17.192,26.960,-8.596,-43.761,21.099,66.813,-10.940,-18.364,-17.192
'[13:50:47.234 25/07/2074]',124.640,-214.505,-43.761,52.357,-28.132,-30.085,-33.602,12.503,10.159,-77.753,14.847,18.755,53.529,-35.165,-84.786,32.821,-12.112,-37.509,44.542,95.336,-7.033,-5.079,-84.786
'[13:50:47.238 25/07/2074]',28.523,-134.017,-2.735,15.238,7.033,-31.258,-45.714,-21.490,33.211,-73.065,33.993,-8.596,82.833,-53.919,-44.542,1.172,-9.768,-26.960,3.516,83.614,5.861,0.000,-44.542
'[13:50:47.242 25/07/2074]',280.928,-407.912,23.053,50.794,-50.403,18.364,-50.794,31.648,17.192,-43.761,-5.470,40.244,65.641,-50.794,-62.125,55.092,-4.689,-30.085,-22.271,112.137,-23.443,13.284,-62.125
'[13:50:47.246 25/07/2074]',216.459,-341.490,64.860,-14.847,-28.132,3.907,-21.490,-26.569,-9.377,-0.781,-7.814,-20.317,18.755,-44.151,0.781,-14.457,13.284,-18.755,-64.078,103.541,0.391,-9.377,0.781
'[13:50:47.250 25/07/2074]',-303.980,192.625,41.026,-35.556,60.952,-54.701,-62.906,-48.059,1.954,2.344,0.000,-33.993,-10.549,27.350,-19.927,-26.569,5.079,-22.662,-40.244,1.172,49.621,33.602,-19.927
'[13:50:47.254 25/07/2074]',-24.225,44.542,-115.263,-12.503,-44.933,-25.788,-6.642,-29.304,-25.397,22.271,-12.112,-35.165,-46.886,-48.059,78.926,-35.165,3.126,-13.284,116.044,-106.667,4.689,-35.946,78.926
'[13:50:47.258 25/07/2074]',-141.832,125.031,-126.984,8.596,-31.258,-35.556,-37.118,-28.523,-17.973,18.364,-5.861,-29.695,-7.424,-50.403,47.277,-24.615,2.344,-17.973,127.766,-81.270,25.788,-50.794,47.277
'[13:50:47.262 25/07/2074]',-183.248,164.103,-65.250,5.861,-5.079,-7.033,-50.794,-14.457,-37.900,14.847,-8.205,-8.596,-57.436,-2.735,19.145,-0.391,2.344,-11.331,66.032,-44.151,5.861,-12.894,19.145
'[13:50:47.266 25/07/2074]',185.983,-19.536,-235.995,28.523,-47.277,5.079,-3.516,5.470,5.861,-2.344,6.642,16.801,87.131,-22.271,-66.813,29.304,5.861,-0.391,236.777,-150.037,11.722,-3.126,-66.813
'[13:50:47.270 25/07/2074]',-29.304,-59.389,23.834,17.192,10.159,23.053,-79.316,-0.391,-16.410,10.940,-11.331,17.192,-7.424,44.542,-73.846,36.728,7.033,-5.079,-23.053,44.151,17.582,34.774,-73.846
'[13:50:47.273 25/07/2074]',-100.806,65.250,26.569,-38.681,20.708,-7.424,-30.476,-28.523,-8.596,25.788,-15.629,-16.410,-45.714,1.172,23.443,3.907,5.079,2.735,-25.788,54.701,-37.118,-35.946,23.443
'[13:50:47.277 25/07/2074]',0.391,-12.894,6.252,-26.178,-7.424,30.476,-30.867,-24.225,-4.689,20.708,-7.814,-16.801,-14.847,33.602,-35.946,7.033,0.391,0.000,-5.470,42.198,-54.310,43.761,-35.946
'[13:50:47.281 25/07/2074]',-18.755,-73.455,33.211,-29.304,-42.198,24.225,-39.853,-29.304,57.436,1.954,26.960,-23.053,73.065,64.860,-66.422,-8.596,-5.470,-5.079,-32.430,75.409,-35.946,63.297,-66.422
'[13:50:47.285 25/07/2074]',205.128,-225.836,-51.184,10.159,-61.734,4.689,-9.768,6.252,-7.033,10.940,0.781,-9.377,-37.900,0.000,18.364,12.503,-13.675,-14.066,51.966,41.026,-85.568,-8.987,18.364
'[13:50:47.289 25/07/2074]',-25.788,-87.912,44.933,15.629,-57.436,32.039,-37.118,10.549,-14.457,-10.940,10.159,1.172,-8.987,13.284,-36.337,16.801,-13.675,-13.284,-44.151,119.170,-47.277,24.225,-36.337
'[13:50:47.293 25/07/2074]',146.129,-163.712,-43.761,22.662,-14.847,8.205,-35.165,4.298,73.455,-60.562,54.701,14.847,165.665,40.635,-150.818,26.178,-10.940,-9.768,44.542,54.310,28.523,45.324,-150.818
'[13:50:47.297 25/07/2074]',53.138,-72.283,-0.391,2.344,12.503,57.436,-72.674,-13.675,-14.066,10.159,-14.847,-8.205,-67.985,-2.735,25.788,16.801,-0.781,-20.317,1.172,87.131,-42.979,-57.436,25.788
'[13:50:47.301 25/07/2074]',159.805,-185.201,-0.391,-21.880,-15.629,72.674,-76.972,-26.569,-28.523,25.006,-23.443,-17.582,-68.376,-25.006,49.231,-1.563,-0.391,-22.662,1.172,10.159,-23.834,-21.490,49.231
'[13:50:47.305 25/07/2074]',-2.735,76.972,-120.733,1.172,37.509,19.145,-74.628,-26.960,19.536,11.722,-7.033,-12.112,-7.814,51.575,-34.383,1.954,0.391,-21.099,121.514,-43.761,-53.919,55.482,-34.383
'[13:50:47.309 25/07/2074]',257.875,-315.311,-56.654,30.085,-32.821,31.648,-69.939,-11.331,-7.033,30.476,-25.397,-12.894,-73.455,-41.026,89.084,8.596,-2.344,-28.523,57.436,-3.126,-53.529,-22.662,89.084
'[13:50:47.313 25/07/2074]',-29.695,-147.692,41.026,40.244,-30.476,5.470,-72.674,2.344,-13.675,22.271,-14.457,1.172,-29.695,-95.336,84.396,34.383,1.563,-28.523,-40.244,80.879,-24.225,-52.747,84.396
'[13:50:47.316 25/07/2074]',-106.276,170.745,-247.326,92.210,-19.536,-59.389,-33.993,23.834,16.020,-9.377,2.735,9.377,15.629,3.126,-50.403,49.621,0.000,-26.569,248.107,-115.263,-0.391,7.814,-50.403
'[13:50:47.320 25/07/2074]',-76.581,-49.621,-66.422,66.032,-51.966,-14.457,-64.860,5.861,36.728,21.490,0.781,-0.781,69.158,-110.183,55.092,42.979,7.814,-25.397,67.204,39.853,16.020,-111.746,55.092
'[13:50:47.324 25/07/2074]',-125.812,11.331,-1.954,15.238,23.443,-19.536,-78.926,-26.178,-36.728,38.681,-25.397,-28.132,-98.852,1.172,15.629,28.523,10.549,-35.165,2.735,5.079,33.602,-26.569,15.629
'[13:50:47.328 25/07/2074]',-144.176,357.118,-341.099,63.297,67.595,-79.707,-52.357,0.391,-12.503,9.768,-28.913,-19.927,-68.376,12.894,-32.430,34.383,-0.781,-41.026,341.880,-249.670,-8.596,18.364,-32.430
'[13:50:47.332 25/07/2074]',-111.355,-15.629,36.728,28.132,42.589,-52.747,-44.933,-6.252,11.722,2.344,-15.629,-14.457,-40.635,4.298,-9.377,28.523,-6.252,-42.589,-35.946,61.343,-7.424,25.788,-9.377
'[13:50:47.336 25/07/2074]',-138.315,-103.541,168.010,2.344,46.105,-9.377,-81.270,-26.178,32.039,-12.894,-4.298,-22.271,23.443,-0.391,-57.436,24.615,-5.079,-41.416,-167.228,144.567,37.118,45.714,-57.436
'[13:50:47.340 25/07/2074]',-101.197,48.059,-55.092,46.105,1.563,-29.695,-44.933,10.940,39.853,-27.350,-16.020,6.252,53.529,-50.403,-53.138,51.575,-8.987,-39.463,55.873,39.463,-13.675,-13.675,-53.138
'[13:50:47.344 25/07/2074]',50.403,-128.547,-2.735,-6.252,-71.502,25.006,-2.735,-37.509,52.357,-1.563,12.894,-42.589,98.462,-32.821,-24.615,-19.145,-1.954,-26.569,3.516,102.759,-52.357,12.112,-24.615
'[13:50:47.348 25/07/2074]',-46.886,-115.653,80.879,-17.192,-47.668,42.979,-53.138,-41.807,26.960,16.801,-21.490,-36.728,11.331,-62.515,39.463,-3.516,-7.424,-33.602,-80.098,100.806,-13.675,-40.635,39.463
'[13:50:47.352 25/07/2074]',-93.382,164.103,-149.255,-1.954,-32.039,-13.675,-11.722,-22.271,-16.410,-12.112,-30.476,-21.880,-70.720,0.000,-22.271,9.377,-15.238,-41.416,150.037,-50.403,-82.051,16.801,-22.271
'[13:50:47.355 25/07/2074]',-10.159,125.031,-169.573,-15.238,-68.767,39.072,-15.629,-22.662,14.066,-14.847,-11.722,-17.192,-35.165,-19.145,15.238,7.033,-12.503,-29.304,170.354,-125.812,-39.463,-22.662,15.238
'[13:50:47.359 25/07/2074]',-242.247,48.840,79.316,13.675,-55.873,27.350,-80.098,10.159,18.755,-33.211,-19.927,23.834,-48.840,-32.430,23.443,45.714,-23.053,-41.416,-78.535,57.045,-19.927,-10.940,23.443
'[13:50:47.363 25/07/2074]',-148.474,-67.985,115.653,22.271,-24.615,-10.940,-67.985,27.350,35.165,-47.277,-14.066,48.840,40.244,-10.159,-76.190,66.422,-20.317,-37.118,-114.872,114.090,27.741,6.252,-76.190
'[13:50:47.367 25/07/2074]',-45.324,-92.601,82.051,13.284,-45.324,17.973,-35.556,21.099,37.509,-25.397,0.781,36.728,45.714,-45.714,0.391,48.840,-8.205,-18.755,-81.270,129.719,17.192,-100.024,0.391
'[13:50:47.371 25/07/2074]',165.665,-312.186,140.659,23.834,-1.954,14.066,-22.271,29.304,-9.768,5.470,-21.880,28.132,-10.549,-30.476,17.973,24.225,-10.940,-8.205,-139.878,171.526,-29.304,-16.020,17.973
'[13:50:47.375 25/07/2074]',-137.143,214.896,-39.072,-31.258,57.436,-22.662,-17.973,-8.987,-16.020,12.894,-9.377,-3.516,1.954,-53.919,31.258,2.735,-15.629,-10.159,39.853,-75.800,23.053,-39.463,31.258
