'Time and date','FP1-F7','F7-T7','T7-P7','P7-O1','FP1-F3','F3-C3','C3-P3','P3-O1','FP2-F4','F4-C4','C4-P4','P4-O2','FP2-F8','F8-T8','T8-P8','P8-O2','FZ-CZ','CZ-PZ','P7-T7','T7-FT9','FT9-FT10','FT10-T8','T8-P8'
'hh:mm:ss.mmm dd/mm/yyyy','uV','uV','uV','uV','uV','uV','uV','uV','uV','uV','uV','uV','uV','uV','uV','uV','uV','uV','uV','uV','uV','uV','uV'
'[01:51:23.000 05/09/2075]',-44.542,-7.814,65.641,1.954,75.409,-76.190,46.105,-30.085,33.993,41.026,-33.602,23.053,130.110,-98.852,69.158,-35.946,12.894,232.088,-64.860,161.758,-140.659,23.053,69.158
'[01:51:23.004 05/09/2075]',0.391,0.391,0.391,0.391,0.391,0.391,0.391,0.391,0.391,0.391,0.391,0.391,0.391,0.391,0.391,0.391,0.391,0.391,0.391,0.391,0.391,0.391,0.391
'[01:51:23.008 05/09/2075]',0.391,0.391,0.391,0.391,0.391,0.391,0.391,0.391,0.391,0.391,0.391,0.391,0.391,0.391,0.391,0.391,0.391,0.781,0.391,0.391,0.391,0.391,0.391
'[01:51:23.012 05/09/2075]',0.391,0.391,0.391,0.391,0.391,0.391,0.391,0.391,0.391,1.954,-1.172,0.391,0.000,0.391,0.781,0.391,1.172,5.861,0.391,0.000,0.391,0.391,0.781
'[01:51:23.016 05/09/2075]',0.391,0.391,0.781,0.391,0.391,0.391,0.391,0.391,0.391,1.172,-0.391,0.391,0.781,0.391,0.391,0.391,0.781,2.735,0.000,0.391,0.391,0.391,0.391
'[01:51:23.020 05/09/2075]',0.000,0.391,1.954,0.391,1.563,-0.391,0.391,0.391,-0.391,-6.642,7.814,1.563,1.954,0.391,-1.954,1.954,-3.126,-25.006,-1.172,1.954,0.000,1.172,-1.954
'[01:51:23.023 05/09/2075]',0.391,-0.391,0.000,0.781,0.781,-0.391,0.000,0.391,-1.172,-9.768,10.159,1.954,0.391,0.000,-1.172,1.954,-3.907,-31.648,0.781,1.563,-1.172,0.781,-1.172
'[01:51:23.027 05/09/2075]',0.391,-0.781,-2.735,1.954,-0.391,0.391,0.391,-0.781,0.781,5.861,-7.424,-0.391,-1.172,0.000,1.563,-1.172,4.298,25.788,3.516,0.391,0.391,0.000,1.563
'[01:51:23.031 05/09/2075]',-0.391,0.000,0.781,0.391,0.000,0.391,0.781,-0.391,2.735,15.629,-16.410,-1.563,0.000,0.781,1.954,-2.344,7.814,51.184,0.000,0.391,1.563,0.781,1.954
'[01:51:23.035 05/09/2075]',-1.172,1.172,4.689,-1.172,1.563,0.000,0.781,1.563,-0.391,-7.033,9.768,1.563,1.563,0.391,-1.563,2.344,-5.470,-33.602,-3.907,1.172,0.391,1.954,-1.563
'[01:51:23.039 05/09/2075]',-1.172,0.781,2.344,0.391,3.126,-1.954,0.391,1.172,-3.516,-30.085,33.602,3.907,5.079,-1.563,-7.033,7.033,-15.238,-104.322,-1.563,4.298,-1.172,0.391,-7.033
'[01:51:23.043 05/09/2075]',-5.470,-5.079,7.033,0.781,8.987,-10.940,0.391,-1.563,-4.689,-47.277,44.933,9.377,15.629,-4.298,-19.536,10.549,-20.708,-151.600,-6.252,19.145,-5.079,6.252,-19.536
'[01:51:23.047 05/09/2075]',-4.298,-12.112,6.642,4.298,12.894,-15.629,-2.344,0.000,-9.768,-81.270,70.720,17.192,12.894,-3.907,-27.350,16.410,-36.337,-261.783,-5.861,25.397,-14.457,12.894,-27.350
'[01:51:23.051 05/09/2075]',-5.470,-18.755,2.344,6.252,11.722,-21.099,-2.735,-4.689,-10.159,-73.846,57.827,14.066,8.205,-8.987,-25.397,14.457,-29.695,-220.366,-1.563,29.695,-17.973,9.377,-25.397
'[01:51:23.055 05/09/2075]',-13.284,-21.099,-3.907,14.066,10.549,-23.443,-0.781,-10.940,-1.172,-41.807,19.927,5.861,8.596,-4.689,-26.960,7.424,-14.847,-108.620,4.689,32.821,-10.159,12.112,-26.960
'[01:51:23.059 05/09/2075]',-16.410,-17.192,9.377,11.331,10.549,-22.662,0.391,-2.344,-2.344,-51.184,33.602,10.549,4.689,-6.642,-21.099,14.066,-23.834,-162.930,-8.596,27.741,-7.814,11.331,-21.099
'[01:51:23.063 05/09/2075]',-23.053,-13.284,-3.516,21.099,4.298,-23.053,0.391,-0.391,-3.907,-68.767,59.780,7.814,10.940,-11.331,-23.834,20.317,-37.900,-237.167,4.298,27.741,-3.907,3.126,-23.834
'[01:51:23.066 05/09/2075]',-21.490,-10.940,-8.596,22.271,5.470,-22.662,0.781,-3.126,1.563,-53.919,46.886,2.735,17.192,-7.033,-30.085,17.192,-28.523,-164.103,9.377,26.960,4.298,3.907,-30.085
'[01:51:23.070 05/09/2075]',-18.755,-15.629,1.563,16.020,5.079,-24.615,0.391,1.172,2.344,-42.198,30.867,8.205,19.145,-11.722,-18.755,12.112,-22.662,-132.063,-0.781,29.304,0.391,6.252,-18.755
'[01:51:23.074 05/09/2075]',-11.722,-16.801,-5.861,21.880,7.033,-25.006,-0.781,5.079,-1.172,-51.184,40.635,11.331,20.317,-14.457,-21.490,15.629,-34.774,-185.201,6.642,27.350,-1.563,4.298,-21.490
'[01:51:23.078 05/09/2075]',-4.298,-12.894,-1.563,11.722,14.066,-22.662,0.391,0.391,-1.954,-53.529,47.277,7.033,14.847,-11.722,-16.410,12.894,-35.556,-168.010,2.344,21.490,-3.516,3.516,-16.410
'[01:51:23.082 05/09/2075]',-5.470,-16.410,4.689,15.238,13.284,-20.708,3.516,1.172,-0.391,-44.151,33.211,14.457,15.629,-13.284,-15.629,16.410,-28.523,-132.063,-3.907,19.927,0.391,3.516,-15.629
'[01:51:23.086 05/09/2075]',-5.470,-16.020,-8.596,33.993,11.722,-17.582,1.954,5.470,-3.516,-49.621,39.463,19.536,7.424,-10.549,-8.205,17.582,-32.039,-168.791,9.377,19.536,-7.033,3.126,-8.205
'[01:51:23.090 05/09/2075]',-4.298,-10.549,6.642,15.629,12.894,-10.549,5.079,-0.391,0.000,-49.231,37.900,13.284,7.424,-4.298,-28.132,27.350,-29.304,-140.269,-5.861,17.582,-6.642,5.470,-28.132
'[01:51:23.094 05/09/2075]',-8.205,-7.033,15.238,8.596,11.331,-5.079,7.424,-6.252,3.516,-38.681,24.615,7.424,5.861,-5.079,-23.834,20.708,-17.973,-85.568,-14.457,17.582,-8.596,4.298,-23.834
'[01:51:23.098 05/09/2075]',-8.596,-5.079,5.470,21.099,13.284,-2.344,2.735,-1.954,2.344,-45.714,25.788,10.549,7.814,-5.861,-26.960,19.536,-23.053,-134.799,-4.689,18.364,-10.159,5.470,-26.960
'[01:51:23.102 05/09/2075]',-7.814,-1.172,12.503,8.987,14.847,0.781,0.391,-3.516,1.954,-55.482,30.085,8.987,8.205,-9.377,-36.728,24.615,-29.304,-161.758,-11.722,15.629,-11.331,2.735,-36.728
'[01:51:23.105 05/09/2075]',-7.424,1.563,2.344,14.066,15.238,3.126,-1.954,-5.079,4.689,-39.853,13.675,2.735,9.768,-9.768,-30.085,12.112,-20.708,-96.508,-1.563,10.549,-10.940,3.126,-30.085
'[01:51:23.109 05/09/2075]',-5.861,2.344,-5.079,17.973,14.847,3.516,-4.298,-6.252,-0.781,-37.118,8.987,8.205,1.563,7.033,-38.291,8.205,-16.801,-106.667,5.861,8.596,-7.814,11.722,-38.291
'[01:51:23.113 05/09/2075]',-2.344,3.516,-8.205,9.377,15.238,3.907,-5.861,-10.549,-2.735,-55.482,25.006,5.079,2.735,-7.814,-28.132,5.470,-24.615,-160.977,8.987,5.470,-14.847,3.907,-28.132
'[01:51:23.117 05/09/2075]',-3.907,9.768,-5.470,-2.735,10.940,4.298,-1.954,-17.582,-1.954,-42.979,19.927,-1.563,-0.391,-8.987,-22.662,5.470,-15.629,-105.104,6.252,0.391,-15.629,-4.298,-22.662
'[01:51:23.121 05/09/2075]',-2.344,12.112,3.126,-16.410,15.629,6.252,0.781,-27.350,5.079,-23.053,4.689,-10.549,-0.781,-1.172,-20.708,0.781,-2.735,-50.012,-2.344,0.391,-14.457,-1.563,-20.708
'[01:51:23.125 05/09/2075]',-4.689,4.298,-5.861,1.954,12.894,2.735,-1.954,-17.973,0.391,-36.337,17.973,-1.954,0.391,-15.238,-13.675,8.205,-11.722,-112.527,6.642,4.689,-12.894,-8.987,-13.675
'[01:51:23.129 05/09/2075]',-4.298,1.563,-1.172,4.689,14.066,1.954,0.391,-16.410,1.172,-49.621,38.681,-1.563,1.172,-5.079,-23.443,15.238,-21.490,-153.553,1.954,10.159,-7.814,-6.642,-23.443
'[01:51:23.133 05/09/2075]',-5.079,0.391,7.424,3.126,16.801,3.126,3.907,-18.755,2.344,-31.648,26.569,-2.735,0.000,4.689,-21.490,10.549,-7.814,-81.661,-6.642,11.722,0.391,1.954,-21.490
'[01:51:23.137 05/09/2075]',-7.033,1.563,2.735,13.675,15.238,3.516,2.344,-10.549,1.954,-26.569,17.973,6.642,1.172,3.126,-14.066,7.814,-4.689,-71.502,-1.954,10.940,1.954,6.642,-14.066
'[01:51:23.141 05/09/2075]',-6.252,7.424,8.596,4.298,13.284,5.861,5.079,-11.331,5.470,-38.291,35.165,0.391,5.470,2.344,-11.722,5.470,-13.675,-115.263,-7.814,5.861,-1.563,9.768,-11.722
'[01:51:23.145 05/09/2075]',-6.642,9.768,5.079,3.907,12.503,7.814,6.252,-14.847,11.331,-32.039,33.602,-6.642,3.126,6.642,-12.112,7.033,-7.424,-87.912,-4.298,4.689,-6.642,11.722,-12.112
'[01:51:23.148 05/09/2075]',-7.814,13.284,-4.689,8.205,11.331,5.079,3.907,-12.894,12.894,-27.741,19.145,-2.344,4.298,1.563,-12.894,7.814,-3.516,-81.270,5.470,3.516,-11.331,11.331,-12.894
'[01:51:23.152 05/09/2075]',-7.424,13.675,3.516,0.391,9.768,2.344,3.907,-7.814,10.549,-33.211,24.615,2.735,5.079,-2.344,-11.722,14.066,-10.940,-125.421,-2.735,3.126,-17.192,7.424,-11.722
'[01:51:23.156 05/09/2075]',-12.894,13.675,1.172,6.252,8.596,0.781,5.079,-6.642,10.159,-24.615,21.099,1.172,6.642,4.689,-17.973,13.675,-7.033,-83.614,-0.391,1.954,-6.642,13.675,-17.973
'[01:51:23.160 05/09/2075]',-10.549,27.741,10.940,-9.768,11.331,3.126,8.987,-6.642,5.861,-9.377,17.973,3.126,3.126,16.020,0.391,-2.735,4.689,-31.258,-10.159,-7.424,-7.033,19.536,0.391
'[01:51:23.164 05/09/2075]',-6.252,26.569,7.033,-6.252,10.549,1.954,8.596,-1.954,0.000,-17.582,37.509,2.735,4.298,23.053,6.252,-12.112,-2.344,-84.005,-6.252,-11.722,-5.470,26.960,6.252
'[01:51:23.168 05/09/2075]',-5.470,23.443,1.563,3.907,10.159,1.954,7.033,1.954,-0.781,-22.271,51.966,2.344,5.079,31.258,-0.781,-4.689,-4.689,-100.415,-0.781,-7.814,-3.516,31.648,-0.781
'[01:51:23.172 05/09/2075]',-2.735,22.271,-2.344,4.689,10.940,0.391,6.642,0.781,4.298,-3.516,32.821,0.391,0.391,35.165,1.172,-3.126,5.079,-35.556,3.126,-5.470,-8.205,27.741,1.172
'[01:51:23.176 05/09/2075]',-6.642,12.894,-8.205,16.410,8.596,-4.298,3.126,5.079,7.033,-8.205,26.178,4.689,8.205,18.364,-1.563,5.079,1.563,-72.283,8.987,1.172,-6.642,19.145,-1.563
'[01:51:23.180 05/09/2075]',-10.549,13.675,3.907,8.596,9.377,-5.470,1.563,9.377,10.549,-27.350,40.635,11.331,5.861,15.629,-11.722,25.397,-10.549,-137.143,-3.126,1.563,-8.205,14.847,-11.722
'[01:51:23.184 05/09/2075]',-9.377,13.284,-9.377,21.099,10.549,-4.298,0.391,8.205,13.284,-17.973,25.397,7.033,4.298,9.768,-2.344,16.020,-3.516,-73.455,10.159,1.172,-4.298,10.549,-2.344
'[01:51:23.188 05/09/2075]',-14.066,17.192,-1.563,14.457,7.033,-2.344,2.735,7.424,13.284,-1.954,1.563,4.689,2.344,4.689,5.079,4.689,3.516,-28.132,2.344,-1.172,0.391,5.861,5.079
'[01:51:23.191 05/09/2075]',-12.112,9.377,-1.563,24.225,7.424,-3.516,1.172,14.066,5.861,-20.708,16.020,14.066,-1.172,-3.907,0.391,19.927,-9.377,-92.991,2.344,3.126,-0.391,0.391,0.391
'[01:51:23.195 05/09/2075]',-12.112,7.424,-12.503,34.774,5.079,-1.563,0.391,12.894,3.907,-29.695,25.397,11.331,-3.126,0.391,-3.126,18.364,-16.801,-108.230,13.284,4.689,-1.563,1.954,-3.126
'[01:51:23.199 05/09/2075]',-14.066,10.159,-9.768,28.132,3.126,-1.172,3.126,7.814,6.252,-11.722,5.470,8.987,-0.391,-2.735,0.391,12.894,-7.033,-42.979,10.549,0.781,1.563,-2.344,0.391
'[01:51:23.203 05/09/2075]',-11.722,13.675,4.689,11.722,6.642,-0.391,3.907,8.205,5.470,-7.033,4.689,12.503,-0.391,4.298,-8.205,21.099,-5.861,-52.747,-3.907,-3.516,-3.126,4.298,-8.205
'[01:51:23.207 05/09/2075]',-3.516,14.066,9.377,9.377,12.503,3.516,2.344,8.987,10.549,-12.503,16.801,10.549,0.000,15.238,-8.596,19.536,-10.940,-74.237,-8.596,-8.987,-3.907,11.331,-8.596
'[01:51:23.211 05/09/2075]',-0.391,10.159,4.298,14.066,14.847,5.861,2.344,3.516,14.066,-4.298,11.331,3.516,6.252,9.377,-2.735,12.112,-2.344,-38.291,-3.516,-4.298,-1.563,6.642,-2.735
'[01:51:23.215 05/09/2075]',-1.172,7.033,32.430,-8.596,15.238,5.079,4.689,2.735,8.987,-4.298,7.424,7.033,-1.563,6.642,-2.735,16.801,-1.172,-54.701,-31.648,-5.861,-0.391,1.172,-2.735
'[01:51:23.219 05/09/2075]',-3.126,0.781,22.271,3.126,14.457,2.735,0.000,4.298,6.642,-19.536,14.847,9.377,-8.596,11.722,-8.987,17.582,-12.503,-107.448,-21.490,1.172,-5.470,5.861,-8.987
'[01:51:23.223 05/09/2075]',-9.768,10.159,3.907,1.172,11.331,1.954,-1.563,-5.861,9.377,-14.066,3.516,-2.735,-11.331,12.503,-10.940,5.079,-8.987,-57.827,-3.126,-8.205,-4.689,8.987,-10.940
'[01:51:23.227 05/09/2075]',-16.020,18.364,15.629,-19.536,7.814,3.126,0.391,-12.894,4.298,-13.675,-1.954,-7.033,-22.271,21.099,-19.145,1.172,-3.516,-32.430,-14.847,-15.629,4.298,6.252,-19.145
'[01:51:23.230 05/09/2075]',-19.927,18.755,0.391,-4.298,6.642,0.781,-1.954,-10.940,4.689,-30.085,5.470,-2.344,-20.708,25.788,-32.821,5.079,-13.284,-84.396,0.391,-16.410,2.735,21.490,-32.821
'[01:51:23.234 05/09/2075]',-16.801,15.238,-1.954,0.391,7.033,4.298,-0.781,-15.238,10.549,-35.946,10.549,-7.033,-11.331,5.079,-22.271,6.642,-11.331,-76.190,2.735,-13.284,2.344,10.549,-22.271
'[01:51:23.238 05/09/2075]',-18.755,12.894,9.768,-6.642,5.079,4.689,2.735,-16.020,7.814,-15.629,-9.768,-8.205,-17.582,-5.470,-7.814,5.079,0.391,-6.642,-8.987,-8.987,7.033,-5.861,-7.814
'[01:51:23.242 05/09/2075]',-14.457,4.298,2.344,10.159,5.861,1.954,2.344,-9.377,3.126,-19.927,-5.079,-0.781,-12.894,-15.629,-2.344,7.814,-3.126,-50.012,-1.563,-2.344,4.689,-7.814,-2.344
'[01:51:23.246 05/09/2075]',-12.894,0.781,10.940,3.907,5.861,1.954,2.344,-7.814,3.516,-36.337,17.582,-1.172,-10.940,-5.079,-7.033,7.814,-13.675,-101.197,-10.159,3.126,-0.781,-0.391,-7.033
'[01:51:23.250 05/09/2075]',-11.722,3.126,-3.516,5.861,5.079,-0.391,0.000,-10.549,1.172,-19.145,5.079,-4.689,-18.364,2.735,-1.172,-1.172,-2.344,-32.430,4.298,3.516,0.391,-5.861,-1.172
'[01:51:23.254 05/09/2075]',-10.549,0.391,-5.079,7.814,6.252,-5.861,0.000,-8.987,-0.391,-9.377,-8.596,-1.563,-13.284,1.954,-9.768,1.172,4.298,0.781,5.861,5.079,2.344,-1.563,-9.768
'[01:51:23.258 05/09/2075]',-9.377,0.781,-15.629,9.377,5.079,-10.940,-5.079,-3.907,-2.344,-29.304,9.768,1.954,-10.549,4.689,-15.629,2.344,-12.112,-64.860,16.410,4.689,-3.516,4.689,-15.629
'[01:51:23.262 05/09/2075]',-7.424,2.344,-15.238,-3.516,3.126,-10.940,-4.689,-10.940,-3.516,-35.165,20.317,-5.079,-13.675,7.814,-14.457,-3.907,-16.410,-74.237,16.020,1.563,-1.563,1.563,-14.457
'[01:51:23.266 05/09/2075]',-9.768,7.033,-10.940,-11.331,1.172,-12.112,-2.735,-10.940,-1.954,-24.225,4.689,-6.642,-8.987,1.954,-16.020,-5.079,-10.159,-26.960,11.722,-3.126,2.344,1.563,-16.020
'[01:51:23.270 05/09/2075]',-12.112,1.954,-14.457,0.000,-1.172,-14.066,-3.126,-5.470,-1.172,-24.225,5.470,-3.907,-6.252,12.503,-17.192,-12.503,-14.066,-42.589,15.238,1.563,0.000,17.582,-17.192
'[01:51:23.273 05/09/2075]',-12.503,-0.391,-22.662,6.252,-6.642,-13.675,-3.907,-4.298,-1.563,-24.615,8.987,-5.861,-7.424,5.079,-10.940,-9.377,-16.801,-48.059,23.443,7.033,1.954,0.781,-10.940
'[01:51:23.277 05/09/2075]',-12.112,2.344,-10.159,-7.424,-7.424,-14.457,1.172,-7.033,-4.298,-16.801,3.126,-7.814,-12.112,-3.126,-4.689,-5.079,-7.814,-10.159,10.940,7.033,-0.781,-10.940,-4.689
'[01:51:23.281 05/09/2075]',-9.768,0.391,-14.066,0.781,-6.252,-19.145,2.344,-0.391,-8.987,-20.708,3.126,-1.563,-9.768,-3.126,-14.847,1.172,-12.112,-50.403,14.847,10.159,-2.344,-5.079,-14.847
'[01:51:23.285 05/09/2075]',-8.987,3.907,-19.927,1.563,-10.159,-18.755,4.689,0.781,-9.768,-30.085,15.238,-2.735,-6.642,3.126,-20.317,-2.735,-20.708,-96.508,20.708,6.252,1.172,-2.344,-20.317
'[01:51:23.289 05/09/2075]',-7.814,7.424,3.126,-17.973,-10.549,-12.894,10.940,-1.954,-4.298,-20.317,7.033,-13.284,-10.549,17.973,-24.225,-14.066,-12.894,-51.966,-2.344,1.172,2.735,12.112,-24.225
'[01:51:23.293 05/09/2075]',-3.126,3.907,-3.907,-5.079,-8.596,-10.549,11.331,-0.781,-0.781,-8.205,-2.344,-7.814,-7.814,24.225,-24.615,-11.331,-3.516,-17.973,4.689,1.172,2.735,18.364,-24.615
'[01:51:23.297 05/09/2075]',0.391,-7.814,-16.020,17.192,-9.377,-9.377,7.814,4.298,1.563,-22.271,11.331,-3.126,-1.954,19.145,-17.582,-10.940,-9.768,-66.422,16.801,7.424,7.814,11.722,-17.582
'[01:51:23.301 05/09/2075]',-3.516,-9.768,0.391,4.689,-15.629,-5.079,7.033,4.689,-0.391,-17.192,10.159,0.781,-13.675,24.615,-21.099,3.126,-3.907,-38.681,0.391,8.205,0.000,8.205,-21.099
'[01:51:23.305 05/09/2075]',-0.781,-4.298,-4.689,1.172,-9.377,-4.689,5.079,0.000,1.954,4.689,-13.284,1.172,-9.768,16.410,-10.549,0.000,10.159,22.662,5.470,6.642,-5.470,1.563,-10.549
'[01:51:23.309 05/09/2075]',-9.377,-7.424,-3.126,3.126,-12.503,-8.596,0.391,3.516,2.735,-6.642,-11.722,7.033,-10.549,7.424,-7.814,2.735,-1.172,-44.151,3.907,6.252,-10.940,1.954,-7.814
'[01:51:23.313 05/09/2075]',-12.894,-1.172,9.768,-14.457,-9.768,-5.861,-1.563,0.000,0.391,-20.317,-0.391,5.079,-14.847,20.708,-33.211,12.112,-12.112,-100.806,-8.987,4.298,-11.722,12.894,-33.211
'[01:51:23.316 05/09/2075]',-6.252,0.391,5.470,-15.629,2.344,-4.689,-3.516,-8.987,8.987,-3.126,-19.145,-1.172,-11.331,20.317,-26.569,3.126,1.954,-28.523,-4.689,3.907,-15.629,18.364,-26.569
'[01:51:23.320 05/09/2075]',-3.516,-8.205,-5.470,-0.391,5.861,-7.424,-9.768,-5.861,12.503,3.907,-30.867,-2.735,-15.238,9.377,-12.894,2.344,5.079,-3.126,6.252,5.861,-5.861,0.781,-12.894
'[01:51:23.324 05/09/2075]',-0.781,-4.689,-10.159,4.689,9.377,-5.079,-12.503,-3.126,9.768,-12.112,-13.675,-0.391,-14.847,8.987,-29.695,19.927,-8.596,-58.608,10.940,-0.781,-0.391,1.172,-29.695
'[01:51:23.328 05/09/2075]',0.391,-5.861,-11.331,5.079,9.377,-2.344,-12.112,-6.642,9.377,-8.987,-2.344,-10.940,-14.847,15.238,-3.907,-8.596,-6.642,-50.403,12.112,0.781,0.391,1.563,-3.907
'[01:51:23.332 05/09/2075]',-3.126,-13.284,-23.053,20.708,4.689,-5.470,-12.894,-5.470,11.331,-0.391,-16.410,-8.987,-16.020,0.391,7.814,-5.079,-3.126,-26.960,23.834,3.907,2.344,-10.159,7.814
'[01:51:23.336 05/09/2075]',-10.940,-17.973,2.344,4.689,0.000,-5.470,-11.331,-3.907,10.940,-6.252,-14.457,-5.861,-15.238,-5.861,0.391,5.470,-12.503,-66.422,-1.563,3.126,2.735,-8.596,0.391
'[01:51:23.340 05/09/2075]',-11.331,-22.271,0.391,10.549,0.000,-5.861,-10.940,-4.689,13.675,-3.907,-15.629,-12.112,-14.457,5.470,-11.722,3.516,-12.894,-43.370,0.391,9.768,4.689,4.298,-11.722
'[01:51:23.344 05/09/2075]',-15.238,-17.973,6.252,-2.344,-1.172,-7.033,-10.159,-9.377,16.410,3.907,-27.350,-12.894,-16.410,1.954,-13.284,8.205,-5.470,7.814,-5.470,7.424,4.298,0.781,-13.284
'[01:51:23.348 05/09/2075]',-19.145,-10.549,11.331,-11.722,-3.907,-6.642,-10.549,-7.424,13.284,-5.470,-20.317,-11.331,-18.364,3.516,-13.284,3.907,-14.847,-35.165,-10.549,1.954,7.424,1.172,-13.284
'[01:51:23.352 05/09/2075]',-18.755,-1.563,-2.344,-10.940,-7.033,-9.768,-10.940,-5.470,4.689,-10.159,-13.675,-12.112,-24.615,11.331,-14.066,-3.516,-19.927,-58.999,3.126,-5.470,5.470,5.861,-14.066
'[01:51:23.355 05/09/2075]',-15.238,0.000,-4.689,-19.536,-9.377,-8.596,-9.377,-11.722,1.563,0.391,-22.662,-16.020,-24.615,13.284,-12.503,-11.722,-12.112,-6.252,5.470,-1.954,0.000,5.079,-12.503
'[01:51:23.359 05/09/2075]',-15.238,-5.079,-8.987,-11.331,-12.894,-9.377,-8.987,-9.377,-2.344,-0.391,-24.615,-8.987,-29.695,6.642,-4.689,-8.205,-10.549,-19.927,9.768,-4.298,1.954,-2.735,-4.689
'[01:51:23.363 05/09/2075]',-12.894,-16.020,-16.020,3.907,-10.940,-13.284,-10.549,-5.861,-7.424,-19.927,-3.907,-3.907,-24.615,0.391,-7.814,-1.954,-23.053,-76.972,16.801,3.126,3.907,-8.205,-7.814
'[01:51:23.367 05/09/2075]',-9.768,-19.927,-19.145,3.907,-8.205,-14.847,-10.159,-10.940,-8.596,-21.490,-1.954,-1.563,-26.569,-3.516,-3.907,0.781,-21.490,-31.258,19.927,8.596,-2.344,-12.112,-3.907
'[01:51:23.371 05/09/2075]',-10.549,-19.145,-31.648,12.112,-6.252,-14.847,-12.112,-14.066,-5.861,-4.298,-17.973,-8.596,-28.132,7.424,-7.033,-8.596,-14.457,29.304,32.430,8.596,2.344,-8.205,-7.033
'[01:51:23.375 05/09/2075]',-12.503,-23.443,-31.258,16.801,-8.987,-20.708,-11.722,-7.033,-13.284,-19.536,0.781,-5.861,-26.960,10.940,-14.457,-6.252,-25.788,-33.993,32.039,13.675,3.907,-5.861,-14.457
'[01:51:23.379 05/09/2075]',-8.987,-10.159,-12.894,-12.894,-9.377,-16.801,-7.814,-10.159,-16.020,-33.211,18.755,-10.940,-28.132,10.549,-18.755,-4.689,-35.946,-65.641,13.675,4.298,-1.172,-3.516,-18.755
'[01:51:23.383 05/09/2075]',-8.987,-6.252,-17.192,-13.284,-12.894,-13.675,-4.298,-14.847,-9.377,-13.284,1.172,-16.020,-24.615,37.900,-40.244,-10.159,-21.880,5.079,17.973,3.516,7.424,15.238,-40.244
'[01:51:23.387 05/09/2075]',-16.020,-4.689,-2.344,-18.755,-18.755,-13.675,0.000,-8.596,-5.861,-7.424,-9.377,-9.377,-19.927,18.364,-17.192,-12.503,-17.973,19.927,3.126,2.344,11.722,1.954,-17.192
'[01:51:23.391 05/09/2075]',-20.708,-0.781,2.344,-17.192,-22.271,-10.549,0.781,-4.298,-7.033,-19.927,6.642,-0.391,-18.755,7.814,-10.159,0.781,-28.132,-31.648,-1.563,1.172,12.112,-7.814,-10.159
'[01:51:23.395 05/09/2075]',-15.238,2.344,-12.503,-9.377,-19.145,-6.642,0.781,-8.596,-7.033,-17.973,8.987,0.391,-22.662,8.596,-1.563,-0.391,-22.271,-8.205,13.284,3.907,0.391,-9.768,-1.563
'[01:51:23.398 05/09/2075]',-16.410,1.563,-16.020,1.172,-18.364,-7.424,0.781,-3.907,-10.159,-9.768,1.172,5.861,-25.788,7.033,4.689,1.563,-13.675,-5.861,16.801,3.126,0.391,-13.675,4.689
'[01:51:23.402 05/09/2075]',-14.457,0.000,-16.801,7.424,-16.801,-5.861,-0.781,1.563,-17.582,-15.629,12.503,12.112,-31.258,8.205,-0.391,14.066,-18.364,-57.436,17.582,3.516,-6.252,-12.503,-0.391
'[01:51:23.406 05/09/2075]',-5.470,2.344,-21.880,8.987,-8.205,-2.344,-1.954,-1.563,-15.629,-2.344,6.642,3.516,-29.695,20.708,-5.470,6.642,-9.377,-16.410,22.662,-1.954,-0.391,-5.079,-5.470
'[01:51:23.410 05/09/2075]',-12.894,3.516,-14.457,1.172,-12.503,-2.344,0.391,-5.861,-13.284,13.675,-1.172,-0.391,-30.085,37.118,-9.768,2.344,4.298,27.350,15.238,-6.252,5.470,3.126,-9.768
'[01:51:23.414 05/09/2075]',-17.582,5.470,3.907,-0.391,-15.238,0.391,3.516,3.126,-15.238,3.907,13.675,8.987,-26.569,32.821,-11.722,17.582,-4.689,-21.880,-3.126,-8.987,10.549,1.172,-11.722
'[01:51:23.418 05/09/2075]',-17.192,11.331,1.172,5.079,-14.847,3.907,4.689,7.033,-14.847,0.391,26.178,9.768,-28.523,35.556,-3.516,18.364,-7.033,-36.728,-0.391,-11.722,5.861,2.735,-3.516
'[01:51:23.422 05/09/2075]',-12.503,17.192,8.596,-3.126,-14.457,9.768,10.940,3.516,-5.861,18.364,9.768,6.642,-23.443,29.695,3.516,18.755,7.814,32.430,-7.814,-15.238,-3.516,5.079,3.516
'[01:51:23.426 05/09/2075]',-10.549,16.020,15.238,4.298,-14.066,15.238,12.503,11.331,-3.126,17.973,8.596,12.503,-21.490,23.834,0.781,33.602,7.814,5.470,-14.457,-12.894,-8.205,2.735,0.781
'[01:51:23.430 05/09/2075]',-3.907,11.331,2.735,15.238,-10.940,16.410,10.159,10.549,-5.861,3.907,20.708,10.940,-21.490,16.801,3.516,31.258,0.391,-56.654,-1.954,-9.768,-10.940,-1.954,3.516
'[01:51:23.434 05/09/2075]',3.516,7.424,-4.298,12.894,-6.642,17.582,7.424,2.735,-1.954,14.847,8.205,0.781,-19.927,12.894,5.470,23.053,12.894,3.516,5.079,-7.814,-12.112,-9.768,5.470
'[01:51:23.438 05/09/2075]',1.954,2.735,-10.159,12.894,-9.768,15.238,3.907,0.000,-5.079,32.430,-12.894,-3.907,-26.960,17.973,-1.954,21.490,17.973,49.621,10.940,-3.516,-10.549,-15.629,-1.954
'[01:51:23.441 05/09/2075]',1.563,-6.642,-25.788,30.476,-8.596,7.033,-2.344,4.298,-10.940,11.722,0.000,-1.563,-30.085,6.642,2.344,19.145,2.735,-23.834,26.569,-0.781,-12.894,-19.536,2.344
'[01:51:23.445 05/09/2075]',0.391,-6.642,-23.834,24.615,-4.689,5.861,-7.814,1.954,-9.768,1.954,10.159,-8.987,-28.913,10.549,-1.563,12.112,-3.516,-50.403,24.615,-0.781,-8.205,-19.145,-1.563
'[01:51:23.449 05/09/2075]',-0.781,-2.344,-11.331,3.907,-1.172,4.689,-11.331,-2.344,-7.424,18.364,-12.894,-16.020,-30.867,12.503,-8.987,8.987,5.861,3.907,12.112,-3.907,-10.940,-13.675,-8.987
'[01:51:23.453 05/09/2075]',-7.424,-7.814,-7.424,4.689,-3.126,1.172,-14.066,-0.781,-6.252,18.364,-23.053,-13.675,-32.430,8.987,-10.549,8.205,2.344,-14.457,8.205,-1.563,-5.470,-14.457,-10.549
'[01:51:23.457 05/09/2075]',-7.814,-7.424,0.781,-7.033,-2.735,0.000,-16.020,-1.563,-5.470,5.861,-16.020,-13.675,-30.867,12.894,-25.006,12.894,-6.642,-46.886,0.000,-0.391,-4.298,-10.940,-25.006
'[01:51:23.461 05/09/2075]',-3.907,-5.470,-5.079,-14.457,-3.907,-0.391,-15.238,-8.596,-7.814,10.159,-19.536,-19.145,-34.383,14.066,-26.178,8.596,-3.126,-10.549,5.861,-0.391,-7.424,-12.894,-26.178
'[01:51:23.465 05/09/2075]',-10.159,-8.596,-16.410,-1.172,-8.205,-6.252,-13.675,-7.033,-3.516,5.079,-25.397,-14.066,-34.774,7.814,-16.410,5.079,-7.033,-28.132,17.192,0.391,-7.814,-13.675,-16.410
'[01:51:23.469 05/09/2075]',-8.596,-11.722,-28.132,10.159,-9.768,-9.377,-15.629,-2.735,-5.861,-10.940,-12.894,-8.987,-30.867,-3.516,-15.238,10.159,-19.145,-77.363,28.913,3.126,-8.205,-21.490,-15.238
'[01:51:23.473 05/09/2075]',-7.424,-8.596,-32.430,9.768,-10.159,-8.596,-14.847,-4.689,-4.689,-1.172,-16.020,-12.894,-29.695,6.252,-16.801,4.298,-15.238,-20.708,33.211,3.126,-11.331,-8.596,-16.801
'[01:51:23.477 05/09/2075]',-9.768,-5.861,-21.490,-1.563,-11.331,-7.424,-13.284,-5.861,-7.424,4.689,-19.145,-10.549,-35.165,16.410,-13.675,0.000,-8.987,8.987,22.271,3.126,-10.940,-5.861,-13.675
'[01:51:23.480 05/09/2075]',-6.252,-7.424,-9.768,-13.675,-11.722,-6.642,-14.457,-3.907,-16.020,-10.159,-0.391,-0.781,-34.774,12.112,-14.457,9.377,-19.145,-44.151,10.549,5.861,-13.284,-11.722,-14.457
'[01:51:23.484 05/09/2075]',-0.781,-7.424,-11.722,-16.020,-8.596,-4.689,-15.238,-6.642,-18.364,-16.020,15.629,-0.781,-34.774,31.648,-28.913,11.331,-19.536,-35.946,12.503,5.861,-12.112,0.391,-28.913
'[01:51:23.488 05/09/2075]',0.781,-3.126,-8.205,-26.960,-8.205,-2.344,-15.629,-8.987,-14.457,0.781,1.172,1.954,-35.556,23.053,-8.987,10.549,-8.596,30.476,8.987,3.516,-14.066,-17.582,-8.987
'[01:51:23.492 05/09/2075]',0.391,-7.814,-17.192,-15.238,-10.549,-5.079,-16.020,-6.642,-14.847,-11.331,10.549,5.861,-30.085,3.907,0.391,15.238,-17.582,-15.238,17.973,5.861,-5.079,-39.072,0.391
'[01:51:23.496 05/09/2075]',3.126,-4.689,-26.569,-5.079,-6.642,-5.861,-14.457,-4.298,-14.066,-26.178,32.821,3.907,-28.132,13.675,-5.470,16.801,-29.304,-70.720,27.350,3.516,-7.814,-26.569,-5.470
'[01:51:23.500 05/09/2075]',1.954,3.516,-18.755,-9.768,-4.298,-4.298,-7.424,-4.689,-9.768,-12.894,21.099,3.516,-28.132,15.629,0.000,13.675,-15.629,3.126,19.536,-1.954,-4.689,-22.271,0.000
'[01:51:23.504 05/09/2075]',-0.391,7.424,-1.954,-18.755,-3.516,-6.642,1.563,-3.907,-9.768,5.861,5.079,0.391,-33.993,16.801,9.768,8.596,-6.642,42.198,2.735,-7.033,-0.781,-22.271,9.768
'[01:51:23.508 05/09/2075]',1.172,9.377,-8.987,-6.252,0.391,-8.205,2.735,0.391,-8.205,-9.768,19.536,2.344,-28.913,16.410,-2.344,17.192,-16.020,-21.880,9.768,-6.642,-7.814,-8.987,-2.344
'[01:51:23.512 05/09/2075]',-2.344,11.331,-7.424,-5.470,-5.079,-3.907,6.642,-0.781,-5.079,-13.675,32.430,-1.172,-28.132,21.099,3.126,14.847,-16.801,-23.053,8.205,-7.033,-3.126,-12.894,3.126
'[01:51:23.516 05/09/2075]',-8.596,7.814,-3.907,0.391,-10.549,-3.516,10.159,0.391,0.000,4.298,14.847,-2.344,-26.569,19.536,8.987,12.894,-3.126,32.821,4.689,-3.907,-3.516,-12.112,8.987
'[01:51:23.520 05/09/2075]',-12.894,3.126,-7.033,15.238,-14.066,-3.126,10.940,4.689,-2.735,5.861,15.629,1.172,-28.132,26.178,6.642,14.847,-4.298,6.252,7.814,-0.781,-1.172,-4.689,6.642
'[01:51:23.523 05/09/2075]',-9.377,0.391,-6.252,24.225,-13.675,1.172,10.940,8.987,-3.126,3.907,25.006,1.954,-28.523,30.085,8.987,15.629,-2.344,5.079,7.033,-1.172,0.000,-1.172,8.987
'[01:51:23.527 05/09/2075]',-8.596,6.642,9.377,10.549,-7.033,6.642,14.457,3.516,0.391,14.066,21.099,-1.954,-28.132,37.118,10.549,11.722,12.503,44.933,-8.596,-8.205,2.344,5.079,10.549
'[01:51:23.531 05/09/2075]',-9.768,7.814,7.814,14.457,-3.907,7.814,10.940,6.252,-1.172,7.033,19.927,0.781,-23.053,29.695,5.470,13.284,9.768,1.172,-7.033,-12.503,12.894,-0.391,5.470
'[01:51:23.535 05/09/2075]',-7.033,12.112,-7.814,24.615,0.391,11.722,6.252,3.126,0.391,-7.033,31.648,0.391,-18.364,25.397,1.954,15.238,3.126,-46.886,8.596,-17.582,14.847,-2.735,1.954
'[01:51:23.539 05/09/2075]',-7.033,18.364,9.768,6.252,2.344,17.192,9.377,-0.781,5.470,9.377,20.708,-6.252,-15.629,30.085,3.126,10.549,13.284,-0.391,-8.987,-19.145,13.675,0.781,3.126
'[01:51:23.543 05/09/2075]',-10.940,19.145,1.172,11.331,-0.391,16.410,8.596,-2.344,6.642,23.053,1.954,-5.079,-13.284,35.165,-8.987,14.457,21.490,25.006,-0.391,-19.536,14.847,4.298,-8.987
'[01:51:23.547 05/09/2075]',-8.205,16.801,10.159,8.205,0.391,17.192,6.252,2.344,5.079,16.020,12.894,0.000,-14.847,33.211,-2.735,17.582,14.847,-23.834,-9.377,-17.192,6.252,5.470,-2.735
'[01:51:23.551 05/09/2075]',-4.689,10.549,2.735,21.490,0.781,18.364,3.907,5.861,8.596,23.053,11.722,-4.689,-10.549,32.039,-3.907,21.099,20.708,3.516,-1.954,-12.503,7.814,3.516,-3.907
'[01:51:23.555 05/09/2075]',-7.424,13.284,12.112,11.331,0.781,20.317,4.298,2.735,18.364,45.714,-15.629,-5.861,-8.987,34.383,-6.642,23.443,35.556,68.376,-11.331,-17.192,12.894,4.689,-6.642
'[01:51:23.559 05/09/2075]',-8.205,10.159,17.973,15.238,3.907,17.192,1.563,10.940,15.629,32.039,-7.814,0.391,-12.503,26.178,-3.126,29.304,27.350,0.781,-17.192,-19.536,16.020,0.391,-3.126
'[01:51:23.563 05/09/2075]',-5.470,8.205,17.973,14.066,5.470,18.755,1.172,8.205,14.066,18.364,8.596,-4.689,-16.410,33.993,-8.205,26.960,17.973,-57.436,-17.192,-17.192,14.066,3.907,-8.205
'[01:51:23.566 05/09/2075]',-3.516,8.205,19.145,0.000,5.470,16.801,1.954,-0.391,17.192,31.258,-13.284,-12.503,-19.536,38.681,-21.490,25.397,28.523,12.112,-18.364,-16.020,8.596,8.205,-21.490
'[01:51:23.570 05/09/2075]',-5.079,5.470,12.503,0.391,3.907,8.596,-1.172,1.563,13.675,35.556,-26.960,-14.457,-21.490,28.523,-10.549,10.940,29.695,33.602,-11.722,-12.112,2.344,5.079,-10.549
'[01:51:23.574 05/09/2075]',-6.642,1.172,1.172,5.079,0.781,4.298,-7.424,2.735,3.516,16.801,-11.331,-16.020,-25.006,19.145,-15.629,14.457,9.768,-27.741,-0.391,-5.861,-3.516,-0.391,-15.629
'[01:51:23.578 05/09/2075]',-8.987,-6.642,-7.033,14.457,-1.172,0.391,-10.159,1.563,3.516,10.159,-6.252,-18.755,-25.397,13.284,-16.801,16.410,3.907,-21.880,7.814,-0.781,1.954,-7.033,-16.801
'[01:51:23.582 05/09/2075]',-17.192,-2.344,-7.814,12.112,-2.735,-2.735,-12.112,1.954,-1.954,19.145,-18.755,-8.596,-32.821,13.675,-10.549,17.192,8.987,2.735,8.596,-3.907,3.126,-7.033,-10.549
'[01:51:23.586 05/09/2075]',-19.536,0.391,1.563,-1.172,-3.126,-1.563,-15.238,1.954,-6.642,11.331,-14.847,-1.954,-35.556,13.284,-12.894,22.271,1.954,-45.324,-0.781,-8.987,2.735,-7.814,-12.894
'[01:51:23.590 05/09/2075]',-14.847,-3.516,-8.205,3.126,-1.172,-1.172,-17.582,-2.344,-4.298,9.768,-14.457,-4.689,-35.556,23.834,-32.039,28.913,2.344,-25.006,8.987,-5.861,5.861,-6.252,-32.039
'[01:51:23.594 05/09/2075]',-14.066,-1.172,-16.801,1.172,-0.391,-3.907,-18.755,-7.033,-0.391,11.331,-19.536,-10.549,-28.913,20.708,-26.569,14.847,9.377,24.225,17.582,-2.735,8.987,-10.940,-26.569
'[01:51:23.598 05/09/2075]',-12.894,-4.689,-10.549,-7.814,-0.391,-12.112,-18.364,-4.298,-0.781,-7.814,-10.549,-6.252,-28.132,11.722,-19.536,9.377,-4.689,-27.350,11.331,-2.735,1.172,-7.814,-19.536
'[01:51:23.602 05/09/2075]',-10.940,-10.940,-4.298,-7.814,-1.563,-17.973,-15.238,0.000,1.954,-19.145,0.391,-3.516,-26.960,17.973,-30.085,17.582,-17.582,-52.357,5.079,3.516,5.861,-10.159,-30.085
'[01:51:23.605 05/09/2075]',-15.629,-12.112,-7.033,-2.344,-1.563,-25.397,-8.987,-0.781,6.252,-11.722,-4.298,-5.470,-26.960,10.940,-9.377,8.987,-12.894,3.126,7.814,8.205,3.126,-11.722,-9.377
'[01:51:23.609 05/09/2075]',-16.020,-14.066,3.907,-13.284,-4.689,-28.913,-3.907,0.000,8.596,-9.768,-2.344,2.735,-31.648,18.364,1.563,8.987,-13.675,-3.907,-3.126,3.126,1.563,-8.205,1.563
'[01:51:23.613 05/09/2075]',-15.238,-17.582,6.642,-4.298,-4.298,-29.695,0.391,3.907,4.298,-27.350,20.708,6.252,-31.258,21.880,-5.470,19.145,-25.397,-60.952,-5.861,3.907,9.377,-7.424,-5.470
'[01:51:23.617 05/09/2075]',-12.894,-15.629,-14.847,14.847,-3.126,-28.913,0.000,4.689,2.735,-25.006,25.788,8.987,-29.695,17.582,1.172,23.053,-16.410,-8.987,15.629,6.252,11.331,-17.582,1.172
'[01:51:23.621 05/09/2075]',-12.503,-5.470,-6.252,-1.954,-4.298,-23.443,1.172,-0.391,3.516,-5.470,10.940,0.391,-28.913,25.788,14.066,-1.954,-7.033,50.794,7.033,-0.391,14.847,-13.284,14.066
'[01:51:23.625 05/09/2075]',-13.284,-4.298,2.735,2.344,-7.424,-20.708,3.516,11.331,-5.079,-20.708,28.913,11.722,-33.993,20.317,18.364,8.596,-17.192,-10.549,-1.954,0.391,8.596,-15.238,18.364
'[01:51:23.629 05/09/2075]',-12.112,0.000,-7.033,11.331,-6.252,-18.755,5.079,10.940,-7.033,-28.523,45.714,7.424,-28.913,26.569,12.503,5.470,-23.834,-44.151,7.814,6.252,4.298,-9.377,12.503
'[01:51:23.633 05/09/2075]',-10.940,3.516,2.735,-3.126,-7.814,-14.457,10.159,4.689,-2.344,-8.205,25.397,-2.344,-22.662,30.476,7.814,-3.907,-11.722,34.383,-1.954,-0.781,12.503,-2.735,7.814
'[01:51:23.637 05/09/2075]',-13.675,0.781,6.252,5.079,-9.377,-15.238,12.894,10.549,-0.781,0.781,14.457,-0.391,-22.271,44.933,-8.596,0.391,-10.159,49.621,-5.470,1.954,11.722,17.582,-8.596
'[01:51:23.641 05/09/2075]',-9.377,6.252,1.563,5.079,-8.205,-11.331,12.894,11.722,-4.689,-9.768,28.132,-4.298,-17.973,53.919,-31.258,3.907,-18.755,3.516,-0.781,-6.252,19.927,24.615,-31.258
'[01:51:23.645 05/09/2075]',-10.940,10.159,1.172,6.642,-7.814,-5.079,13.675,7.424,-6.642,-2.735,31.258,-8.987,-19.536,44.151,-14.066,1.563,-10.940,26.178,-0.391,-11.722,30.476,5.470,-14.066
'[01:51:23.648 05/09/2075]',-15.238,4.689,9.768,11.722,-8.205,-0.781,12.503,8.596,-3.516,3.516,17.192,-6.642,-26.178,31.648,0.000,3.126,-3.516,31.648,-8.987,-3.907,22.662,-1.954,0.000
'[01:51:23.652 05/09/2075]',-17.582,6.252,4.689,16.020,-9.768,1.563,8.205,10.549,-3.516,-5.470,22.662,-4.298,-28.132,22.271,3.126,9.768,-6.252,-23.053,-3.907,-7.033,16.410,-11.331,3.126
'[01:51:23.656 05/09/2075]',-19.927,7.814,2.344,12.894,-9.768,4.298,5.079,4.689,3.126,3.516,15.629,-15.629,-28.132,21.099,10.159,2.344,0.391,19.536,-1.563,-1.954,10.549,-13.284,10.159
'[01:51:23.660 05/09/2075]',-21.099,-1.563,-9.377,26.178,-11.722,-0.391,2.735,1.563,9.377,10.940,0.391,-22.662,-26.960,30.476,1.172,-6.252,7.814,65.641,10.159,7.814,13.675,-5.079,1.172
'[01:51:23.664 05/09/2075]',-21.490,8.596,7.814,-5.470,-13.675,-2.344,2.344,3.516,7.033,-2.735,6.642,-12.112,-29.304,35.946,-10.549,3.126,-3.126,12.503,-7.033,-3.126,6.252,0.391,-10.549
'[01:51:23.668 05/09/2075]',-17.973,15.238,0.000,-3.907,-13.675,-0.781,1.172,5.470,0.781,-8.987,19.536,-12.503,-32.430,40.635,-8.596,-0.391,-8.987,-15.238,0.781,-6.252,10.159,-4.298,-8.596
'[01:51:23.672 05/09/2075]',-16.410,10.159,7.424,-5.861,-11.722,0.781,1.563,3.126,8.987,10.940,-6.642,-12.112,-25.006,31.258,-2.735,-3.126,1.954,44.933,-6.642,-7.033,9.377,-0.781,-2.735
'[01:51:23.676 05/09/2075]',-14.847,7.033,4.689,6.252,-8.205,4.298,1.563,5.470,10.159,12.503,-12.894,-2.735,-21.490,23.443,-1.563,5.470,2.344,8.987,-3.907,-4.298,5.861,-3.516,-1.563
'[01:51:23.680 05/09/2075]',-11.722,8.987,-2.344,13.675,-2.344,8.596,-1.172,3.126,10.549,0.391,5.470,-5.861,-17.192,20.708,6.252,0.000,-2.344,-55.482,3.126,-5.861,3.516,-2.344,6.252
'[01:51:23.684 05/09/2075]',-11.331,2.344,-2.735,20.708,1.563,10.940,-3.126,-1.172,17.192,9.377,-8.596,-11.722,-13.675,18.755,-7.814,8.596,9.768,10.549,3.516,-5.079,8.987,3.126,-7.814
'[01:51:23.688 05/09/2075]',-16.020,2.735,-14.066,31.648,2.735,10.159,-3.126,-6.252,19.145,25.006,-30.476,-9.768,-15.629,19.927,-16.801,15.629,21.099,55.873,14.847,-2.344,16.410,-0.781,-16.801
'[01:51:23.691 05/09/2075]',-16.410,17.973,15.629,-12.112,2.344,10.940,-3.516,-5.470,13.284,0.000,-10.549,-1.172,-23.443,16.410,-17.973,25.006,11.331,-17.192,-14.847,-19.536,5.470,-2.735,-17.973
'[01:51:23.695 05/09/2075]',-16.410,10.940,8.987,-5.079,0.391,11.331,-5.861,-7.033,14.847,-12.112,-1.172,-4.689,-22.662,34.383,-45.324,29.304,6.642,-48.840,-8.205,-14.066,12.503,8.987,-45.324
'[01:51:23.699 05/09/2075]',-17.192,5.079,10.159,-7.814,-2.735,10.549,-3.516,-12.503,19.145,1.563,-23.834,-4.689,-23.053,16.801,-12.112,10.549,16.410,8.596,-9.377,-5.861,12.503,-10.940,-12.112
'[01:51:23.703 05/09/2075]',-21.490,2.735,20.708,-13.675,-6.252,9.377,-4.689,-8.987,15.629,0.391,-29.304,1.563,-23.834,4.689,-4.298,10.940,14.066,-9.377,-19.927,-2.344,6.252,-12.112,-4.298
'[01:51:23.707 05/09/2075]',-21.099,0.391,0.391,6.642,-5.861,7.424,-8.987,-4.689,15.629,-8.205,-16.410,-1.172,-26.178,11.331,-11.722,15.629,3.516,-37.118,0.391,-1.563,13.284,-11.331,-11.722
'[01:51:23.711 05/09/2075]',-21.099,4.689,-0.391,0.781,-3.907,7.033,-10.549,-7.814,13.675,-4.298,-22.662,-5.470,-19.145,-5.861,-8.205,14.457,6.642,1.954,1.172,0.391,12.503,-17.973,-8.205
'[01:51:23.715 05/09/2075]',-20.317,4.298,-6.642,4.689,-3.126,0.781,-13.675,-0.781,6.252,-7.814,-17.192,-0.391,-24.225,-4.298,0.000,8.987,2.735,-16.020,7.424,-0.391,5.861,-12.112,0.000
'[01:51:23.719 05/09/2075]',-20.317,3.516,-22.271,14.066,-7.424,-5.861,-15.238,4.689,-0.391,-23.053,1.563,2.735,-26.178,-2.344,-12.894,20.708,-8.205,-68.376,23.053,-3.126,10.159,-18.364,-12.894
'[01:51:23.723 05/09/2075]',-15.238,-0.391,-10.549,0.000,-10.940,-6.642,-11.331,3.126,-3.126,-12.112,-3.126,-2.344,-25.006,-3.516,-2.735,8.987,-2.735,-12.503,11.331,4.298,5.470,-20.317,-2.735
'[01:51:23.727 05/09/2075]',-16.020,0.391,-2.344,-4.298,-14.066,-7.033,-5.079,4.298,-5.470,-4.689,-6.252,2.735,-20.317,-10.940,6.252,8.987,4.298,18.755,3.126,2.735,10.159,-28.913,6.252
'[01:51:23.730 05/09/2075]',-19.536,0.391,-2.735,3.907,-14.847,-10.940,-1.172,9.768,-8.596,-18.755,5.079,14.457,-16.410,-14.066,-6.642,28.913,-5.861,-35.946,3.516,1.563,19.145,-31.648,-6.642
'[01:51:23.734 05/09/2075]',-19.145,4.689,7.033,-3.126,-14.457,-7.424,0.391,10.159,-5.470,-19.145,8.596,8.987,-11.722,8.205,-19.536,15.629,-7.814,-26.178,-6.252,2.344,18.364,-6.642,-19.536
'[01:51:23.738 05/09/2075]',-25.006,12.503,-2.735,0.781,-14.066,-6.642,0.391,6.252,-3.907,0.000,-16.801,10.549,-4.689,0.781,-16.410,9.768,1.172,39.853,3.516,-1.563,28.523,-10.940,-16.410
'[01:51:23.742 05/09/2075]',-28.913,10.549,-10.159,16.801,-17.582,-9.377,1.563,13.284,-7.814,-9.768,-10.159,14.847,-12.112,2.735,-13.675,9.768,-6.642,-8.596,10.940,0.391,26.960,-13.284,-13.675
'[01:51:23.746 05/09/2075]',-27.350,7.814,-1.954,2.344,-22.662,-7.424,1.563,8.205,-14.457,-24.615,6.252,11.722,-13.675,3.907,-14.847,3.516,-22.662,-65.250,2.735,8.987,23.053,-16.020,-14.847
'[01:51:23.750 05/09/2075]',-24.225,21.490,-12.894,-4.689,-23.443,-1.172,2.344,1.563,-14.847,-9.768,-8.205,6.252,-8.596,1.563,-18.364,-1.172,-12.894,11.722,13.675,-1.563,22.662,-14.066,-18.364
'[01:51:23.754 05/09/2075]',-26.178,27.741,0.391,-21.880,-25.788,0.391,8.205,-2.344,-10.940,3.907,-24.225,5.079,-6.642,2.735,-20.317,-1.172,-6.252,53.919,0.391,-10.940,29.695,-12.112,-20.317
'[01:51:23.758 05/09/2075]',-21.880,26.178,7.424,-26.569,-21.490,3.126,3.126,0.000,-8.205,-11.722,-6.252,3.907,-1.954,23.053,-32.039,-10.940,-21.490,-9.768,-6.642,-10.549,26.178,15.629,-32.039
'[01:51:23.762 05/09/2075]',-22.271,26.569,0.391,-25.006,-20.708,5.079,1.172,-4.298,-8.987,-17.582,3.516,-3.907,2.344,17.582,-35.556,-12.503,-22.662,-19.145,0.391,-11.722,33.211,12.894,-35.556
'[01:51:23.766 05/09/2075]',-24.615,17.192,-5.861,-13.284,-20.708,0.391,1.172,-6.642,-8.987,1.954,-13.675,-10.549,-5.079,2.735,-14.847,-14.066,-10.159,35.556,6.642,-4.298,32.821,-8.205,-14.847
'[01:51:23.770 05/09/2075]',-27.350,9.768,-12.112,3.907,-21.490,-1.563,-0.781,-0.391,-10.159,1.563,-10.549,-8.596,-4.298,-0.781,-14.066,-8.596,-14.457,1.172,12.894,2.344,27.350,-7.033,-14.066
'[01:51:23.773 05/09/2075]',-27.350,8.205,-19.145,15.629,-19.145,0.391,-0.781,-1.563,-16.020,5.470,-1.954,-12.894,-8.596,-11.331,-3.126,-2.344,-14.847,3.516,19.927,5.079,31.258,-26.960,-3.126
'[01:51:23.777 05/09/2075]',-24.615,18.755,-21.099,5.470,-15.238,2.344,0.391,-8.205,-15.238,17.582,-8.596,-19.927,-8.205,1.172,-16.020,-2.735,-3.907,42.979,21.880,-3.907,32.430,-18.364,-16.020
'[01:51:23.781 05/09/2075]',-26.569,23.443,-5.470,-6.252,-12.112,3.907,1.172,-8.205,-13.284,13.284,-3.516,-14.847,-5.861,12.894,-16.410,-7.814,-7.814,4.689,6.252,-10.159,35.165,-2.344,-16.410
'[01:51:23.785 05/09/2075]',-21.490,23.834,-3.516,-9.768,-7.814,6.252,-1.172,-7.814,-14.847,0.391,12.503,-16.020,-11.722,24.225,-20.708,-8.987,-14.457,-47.668,4.298,-8.987,36.728,-2.344,-20.708
'[01:51:23.789 05/09/2075]',-25.788,22.662,-3.907,-14.066,-11.331,5.079,-1.172,-13.284,-7.814,10.549,-1.172,-26.960,1.954,16.801,-26.178,-17.973,-7.814,-6.642,4.689,-7.424,39.463,6.642,-26.178
'[01:51:23.793 05/09/2075]',-29.304,19.145,1.563,-11.722,-13.284,4.298,0.391,-10.940,-2.735,21.099,-12.503,-27.350,-0.391,17.192,-17.582,-20.317,0.391,17.192,-0.781,-4.298,37.118,7.033,-17.582
'[01:51:23.797 05/09/2075]',-26.569,13.675,-12.894,11.331,-13.675,3.126,-3.516,0.391,-0.391,5.079,-2.344,-19.927,5.861,5.079,-17.582,-11.331,-7.814,-38.291,13.675,-0.391,42.198,-4.298,-17.582
'[01:51:23.801 05/09/2075]',-27.741,10.940,3.516,0.391,-17.973,4.689,-0.781,1.172,0.391,8.987,-5.079,-18.364,3.126,6.252,-22.662,-1.954,-2.344,-5.470,-2.735,0.391,35.165,0.391,-22.662
'[01:51:23.805 05/09/2075]',-23.053,12.112,-2.735,6.642,-11.722,3.516,-1.563,2.735,11.331,28.913,-33.211,-16.410,0.391,9.377,-16.801,-0.781,10.159,56.654,3.516,0.391,30.867,-0.781,-16.801
'[01:51:23.809 05/09/2075]',-23.053,14.847,2.735,0.000,-12.112,0.781,-3.516,9.377,12.112,12.112,-26.569,-4.689,2.344,1.954,-21.880,9.377,3.516,-10.159,-1.954,-2.735,26.569,-1.563,-21.880
'[01:51:23.813 05/09/2075]',-23.834,10.549,2.344,0.000,-12.503,0.391,-5.470,6.642,10.159,-2.344,-10.159,-8.987,5.861,1.954,-21.880,2.344,-5.470,-68.767,-1.563,0.391,23.443,3.516,-21.880
'[01:51:23.816 05/09/2075]',-22.271,7.033,4.689,-7.033,-12.112,-2.344,-5.079,3.516,11.331,12.894,-30.867,-10.549,0.000,4.689,-19.536,-2.344,7.033,-0.781,-3.907,3.907,17.973,4.298,-19.536
'[01:51:23.820 05/09/2075]',-21.880,3.516,7.033,-8.987,-16.020,-6.252,-5.470,8.596,7.814,15.629,-40.635,-1.954,-7.033,-2.735,-10.159,1.563,11.722,17.582,-6.252,4.298,14.847,-7.814,-10.159
'[01:51:23.824 05/09/2075]',-22.662,0.391,-2.735,5.470,-19.536,-9.768,-5.079,15.629,-1.172,-1.954,-24.225,5.470,-10.940,-8.205,-10.159,7.814,-5.079,-39.463,3.516,5.470,17.973,-17.973,-10.159
'[01:51:23.828 05/09/2075]',-20.708,3.907,-10.549,6.642,-19.927,-10.549,-2.344,13.675,-6.642,-7.424,-12.503,4.298,-21.490,0.391,-7.814,7.033,-7.814,-26.569,11.331,4.298,12.503,-19.536,-7.814
'[01:51:23.832 05/09/2075]',-25.397,4.298,-8.596,16.410,-18.755,-13.284,0.000,20.317,-5.861,-5.470,-20.708,17.192,-17.192,-8.205,-10.940,22.271,-6.252,1.563,9.377,3.516,17.192,-25.397,-10.940
'[01:51:23.836 05/09/2075]',-26.178,10.159,-3.126,12.112,-16.801,-14.066,0.781,24.615,-8.596,-16.801,-8.987,19.536,-8.205,-4.689,-15.238,14.457,-14.457,-38.681,3.907,0.391,20.708,-17.582,-15.238
'[01:51:23.840 05/09/2075]',-25.788,10.159,7.033,5.861,-15.629,-12.112,1.954,24.615,-8.596,-14.847,-3.907,15.629,-8.205,3.126,-19.536,12.503,-13.284,-10.940,-6.252,1.563,18.364,-7.033,-19.536
'[01:51:23.844 05/09/2075]',-22.271,10.159,21.099,-7.033,-13.675,-10.940,6.642,21.099,-7.424,-5.861,-8.987,17.582,-9.377,-7.814,0.391,12.503,-0.781,39.072,-20.317,6.252,12.894,-23.443,0.391
'[01:51:23.848 05/09/2075]',-20.708,10.549,16.801,-1.563,-16.020,-12.894,7.033,27.350,-14.457,-16.801,0.781,28.132,-12.112,-21.880,8.596,22.271,-7.814,-7.033,-16.020,3.907,15.238,-41.416,8.596
'[01:51:23.852 05/09/2075]',-20.708,10.549,8.205,5.470,-16.801,-13.284,7.814,27.350,-17.192,-16.801,5.470,27.350,-12.894,-3.126,-2.344,16.801,-10.940,-23.053,-7.424,3.907,14.457,-23.053,-2.344
'[01:51:23.855 05/09/2075]',-19.536,5.470,12.503,1.563,-19.536,-12.503,12.894,20.708,-20.708,-6.642,0.000,24.225,-16.020,-1.172,-3.516,17.192,-3.126,26.569,-11.722,4.689,19.145,-23.834,-3.516
'[01:51:23.859 05/09/2075]',-21.099,4.689,15.238,-1.172,-24.225,-10.940,12.894,21.099,-21.490,-3.126,-3.126,26.178,-13.284,6.642,-11.722,17.192,-3.516,20.708,-14.457,3.907,16.020,-14.457,-11.722
'[01:51:23.863 05/09/2075]',-21.880,3.907,4.689,11.722,-22.271,-9.768,10.940,21.099,-24.615,-21.880,18.755,27.741,-15.238,26.960,-32.430,20.708,-14.066,-44.542,-3.907,3.126,17.582,7.033,-32.430
'[01:51:23.867 05/09/2075]',-22.271,7.424,12.112,2.344,-19.145,-5.861,11.722,14.847,-19.145,-17.582,15.629,17.973,-11.722,5.861,-5.079,7.814,-9.377,0.391,-11.331,4.298,17.582,-9.768,-5.079
'[01:51:23.871 05/09/2075]',-20.317,19.927,10.159,-1.954,-12.894,-1.172,11.722,10.549,-10.549,6.252,-7.033,11.722,-11.722,-0.391,12.503,0.781,2.735,66.032,-9.377,-3.516,19.927,-23.834,12.503
'[01:51:23.875 05/09/2075]',-21.880,16.020,-2.344,15.629,-13.284,-2.735,6.252,18.364,-12.503,-11.331,0.391,16.410,-4.298,-16.801,5.470,8.205,-7.033,-3.126,3.126,0.391,14.457,-23.053,5.470
'[01:51:23.879 05/09/2075]',-16.801,15.238,15.629,-6.642,-9.768,0.391,5.079,11.331,-15.629,-21.880,13.284,6.252,-0.391,-25.788,5.079,2.735,-12.894,-37.509,-14.847,1.172,15.238,-27.350,5.079
'[01:51:23.883 05/09/2075]',-18.755,13.675,13.284,-13.675,-16.801,3.516,7.814,0.000,-12.894,3.516,-5.470,-5.079,0.000,-14.457,6.252,-12.503,3.516,43.370,-12.503,0.391,16.020,-21.880,6.252
'[01:51:23.887 05/09/2075]',-18.755,10.159,2.735,-3.126,-18.755,6.642,4.298,0.000,-17.192,8.205,-7.814,-6.642,1.563,-10.940,0.391,-14.457,5.079,42.198,-1.954,1.172,16.410,-10.549,0.391
'[01:51:23.891 05/09/2075]',-19.145,12.503,6.252,-3.516,-16.801,11.331,7.814,-5.470,-18.364,0.781,13.284,-10.940,3.516,-0.391,-3.516,-15.629,-2.344,-2.735,-5.470,2.344,22.271,-1.563,-3.516
'[01:51:23.895 05/09/2075]',-18.364,21.099,5.079,-3.907,-12.894,17.192,12.112,-11.722,-9.768,3.126,17.192,-15.238,11.331,0.000,-3.516,-11.331,1.563,19.536,-4.298,-3.516,25.397,1.172,-3.516
'[01:51:23.898 05/09/2075]',-20.708,23.053,-12.894,14.457,-12.112,15.238,10.940,-9.377,-5.861,7.033,5.861,-10.940,5.470,-3.516,-5.861,0.000,3.126,22.662,13.675,-3.126,17.582,0.391,-5.861
'[01:51:23.902 05/09/2075]',-23.443,21.490,-12.503,18.755,-9.377,13.675,8.205,-7.033,-1.172,-4.689,9.768,-7.033,2.735,-5.861,-9.768,10.159,-3.907,-24.225,13.284,0.781,11.722,0.391,-9.768
'[01:51:23.906 05/09/2075]',-27.741,23.443,-8.987,11.722,-6.252,12.112,4.689,-10.940,4.298,0.000,0.391,-17.192,0.000,-6.642,-12.503,7.424,-0.391,14.457,9.768,-3.126,20.317,-5.470,-12.503
'[01:51:23.910 05/09/2075]',-27.350,21.490,-8.596,4.689,-5.470,11.722,0.391,-15.238,9.377,10.159,-12.503,-25.788,-5.079,4.298,6.642,-23.053,8.987,58.999,9.377,-9.377,26.569,-1.172,6.642
'[01:51:23.914 05/09/2075]',-29.304,21.880,-2.735,-1.172,-2.344,10.940,-4.689,-14.457,2.344,3.126,-5.861,-23.053,-10.159,17.973,-4.298,-25.788,3.907,10.549,3.516,-12.894,29.695,12.894,-4.298
'[01:51:23.918 05/09/2075]',-23.443,21.880,5.079,-9.768,0.000,14.066,-7.033,-11.722,1.172,-8.205,6.252,-23.443,-3.126,15.238,-16.801,-18.364,-1.172,-25.006,-4.298,-13.675,30.867,12.112,-16.801
'[01:51:23.922 05/09/2075]',-20.317,21.880,-3.126,-5.861,0.391,14.066,-7.033,-14.457,5.470,14.066,-13.675,-23.443,-1.563,8.596,-12.112,-11.722,11.331,40.635,3.907,-13.675,13.284,15.238,-12.112
'[01:51:23.926 05/09/2075]',-18.755,17.192,-12.112,10.549,-1.954,12.112,-6.252,-5.470,0.391,15.238,-13.675,-13.284,-1.954,-1.954,-11.722,5.470,9.377,7.033,12.894,-4.689,3.516,3.516,-11.722
'[01:51:23.930 05/09/2075]',-12.894,15.629,-14.457,13.284,-2.344,10.159,-1.563,-3.126,-2.344,1.954,5.470,-9.377,0.391,-12.112,-3.907,11.331,-1.172,-56.654,15.238,-1.563,-2.344,-5.861,-3.907
'[01:51:23.934 05/09/2075]',-10.159,19.927,-6.642,5.079,-3.516,11.331,2.735,-1.563,0.781,12.112,-6.252,-8.205,1.954,-12.112,-2.344,10.549,9.768,10.549,7.424,-8.205,1.563,-7.033,-2.344
'[01:51:23.938 05/09/2075]',-10.940,21.490,-3.516,3.516,-10.940,12.894,7.424,1.563,-0.391,30.476,-24.225,-5.079,0.000,1.172,-4.689,4.689,18.364,58.608,4.298,-5.079,6.252,-5.470,-4.689
'[01:51:23.941 05/09/2075]',-10.159,18.755,5.861,1.954,-12.894,11.331,7.814,10.940,-5.079,5.079,-3.126,6.642,-3.126,-0.781,-9.377,17.582,4.298,-10.549,-5.079,-6.252,7.033,-6.642,-9.377
'[01:51:23.945 05/09/2075]',-8.596,13.284,16.020,-0.391,-15.629,12.894,8.596,14.457,-4.689,-10.159,10.159,12.112,-0.391,-10.549,-8.205,27.350,0.000,-35.556,-15.238,-2.735,8.987,-15.629,-8.205
'[01:51:23.949 05/09/2075]',-11.722,17.192,5.470,4.298,-17.582,11.331,10.940,11.331,-3.907,3.126,-1.563,10.159,-4.298,-2.735,-12.112,28.132,12.112,21.099,-4.689,-0.781,3.907,-13.675,-12.112
'[01:51:23.953 05/09/2075]',-13.675,16.020,0.000,14.457,-14.847,6.642,10.940,13.675,-5.079,6.252,-3.126,12.112,-5.079,2.344,0.391,12.112,12.112,5.470,0.781,1.172,1.954,-6.252,0.391
'[01:51:23.957 05/09/2075]',-8.205,23.443,2.344,4.689,-7.814,4.298,10.940,14.457,-7.814,-1.172,6.642,11.331,-3.907,-0.391,0.391,12.503,6.252,-18.755,-1.563,-5.079,1.172,-8.596,0.391
'[01:51:23.961 05/09/2075]',-0.391,27.350,-9.768,5.861,0.000,4.298,10.940,6.642,-7.033,3.516,4.689,0.391,-0.391,11.331,-4.689,-4.298,10.940,21.099,10.549,-5.861,0.000,0.391,-4.689
'[01:51:23.965 05/09/2075]',-1.172,21.490,1.563,-0.781,-2.344,0.781,11.331,10.159,-11.722,-2.735,8.205,8.987,-2.735,18.364,-8.205,-3.907,3.516,1.563,-0.781,-3.907,-0.781,5.470,-8.205
'[01:51:23.969 05/09/2075]',5.079,14.847,5.470,-2.735,-3.126,0.781,11.331,13.675,-19.927,-19.927,19.536,19.145,-3.907,-13.284,6.252,9.377,-8.596,-45.714,-4.689,-3.907,-0.391,-21.880,6.252
'[01:51:23.973 05/09/2075]',1.954,13.675,10.549,-10.940,-10.940,3.126,15.629,7.424,-17.192,-14.066,14.457,13.284,-5.079,-12.112,4.298,10.159,-3.126,5.861,-9.768,-5.079,-1.172,-21.880,4.298
'[01:51:23.977 05/09/2075]',-7.424,16.410,10.940,-7.424,-21.099,5.861,19.927,6.252,-16.410,-12.503,16.801,11.331,-4.689,-10.549,0.391,15.238,3.126,22.271,-10.159,-1.954,0.000,-22.271,0.391
'[01:51:23.980 05/09/2075]',-10.159,20.317,17.192,-5.861,-20.317,6.252,21.880,12.894,-19.145,-18.364,21.880,19.927,-6.252,-17.582,12.112,15.629,0.391,-17.192,-16.410,-4.298,2.344,-27.350,12.112
'[01:51:23.984 05/09/2075]',-10.549,25.397,13.284,-4.689,-20.317,10.940,22.271,8.205,-16.410,-19.536,28.523,11.331,-1.172,-11.331,7.814,8.987,0.391,-5.861,-12.503,-2.735,-0.391,-17.582,7.814
'[01:51:23.988 05/09/2075]',-11.331,26.569,17.582,-8.987,-19.536,14.066,21.099,5.861,-12.112,-1.563,10.940,7.424,-0.391,0.391,-1.954,7.424,11.722,62.515,-16.801,0.391,-1.172,-8.205,-1.954
'[01:51:23.992 05/09/2075]',-9.377,18.364,3.126,3.907,-20.708,11.331,14.847,9.768,-22.271,-9.377,14.847,16.020,-1.954,-8.596,10.159,0.781,0.781,18.755,-2.344,0.781,2.344,-13.284,10.159
'[01:51:23.996 05/09/2075]',-6.252,17.582,-8.596,7.424,-19.536,14.847,8.987,4.298,-26.960,-24.225,34.774,12.112,-0.391,-5.470,-6.642,9.768,-12.503,-41.807,9.377,-3.126,4.298,-9.377,-6.642
'[01:51:24.000 05/09/2075]',-3.516,17.973,-8.205,1.172,-15.238,18.755,4.689,-1.563,-22.662,-9.768,23.834,2.344,-0.391,-2.735,0.000,-1.563,0.000,23.053,8.987,-6.252,5.861,-6.252,0.000
'[01:51:24.004 05/09/2075]',-5.079,11.722,-14.457,10.940,-13.675,17.582,1.563,-2.344,-23.443,10.159,3.907,0.000,0.391,-3.126,0.000,-4.298,7.814,62.515,15.238,-5.079,14.847,-6.642,0.000
'[01:51:24.008 05/09/2075]',-4.689,9.377,-10.549,9.768,-9.768,18.364,-1.563,-2.735,-20.708,-1.563,12.112,-3.516,2.344,-8.205,-4.298,-3.126,-1.172,-6.252,11.331,-2.735,17.582,-11.331,-4.298
'[01:51:24.012 05/09/2075]',-7.033,7.424,-0.391,0.781,-10.159,20.317,-0.781,-7.814,-13.284,-3.126,19.145,-13.284,2.735,6.642,-11.331,-9.377,-0.781,-19.145,1.172,0.391,18.364,0.781,-11.331
'[01:51:24.016 05/09/2075]',-14.847,7.814,11.722,-12.894,-15.629,19.536,1.172,-12.894,-8.987,12.894,-2.735,-18.755,2.344,7.033,-13.675,-13.284,7.424,37.509,-10.940,-0.391,18.364,7.814,-13.675
'[01:51:24.020 05/09/2075]',-21.880,10.159,10.159,-9.768,-17.582,19.145,-1.172,-10.940,-8.596,12.112,-4.298,-19.536,1.954,-2.344,-7.033,-12.112,5.470,4.298,-9.377,-3.126,21.880,3.126,-7.033
'[01:51:24.023 05/09/2075]',-21.880,13.284,6.252,-5.861,-15.629,21.490,-3.907,-10.159,-7.033,10.940,1.563,-21.099,-0.781,6.252,-13.284,-7.033,2.344,6.642,-5.470,-5.470,21.880,10.159,-13.284
'[01:51:24.027 05/09/2075]',-23.053,26.569,-4.298,-10.159,-14.066,26.178,-5.470,-17.192,-5.861,18.755,-2.344,-31.258,-1.954,7.033,-15.629,-9.377,10.159,47.668,5.079,-14.847,14.066,19.145,-15.629
'[01:51:24.031 05/09/2075]',-25.006,21.099,-10.940,7.424,-10.159,24.225,-7.424,-13.284,-7.424,12.894,1.954,-26.960,-0.781,5.079,-22.662,0.000,8.596,2.735,11.722,-13.284,28.523,12.112,-22.662
'[01:51:24.035 05/09/2075]',-22.662,21.490,-20.317,23.834,-7.033,24.225,-8.205,-5.470,-10.940,1.954,21.490,-21.880,-9.377,14.457,-17.582,3.516,3.126,-48.449,21.099,-9.768,26.960,8.596,-17.582
'[01:51:24.039 05/09/2075]',-21.490,21.490,-7.424,7.033,-11.331,25.397,-4.689,-9.377,-7.814,7.814,17.582,-30.867,-0.781,19.927,-33.602,0.781,8.596,-14.457,8.205,-13.675,17.582,33.211,-33.602
'[01:51:24.043 05/09/2075]',-21.099,13.284,0.391,3.126,-14.847,21.490,-2.735,-7.424,-10.940,21.490,5.861,-29.304,-5.861,6.642,0.000,-13.284,16.410,17.582,0.391,-9.768,19.145,12.503,0.000
'[01:51:24.047 05/09/2075]',-19.536,4.298,-5.861,15.629,-15.629,16.801,-7.033,0.391,-14.457,7.424,14.457,-19.536,-3.907,-13.675,8.205,-3.126,3.516,-31.258,6.642,-3.126,12.112,0.000,8.205
'[01:51:24.051 05/09/2075]',-22.662,0.781,-5.079,16.020,-20.708,14.066,-6.642,1.563,-15.629,8.205,10.159,-17.192,-5.470,-11.722,-1.172,3.907,1.563,-1.563,5.861,2.344,5.861,2.344,-1.172
'[01:51:24.055 05/09/2075]',-21.880,7.424,1.563,4.689,-16.410,14.457,-1.954,-2.344,-9.768,29.304,-13.675,-17.973,-6.252,-17.582,12.503,-0.781,13.284,66.032,-0.781,-3.907,10.940,-8.205,12.503
'[01:51:24.059 05/09/2075]',-25.397,14.066,-12.112,28.523,-12.894,10.549,-2.344,10.159,-10.940,10.549,-3.516,-1.172,-8.596,-23.053,4.298,21.490,3.907,-0.391,12.894,-5.861,18.755,-22.271,4.298
'[01:51:24.063 05/09/2075]',-27.350,23.443,-17.973,35.946,-12.112,12.894,0.391,13.284,-13.675,-5.079,15.629,1.954,-7.814,-9.768,-2.344,19.536,-4.298,-60.171,18.755,-7.424,14.066,-5.470,-2.344
'[01:51:24.066 05/09/2075]',-19.145,25.397,0.000,11.331,-9.768,16.410,3.907,7.033,-6.642,5.861,-0.781,-4.689,-6.642,-8.987,6.252,2.735,10.549,12.894,0.781,-8.987,8.205,-2.735,6.252
'[01:51:24.070 05/09/2075]',-18.364,16.410,-14.457,33.993,-12.894,11.722,3.907,14.066,-5.861,13.284,-12.503,7.424,-8.205,-12.503,15.238,8.205,16.801,37.900,15.238,-0.781,1.954,-5.470,15.238
'[01:51:24.074 05/09/2075]',-14.847,8.987,-4.298,28.523,-15.238,10.159,2.735,19.536,-10.159,0.000,1.172,10.549,-6.642,-14.066,7.033,16.020,4.689,-16.020,5.079,2.735,1.563,-8.987,7.033
'[01:51:24.078 05/09/2075]',-12.112,3.907,24.225,7.033,-14.457,10.940,9.377,17.973,-9.377,-5.470,14.457,7.424,-9.768,-11.331,9.768,18.364,5.861,-3.516,-23.443,6.642,3.126,-15.629,9.768
'[01:51:24.082 05/09/2075]',-10.940,16.801,25.788,3.907,-8.596,10.159,12.112,20.708,-6.252,3.126,8.987,15.238,-12.112,-9.377,19.927,23.443,12.894,27.350,-25.006,-8.205,7.033,-21.880,19.927
'[01:51:24.086 05/09/2075]',-14.457,26.960,24.615,4.689,-5.079,8.205,12.503,26.178,-10.159,-8.596,16.410,22.271,-10.549,-10.549,12.503,29.304,3.516,-16.801,-23.834,-15.238,12.894,-24.615,12.503
'[01:51:24.090 05/09/2075]',-17.582,26.178,27.350,0.000,-7.033,8.596,12.894,21.099,-12.112,-9.377,18.364,17.973,-14.457,-6.252,13.675,22.662,3.907,2.344,-26.569,-13.284,10.940,-21.099,13.675
'[01:51:24.094 05/09/2075]',-18.364,27.741,16.410,1.172,-5.470,7.033,12.112,12.503,-8.205,0.391,1.563,10.549,-11.722,-2.735,15.629,4.298,12.503,45.714,-15.629,-15.629,10.159,-6.252,15.629
'[01:51:24.098 05/09/2075]',-21.880,25.788,10.549,1.563,-9.377,3.907,6.252,14.066,-11.331,-8.987,0.781,15.629,-12.112,-3.907,7.033,5.470,4.689,-5.470,-9.768,-16.410,11.722,-4.689,7.033
'[01:51:24.102 05/09/2075]',-24.615,19.927,9.377,-3.126,-16.410,2.735,3.126,11.722,-16.020,-9.768,-2.735,10.940,-14.066,-13.675,3.126,5.861,0.391,-33.211,-8.596,-14.457,10.940,-9.768,3.126
'[01:51:24.105 05/09/2075]',-26.569,21.880,1.954,0.000,-16.410,6.252,1.954,3.516,-11.722,-0.391,-12.894,0.391,-10.940,-14.457,2.735,-1.563,12.503,17.192,-1.172,-15.238,16.020,-6.642,2.735
'[01:51:24.109 05/09/2075]',-27.741,27.350,12.112,-10.159,-14.847,9.768,0.391,5.079,-10.159,-1.563,-17.192,5.079,-4.689,-23.834,0.391,3.516,14.066,4.298,-11.331,-17.582,15.238,-9.768,0.391
'[01:51:24.113 05/09/2075]',-23.443,25.788,5.079,-8.205,-14.847,10.940,-2.735,5.079,-16.410,-21.099,1.172,7.033,-3.516,-33.993,-5.470,15.238,2.735,-64.469,-4.298,-14.457,9.377,-19.145,-5.470
'[01:51:24.117 05/09/2075]',-26.960,23.834,-3.126,-2.735,-14.457,12.503,-5.861,-1.954,-15.238,-14.066,0.391,-5.470,1.563,-21.099,-11.331,-3.126,8.205,-23.053,3.907,-10.159,19.145,-4.298,-11.331
'[01:51:24.121 05/09/2075]',-25.006,32.430,11.331,-23.443,-5.470,15.629,-6.642,-7.814,-9.377,10.940,-25.006,-10.159,1.563,-8.596,-17.973,-8.205,18.364,39.853,-10.549,-18.364,21.880,6.252,-17.973
'[01:51:24.125 05/09/2075]',-25.006,39.853,-2.344,-16.410,-4.689,13.675,-12.894,-0.781,-14.457,0.391,-11.331,-6.252,-3.126,-16.020,-14.066,2.344,7.033,-27.741,3.126,-24.225,17.192,-4.298,-14.066
'[01:51:24.129 05/09/2075]',-25.397,39.072,-13.284,-8.596,-2.735,14.847,-15.629,-5.470,-13.675,-5.861,5.470,-17.973,0.391,-9.768,-20.708,-2.344,0.781,-59.780,14.066,-21.880,20.317,1.954,-20.708
'[01:51:24.133 05/09/2075]',-27.741,41.807,-17.582,-1.563,-1.954,19.145,-14.457,-8.596,-7.814,18.755,-15.629,-20.708,1.954,-8.596,-17.192,-1.563,17.192,21.880,18.364,-19.145,24.225,0.781,-17.192
'[01:51:24.137 05/09/2075]',-31.648,35.165,-10.940,5.079,-5.079,19.536,-13.675,-2.344,-6.252,20.708,-15.238,-18.364,-1.954,-10.159,-7.424,0.391,18.364,17.973,11.722,-11.331,24.225,-5.079,-7.424
'[01:51:24.141 05/09/2075]',-38.291,39.853,-14.457,12.112,-7.814,18.755,-9.377,-1.172,-4.689,7.033,0.391,-22.271,9.377,-10.549,-16.410,0.000,6.642,-28.132,15.238,-15.238,33.993,5.079,-16.410
'[01:51:24.145 05/09/2075]',-42.589,44.933,2.344,1.954,-6.642,21.490,-1.172,-5.470,-0.391,14.066,1.172,-27.741,10.159,-1.172,-15.238,-6.642,10.940,-2.735,-1.563,-17.582,49.621,5.079,-15.238
'[01:51:24.148 05/09/2075]',-47.277,50.794,17.582,-6.642,-9.768,21.490,2.735,0.000,0.781,17.192,-9.768,-17.973,12.894,-16.410,-4.298,-1.954,14.066,3.516,-16.801,-26.178,48.840,3.516,-4.298
'[01:51:24.152 05/09/2075]',-48.449,63.297,-2.344,5.079,-11.722,17.192,1.563,8.596,-2.735,7.814,-3.126,-10.940,15.238,-23.443,-10.159,8.987,3.907,-40.244,3.126,-33.211,44.933,-0.781,-10.159
'[01:51:24.156 05/09/2075]',-43.761,59.780,-8.987,5.861,-15.629,21.490,0.000,5.470,-4.298,18.755,-7.814,-17.973,15.629,-18.755,-6.642,-1.954,8.987,5.470,9.768,-28.132,44.542,0.000,-6.642
'[01:51:24.160 05/09/2075]',-48.059,48.449,-7.424,13.675,-18.755,20.708,-0.781,4.689,-8.205,26.178,-15.629,-15.629,14.457,-21.099,-8.596,1.172,17.973,50.794,8.205,-16.410,46.496,-0.781,-8.596
'[01:51:24.164 05/09/2075]',-46.886,40.635,-26.178,46.886,-14.847,17.582,-3.516,14.066,-12.112,13.284,3.516,-10.549,13.675,-10.549,-9.377,0.391,9.768,2.344,26.960,-8.205,48.840,2.735,-9.377
'[01:51:24.168 05/09/2075]',-44.933,42.979,-18.755,34.774,-13.675,16.410,-1.563,13.675,-16.020,4.689,16.410,-9.377,14.847,-3.516,-21.490,5.470,4.298,-23.834,19.536,-13.284,54.701,4.298,-21.490
'[01:51:24.172 05/09/2075]',-44.151,38.681,3.907,19.145,-14.457,13.284,3.126,16.410,-15.238,21.880,-1.563,-4.689,12.503,-7.424,-17.192,11.331,16.801,38.681,-3.126,-10.159,46.886,1.172,-17.192
'[01:51:24.176 05/09/2075]',-43.761,42.979,2.735,24.615,-15.238,10.549,5.079,25.397,-20.708,17.582,-1.954,3.907,3.907,-14.847,-11.331,20.708,13.284,7.424,-1.954,-12.112,30.476,0.000,-11.331
'[01:51:24.180 05/09/2075]',-40.244,56.264,9.768,5.079,-14.066,10.940,7.033,26.178,-20.708,1.563,15.629,6.252,1.954,-17.192,-5.079,23.834,0.781,-55.092,-8.987,-18.755,20.317,-8.987,-5.079
'[01:51:24.184 05/09/2075]',-44.151,60.952,15.238,-1.172,-15.238,12.112,9.768,23.053,-17.973,7.424,6.252,1.563,1.954,-19.145,-9.768,24.225,10.159,8.987,-14.457,-24.225,14.066,0.391,-9.768
'[01:51:24.188 05/09/2075]',-49.231,54.701,17.192,16.801,-12.112,14.066,12.112,25.006,-10.549,23.443,-8.987,0.391,7.814,-26.178,1.954,19.145,18.364,58.999,-16.410,-13.675,23.443,-6.252,1.954
'[01:51:24.191 05/09/2075]',-47.668,47.668,14.457,35.165,-8.596,10.549,11.331,36.337,-12.112,4.298,12.503,10.159,10.940,-23.443,-1.563,28.132,5.861,-11.331,-13.675,-7.033,30.085,-8.596,-1.563
'[01:51:24.195 05/09/2075]',-46.496,35.946,17.973,42.589,-9.768,7.033,13.284,39.072,-16.801,-6.642,26.569,11.331,15.629,-28.523,-3.907,30.867,0.000,-33.993,-17.192,1.172,37.509,-12.112,-3.907
'[01:51:24.199 05/09/2075]',-44.542,20.317,8.205,68.767,-10.940,2.735,16.020,44.542,-14.066,7.033,13.675,14.066,17.192,-29.695,5.079,26.569,12.894,26.569,-7.424,17.582,43.761,-19.536,5.079
'[01:51:24.203 05/09/2075]',-41.416,40.635,8.987,50.012,-9.768,1.172,21.490,45.324,-16.410,4.689,10.549,24.615,15.238,-31.648,8.987,30.476,11.722,11.722,-8.205,-1.954,38.291,-21.490,8.987
'[01:51:24.207 05/09/2075]',-42.198,60.171,17.973,26.178,-10.159,4.298,23.053,44.151,-19.927,-5.861,21.099,26.569,12.112,-29.695,1.172,37.118,3.907,-9.377,-17.192,-18.364,30.085,-16.410,1.172
'[01:51:24.211 05/09/2075]',-37.509,66.422,23.443,1.563,-10.549,9.768,21.490,32.821,-17.582,-6.252,18.364,22.271,15.238,-29.695,-0.781,30.476,8.596,26.178,-22.662,-25.006,26.178,-17.582,-0.781
'[01:51:24.215 05/09/2075]',-36.337,58.608,33.602,-8.987,-12.503,10.940,19.145,28.523,-22.662,-14.457,16.801,26.569,18.364,-39.072,-3.516,30.085,1.954,4.689,-32.821,-22.662,29.695,-23.053,-3.516
'[01:51:24.219 05/09/2075]',-34.383,42.589,21.099,0.000,-21.490,9.768,11.331,28.132,-32.430,-28.523,25.006,30.476,13.284,-34.383,-16.410,32.039,-11.722,-44.542,-20.317,-10.549,29.304,-26.569,-16.410
'[01:51:24.223 05/09/2075]',-33.211,35.946,15.629,-8.205,-30.085,9.768,9.768,18.364,-32.821,-16.410,13.284,15.629,13.284,-32.821,-9.768,8.987,-8.205,7.814,-14.847,-5.861,31.258,-29.304,-9.768
'[01:51:24.227 05/09/2075]',-33.602,28.523,3.126,0.391,-31.648,8.987,8.987,9.768,-30.867,-13.284,10.159,7.033,13.284,-28.523,-8.205,-2.735,-0.391,18.364,-2.344,0.781,36.728,-31.648,-8.205
'[01:51:24.230 05/09/2075]',-37.509,39.463,-0.391,-3.126,-31.258,7.033,6.642,12.894,-35.946,-14.066,7.033,16.801,-0.391,-27.350,-8.987,11.722,-5.470,-18.364,1.172,-10.159,27.350,-30.476,-8.987
'[01:51:24.234 05/09/2075]',-35.946,40.244,5.861,-11.722,-23.443,12.112,1.563,6.642,-33.211,-15.238,11.331,6.252,1.563,-31.648,-5.470,5.079,-4.298,-17.582,-5.079,-7.033,21.099,-29.304,-5.470
'[01:51:24.238 05/09/2075]',-33.993,35.556,1.172,-6.252,-12.894,14.457,-4.689,0.000,-24.615,3.516,-10.549,0.781,3.126,-34.383,-5.079,5.079,7.814,44.933,-0.391,-5.861,25.006,-30.476,-5.079
'[01:51:24.242 05/09/2075]',-33.602,32.821,-12.503,6.642,-7.814,12.503,-11.331,0.391,-27.350,-1.563,-9.768,1.563,4.689,-43.761,-15.238,16.410,0.000,0.391,13.284,-8.596,23.834,-28.913,-15.238
'[01:51:24.246 05/09/2075]',-32.430,30.085,-10.159,9.768,-5.079,16.801,-12.503,-1.563,-24.615,-13.675,15.238,-7.814,10.159,-37.118,-15.629,9.377,-12.503,-58.217,10.940,-5.470,24.615,-20.708,-15.629
'[01:51:24.250 05/09/2075]',-29.695,32.821,-10.549,2.344,-4.689,21.490,-8.987,-12.112,-19.145,3.907,6.642,-24.225,12.503,-33.993,-8.205,-3.126,0.781,13.675,11.331,-12.112,31.258,-19.145,-8.205
'[01:51:24.254 05/09/2075]',-31.648,36.337,-14.847,10.940,-10.940,22.271,-0.781,-9.768,-21.490,27.350,-2.735,-25.006,10.159,-28.132,-1.563,-4.298,11.331,57.045,15.629,-17.192,37.900,-17.582,-1.563
'[01:51:24.258 05/09/2075]',-31.258,32.430,-2.344,9.768,-17.582,25.788,2.735,-2.735,-26.569,12.894,19.536,-21.099,10.159,-26.569,-1.172,1.954,-0.391,0.391,3.126,-14.847,35.556,-11.722,-1.172
'[01:51:24.262 05/09/2075]',-29.304,39.463,-5.861,4.298,-21.880,29.304,5.861,-5.079,-29.695,7.814,32.430,-24.225,9.377,-24.225,-1.954,2.735,-1.563,-6.252,6.642,-20.708,37.118,-11.331,-1.954
'[01:51:24.266 05/09/2075]',-32.821,46.886,-18.364,6.642,-28.523,27.350,6.642,-3.907,-29.304,23.053,16.020,-19.927,6.642,-16.801,-1.172,0.391,8.205,41.416,19.145,-25.397,31.648,-3.126,-1.172
'[01:51:24.270 05/09/2075]',-35.946,24.615,-7.424,18.364,-30.867,23.443,2.344,3.126,-31.258,21.490,12.503,-12.503,3.516,-7.424,-15.238,8.596,4.689,12.894,8.205,0.000,21.490,8.205,-15.238
'[01:51:24.273 05/09/2075]',-35.556,27.350,-8.987,17.192,-25.397,21.490,-0.781,4.298,-28.523,19.536,14.457,-14.066,1.954,-15.629,4.689,-1.172,0.391,4.689,9.768,-5.470,26.960,-2.735,4.689
'[01:51:24.277 05/09/2075]',-34.383,18.364,-14.066,20.317,-23.443,16.020,-4.298,0.781,-28.132,27.741,6.642,-20.708,-0.391,-11.331,8.596,-10.940,6.252,39.072,14.847,4.689,28.913,-7.814,8.596
'[01:51:24.281 05/09/2075]',-32.821,0.391,-17.973,38.681,-23.053,6.642,-6.642,10.159,-31.258,22.662,6.252,-12.503,0.000,-16.410,10.159,-9.377,-0.781,-1.172,18.755,17.973,28.913,-8.596,10.159
'[01:51:24.285 05/09/2075]',-31.648,8.205,-15.238,31.648,-20.317,3.126,-4.298,14.066,-33.602,5.079,19.145,-9.768,-1.172,-26.960,11.722,-2.344,-9.377,-51.575,16.020,5.079,34.383,-17.582,11.722
'[01:51:24.289 05/09/2075]',-32.039,12.112,-11.331,12.503,-28.913,0.391,2.344,6.252,-30.476,14.066,12.894,-18.755,-5.470,-15.629,11.331,-12.894,-2.735,-14.847,12.112,-0.781,32.430,-12.894,11.331
'[01:51:24.293 05/09/2075]',-33.211,15.238,4.689,7.033,-28.913,0.391,9.377,12.894,-27.741,25.006,-3.126,-15.238,-8.596,-14.457,10.940,-8.987,6.642,16.410,-3.907,-3.126,23.053,-5.079,10.940
'[01:51:24.297 05/09/2075]',-35.556,23.443,13.284,7.814,-23.834,3.126,12.112,16.801,-23.053,14.847,10.159,-9.377,-9.768,-8.987,16.801,-5.079,2.735,-28.132,-12.503,-7.814,25.788,-6.642,16.801
'[01:51:24.301 05/09/2075]',-35.165,22.271,28.913,4.298,-21.880,8.596,14.457,17.582,-18.364,18.755,14.066,-12.503,-15.629,-3.907,34.774,-12.503,4.689,0.391,-28.132,-5.079,21.099,-7.814,34.774
'[01:51:24.305 05/09/2075]',-30.476,20.708,24.225,19.927,-16.410,9.768,15.238,24.615,-9.377,41.416,-12.503,-1.563,-7.424,-7.033,39.853,-7.814,17.582,72.283,-23.443,2.735,17.582,-9.768,39.853
'[01:51:24.309 05/09/2075]',-28.913,17.973,16.410,31.258,-17.973,5.470,14.847,33.602,-16.410,26.569,0.391,9.377,-11.331,-6.642,37.900,0.391,8.205,8.987,-15.629,1.563,21.880,-13.284,37.900
'[01:51:24.313 05/09/2075]',-26.569,12.894,20.708,29.695,-22.662,4.689,17.973,35.946,-22.271,7.033,21.490,10.549,-7.814,-12.112,35.165,1.563,-3.126,-43.761,-19.927,0.781,22.271,-11.722,35.165
'[01:51:24.316 05/09/2075]',-19.536,15.629,10.940,25.006,-22.271,2.735,19.536,32.039,-21.099,19.145,5.861,11.331,-6.642,-7.424,32.821,-2.344,9.768,30.085,-10.159,1.954,17.582,-11.722,32.821
'[01:51:24.320 05/09/2075]',-16.410,12.503,28.523,10.549,-24.225,3.126,22.662,33.602,-24.615,23.053,1.954,13.284,-10.549,-8.596,39.853,-5.470,15.629,53.529,-27.741,4.689,10.940,-11.722,39.853
'[01:51:24.324 05/09/2075]',-14.457,13.284,37.118,12.112,-19.536,8.987,21.099,37.509,-22.662,7.814,25.397,18.364,-6.252,-10.159,53.138,-6.642,4.689,-1.172,-36.337,5.079,11.331,-12.894,53.138
'[01:51:24.328 05/09/2075]',-11.722,19.536,37.118,6.642,-14.066,12.503,20.708,31.258,-17.582,0.391,33.602,20.708,-5.470,-4.298,57.045,-8.596,6.642,5.079,-36.337,1.954,7.814,-7.424,57.045
'[01:51:24.332 05/09/2075]',-8.596,27.350,28.523,6.642,-13.675,14.457,18.755,33.993,-14.457,0.781,26.960,35.946,-7.424,0.391,58.608,-1.954,9.377,26.178,-27.741,-6.642,3.126,-3.907,58.608
'[01:51:24.336 05/09/2075]',-11.722,31.258,9.768,12.503,-16.020,11.722,14.066,31.648,-15.238,-14.847,28.132,36.728,-1.954,-5.861,34.774,7.814,0.391,-18.755,-8.987,-16.410,8.987,-4.298,34.774
'[01:51:24.340 05/09/2075]',-11.331,25.397,16.410,-4.689,-19.927,11.331,12.894,19.536,-16.801,-17.973,19.145,27.741,-8.596,0.391,15.238,4.689,-2.344,10.159,-15.629,-14.457,3.907,2.344,15.238
'[01:51:24.344 05/09/2075]',-14.066,13.675,24.615,-8.987,-24.225,14.457,12.503,11.722,-17.973,-10.940,5.861,26.960,-10.549,0.391,11.722,1.954,4.298,58.608,-23.834,-1.563,8.596,-2.344,11.722
'[01:51:24.348 05/09/2075]',-19.145,2.735,23.834,-0.781,-23.834,13.284,9.377,6.252,-22.662,-17.192,4.689,21.880,-13.675,-18.364,17.973,1.563,-2.344,15.629,-23.053,5.470,16.020,-17.973,17.973
'[01:51:24.352 05/09/2075]',-25.397,6.252,33.602,-8.205,-21.880,14.847,8.205,3.516,-21.880,-9.768,-0.781,19.145,-14.457,-20.317,25.397,-3.126,-6.252,6.642,-32.821,-0.781,22.271,-14.066,25.397
'[01:51:24.355 05/09/2075]',-21.490,15.238,15.238,-3.907,-17.192,18.755,5.079,-1.954,-17.973,-5.470,0.000,16.020,-14.457,-14.847,30.476,-8.205,0.391,42.198,-14.457,-5.861,22.662,-11.331,30.476
'[01:51:24.359 05/09/2075]',-18.364,16.020,5.470,0.391,-14.847,19.536,1.172,-3.126,-14.847,-5.470,-0.391,13.284,-9.768,-19.927,25.397,-2.735,0.391,25.397,-4.689,-6.252,16.020,-10.549,25.397
'[01:51:24.363 05/09/2075]',-12.503,9.768,1.563,-1.563,-12.503,16.801,-3.126,-3.126,-13.675,-26.569,12.112,10.940,-4.298,-21.490,2.344,6.252,-14.066,-35.165,-0.781,-2.735,13.284,-8.596,2.344
'[01:51:24.367 05/09/2075]',-7.424,8.596,1.954,-11.331,-15.238,19.536,-3.126,-8.596,-18.364,-21.880,18.364,1.172,-6.642,-15.629,6.642,-3.516,-9.768,4.689,-1.172,-0.781,5.861,-5.079,6.642
'[01:51:24.371 05/09/2075]',-11.722,3.516,0.000,1.954,-16.801,20.317,-2.735,-6.252,-10.159,3.516,-3.516,-1.172,0.391,-13.675,9.768,-7.814,2.344,64.078,0.781,2.344,14.457,-0.391,9.768
'[01:51:24.375 05/09/2075]',-14.066,5.470,-13.284,13.675,-16.801,14.847,-5.470,-1.563,-15.629,-10.549,3.516,1.172,1.954,-23.834,8.205,-7.424,-11.331,-5.861,14.066,-1.563,21.099,-4.689,8.205
'[01:51:24.379 05/09/2075]',-13.284,17.973,-12.894,-1.172,-17.973,18.755,-3.126,-7.033,-14.847,-20.708,20.317,-10.549,5.079,-21.490,1.954,-10.940,-19.145,-49.231,13.675,-14.066,28.913,-5.861,1.954
'[01:51:24.383 05/09/2075]',-14.457,7.814,-15.629,11.331,-19.927,22.662,-2.344,-11.331,-5.470,-0.781,0.391,-14.066,13.284,-17.973,-3.516,-12.112,-1.954,19.536,16.410,-0.391,35.946,-3.516,-3.516
'[01:51:24.387 05/09/2075]',-12.894,-1.563,-7.424,10.159,-20.708,23.443,-5.470,-8.596,-7.424,3.907,-15.238,-10.159,12.894,-21.099,-21.490,0.781,0.000,29.304,8.205,11.722,34.383,-7.424,-21.490
'[01:51:24.391 05/09/2075]',-14.066,0.000,-6.642,-2.735,-26.960,23.053,-5.861,-14.847,-11.331,-4.689,-2.735,-23.053,14.847,-16.801,-38.681,-1.954,-10.159,-8.987,7.424,8.205,35.556,-3.907,-38.681
'[01:51:24.395 05/09/2075]',-12.894,3.516,1.172,1.954,-21.490,24.225,-1.172,-7.033,-7.814,5.079,0.391,-14.457,14.847,-9.768,-22.271,0.000,2.735,28.523,-0.391,8.596,30.867,2.344,-22.271
'[01:51:24.398 05/09/2075]',-11.331,6.642,-2.735,0.391,-17.582,14.847,-1.954,-2.735,-8.205,7.424,-8.596,-15.629,18.364,-12.112,-25.397,-5.861,3.126,21.099,3.516,3.126,34.383,3.126,-25.397
'[01:51:24.402 05/09/2075]',-11.331,3.516,-11.331,2.735,-17.582,5.470,-3.516,-0.391,-10.940,-4.298,3.126,-14.457,19.145,-21.880,-11.331,-12.894,-6.642,-33.602,12.112,3.516,37.118,-6.642,-11.331
'[01:51:24.406 05/09/2075]',-7.424,5.861,-7.814,-6.642,-16.410,1.954,-1.563,-0.391,-5.861,-3.126,3.126,-19.145,20.708,-23.443,-3.907,-18.364,0.000,3.907,8.596,0.391,35.946,-8.596,-3.907
'[01:51:24.410 05/09/2075]',-5.861,-6.252,-15.629,0.391,-19.927,-2.735,-2.735,-1.954,-2.344,0.000,-5.861,-25.788,24.615,-23.443,-8.596,-26.569,4.689,39.853,16.410,9.768,39.072,-7.424,-8.596
'[01:51:24.414 05/09/2075]',-8.987,-8.596,-18.755,4.689,-24.615,-7.424,-3.126,3.516,-4.298,-14.847,3.126,-18.364,24.225,-25.397,-11.331,-20.708,-5.861,-5.079,19.536,11.331,35.556,-6.252,-11.331
'[01:51:24.418 05/09/2075]',-6.252,-2.735,-16.410,-1.563,-24.225,-6.642,-0.781,3.907,0.391,-27.741,18.364,-19.145,22.662,-8.205,-19.145,-22.271,-10.549,-31.648,17.192,7.424,26.960,10.159,-19.145
'[01:51:24.422 05/09/2075]',-7.424,-2.735,-15.238,3.907,-21.490,-7.424,1.954,4.689,9.768,-10.159,0.391,-12.503,22.271,-9.768,-1.172,-23.443,-1.563,31.648,16.020,9.377,26.960,7.033,-1.172
'[01:51:24.426 05/09/2075]',-10.159,-10.549,-23.443,25.397,-21.099,-13.284,3.126,11.722,6.252,-13.284,0.000,-1.172,22.662,-13.675,-5.470,-10.940,-5.861,-2.344,24.225,17.973,38.681,-4.689,-5.470
'[01:51:24.430 05/09/2075]',-5.079,-11.331,0.000,10.940,-16.410,-10.159,6.252,13.675,7.814,-28.913,23.053,5.470,19.536,-3.516,-3.126,-5.079,-17.582,-61.343,0.781,16.410,25.397,10.940,-3.126
'[01:51:24.434 05/09/2075]',-0.781,-8.987,3.907,10.549,-14.066,-9.377,10.159,17.582,7.033,-19.927,15.629,11.331,18.364,-6.642,7.814,-3.516,-8.205,8.205,-3.126,9.377,27.741,5.470,7.814
'[01:51:24.438 05/09/2075]',0.391,-1.563,15.629,-1.172,-15.238,-6.252,14.457,19.145,8.205,-1.954,1.172,10.159,18.364,-9.377,24.615,-15.238,0.781,56.264,-14.847,4.298,24.225,0.781,24.615
'[01:51:24.441 05/09/2075]',9.768,5.861,38.681,-21.880,-10.940,-2.344,17.973,29.304,5.079,-19.536,26.569,25.006,9.768,0.391,28.132,0.000,-8.596,-13.284,-37.900,-12.112,-0.781,21.099,28.132
'[01:51:24.445 05/09/2075]',9.377,14.457,31.648,-17.192,-12.112,-0.391,17.582,32.430,3.907,-28.913,48.449,30.476,9.377,7.814,55.482,-19.536,-12.894,-38.291,-30.867,-10.159,-9.768,21.880,55.482
'[01:51:24.449 05/09/2075]',10.159,14.457,44.933,-26.569,-8.987,1.172,21.490,29.695,7.033,-15.629,37.509,35.165,5.470,0.000,78.144,-18.755,-1.563,23.834,-44.151,-9.377,-19.145,15.238,78.144
'[01:51:24.453 05/09/2075]',13.284,13.675,44.151,-23.834,-8.205,1.172,22.271,32.821,6.252,-17.582,34.774,46.105,1.563,7.424,64.469,-3.907,-3.516,9.768,-43.370,-6.252,-34.383,26.960,64.469
'[01:51:24.457 05/09/2075]',11.331,13.284,37.900,-15.629,-11.331,4.689,19.927,33.602,4.298,-27.350,48.449,44.542,1.954,12.112,76.190,-20.317,-13.284,-7.814,-37.118,-10.940,-32.039,36.728,76.190
'[01:51:24.461 05/09/2075]',12.112,17.973,44.151,-36.337,-12.503,10.159,19.145,21.099,7.424,-23.834,39.463,37.900,1.954,13.675,66.032,-21.099,-7.424,25.397,-43.370,-16.020,-25.788,32.039,66.032
'[01:51:24.465 05/09/2075]',10.549,22.662,21.880,-28.913,-15.238,9.768,12.894,19.145,8.987,-23.053,27.350,35.165,0.781,19.536,55.092,-28.132,-7.424,8.596,-21.099,-25.006,-4.298,19.145,55.092
'[01:51:24.469 05/09/2075]',6.642,13.675,19.536,-21.099,-16.020,10.549,4.689,19.536,10.159,-33.602,32.821,30.867,0.391,28.913,44.933,-33.993,-17.582,-44.542,-18.755,-16.020,-8.596,35.165,44.933
'[01:51:24.473 05/09/2075]',3.126,12.503,28.523,-31.258,-12.894,10.940,0.781,14.066,16.801,-21.490,17.582,18.364,-0.391,25.397,50.403,-43.370,-9.768,5.470,-27.741,-6.642,-8.205,25.006,50.403
'[01:51:24.477 05/09/2075]',0.781,11.722,21.490,-26.569,-9.377,10.549,0.391,6.642,19.145,-14.066,10.940,12.894,0.000,23.834,46.496,-39.463,-1.172,28.523,-20.708,-3.516,-3.907,20.708,46.496
'[01:51:24.480 05/09/2075]',2.344,8.205,35.556,-32.821,-8.205,12.503,0.391,8.987,16.410,-21.490,21.099,18.364,-2.344,22.662,47.668,-32.039,-9.768,-20.317,-34.774,-5.079,-11.331,25.788,47.668
'[01:51:24.484 05/09/2075]',7.033,16.410,16.801,-24.615,-4.689,17.192,-2.735,6.252,19.145,-19.145,24.225,17.582,0.391,26.569,40.635,-24.225,-6.252,-12.503,-16.020,-12.894,-10.159,23.834,40.635
'[01:51:24.488 05/09/2075]',11.331,19.927,6.642,-23.443,0.391,19.927,-5.079,0.000,29.304,3.907,-1.954,17.973,5.861,28.913,28.132,-14.457,7.033,52.357,-5.861,-19.145,1.954,16.020,28.132
'[01:51:24.492 05/09/2075]',12.894,10.159,1.954,-14.066,0.781,17.582,-10.940,3.516,26.960,0.000,-5.079,24.615,1.954,23.834,22.662,-2.344,0.391,-3.516,-1.172,-15.238,-4.689,15.629,22.662
'[01:51:24.496 05/09/2075]',10.549,5.079,-1.172,-11.331,7.033,14.066,-16.801,-0.391,28.523,-11.722,4.689,17.973,5.079,21.490,11.331,0.391,-9.768,-70.330,1.954,-7.814,-6.252,18.364,11.331
'[01:51:24.500 05/09/2075]',8.987,4.689,0.391,-19.536,10.549,10.940,-17.973,-8.205,33.602,2.735,-14.457,6.252,8.596,16.801,1.172,0.781,3.907,-5.079,0.391,-7.424,-1.172,15.629,1.172
'[01:51:24.504 05/09/2075]',7.814,-1.172,-0.391,-20.708,11.722,4.298,-16.801,-14.066,27.350,17.973,-35.165,-1.172,2.735,13.284,-0.391,-6.642,12.112,24.615,1.172,-2.344,0.781,14.066,-0.391
'[01:51:24.508 05/09/2075]',7.814,-4.298,-6.642,-15.238,12.112,0.391,-20.708,-11.722,25.397,-0.781,-22.662,-2.344,4.689,3.126,-10.549,1.954,0.781,-43.370,7.424,-1.954,-1.172,10.549,-10.549
'[01:51:24.512 05/09/2075]',11.331,-3.126,-11.331,-21.099,12.503,-1.172,-19.927,-16.020,23.834,-5.861,-17.973,-12.894,4.298,5.861,-24.615,0.781,-0.781,-46.105,12.112,-2.344,3.516,3.516,-24.615
'[01:51:24.516 05/09/2075]',9.768,-10.940,-19.927,-14.457,9.377,-6.642,-21.099,-17.192,20.317,4.298,-35.946,-16.020,0.781,-1.954,-26.960,1.563,6.642,-7.424,20.708,0.391,-0.781,2.735,-26.960
'[01:51:24.520 05/09/2075]',4.689,-17.973,-30.476,-2.344,5.079,-14.066,-24.225,-12.894,17.192,0.781,-35.946,-11.722,-2.735,-8.987,-20.708,4.298,-0.391,-37.509,31.258,4.298,-9.768,1.172,-20.708
'[01:51:24.523 05/09/2075]',5.079,-14.847,-28.523,-10.940,5.861,-14.847,-25.006,-15.238,19.927,-2.735,-32.039,-18.364,-0.391,-6.252,-33.602,8.205,-5.861,-38.681,29.304,3.126,-8.205,0.000,-33.602
'[01:51:24.527 05/09/2075]',7.424,-14.457,-39.853,-2.735,8.205,-15.238,-23.053,-19.145,23.443,-3.126,-32.430,-25.006,-1.172,-8.596,-35.165,7.814,0.391,-0.781,40.635,2.344,-12.112,1.954,-35.165
'[01:51:24.531 05/09/2075]',3.907,-21.880,-47.277,10.159,5.861,-20.317,-21.880,-17.582,22.271,-14.457,-28.132,-17.582,-3.516,-10.549,-35.946,13.675,-5.079,-38.291,48.059,5.079,-3.907,-2.735,-35.946
'[01:51:24.535 05/09/2075]',3.516,-14.847,-15.629,-13.675,5.861,-15.238,-15.238,-15.629,26.178,-32.039,-9.768,-19.536,-3.516,-10.159,-42.589,20.708,-13.284,-80.488,16.410,0.000,-3.126,-3.907,-42.589
'[01:51:24.539 05/09/2075]',4.298,-9.377,-17.582,-9.377,5.470,-12.112,-9.377,-15.238,32.039,-25.006,-10.940,-25.397,-2.344,-3.516,-39.853,17.582,-5.470,-37.900,18.364,-0.781,-4.689,0.781,-39.853
'[01:51:24.543 05/09/2075]',3.516,-7.424,-2.735,-17.973,2.344,-10.549,-2.344,-13.675,34.774,-12.894,-14.066,-26.569,-2.344,1.954,-34.383,14.847,2.344,-4.298,3.516,-3.907,-4.298,6.252,-34.383
'[01:51:24.547 05/09/2075]',6.252,0.000,-2.344,-10.940,3.516,-8.596,1.563,-3.907,30.085,-21.880,8.987,-18.755,-0.781,0.391,-20.317,19.145,-6.642,-47.277,3.126,-7.033,-9.768,5.079,-20.317
'[01:51:24.551 05/09/2075]',12.894,-1.954,-17.192,5.470,2.735,-6.252,4.298,-1.954,29.304,-13.284,16.801,-25.006,5.470,1.172,-12.503,12.894,-1.563,-11.722,17.973,-6.642,-8.205,4.689,-12.503
'[01:51:24.555 05/09/2075]',17.192,-5.470,-5.470,5.861,3.907,-3.516,10.940,0.391,30.085,12.894,1.954,-20.708,5.861,9.377,-6.252,13.675,11.331,62.125,6.252,-7.424,-1.172,6.252,-6.252
'[01:51:24.559 05/09/2075]',16.020,-3.126,-11.722,19.927,1.954,-5.470,12.503,10.549,22.271,0.391,19.927,-11.722,8.987,1.563,10.549,8.987,2.344,3.126,12.503,-10.159,0.391,1.563,10.549
'[01:51:24.563 05/09/2075]',17.192,-8.205,3.516,20.708,0.781,0.391,15.629,15.238,20.708,-11.331,43.370,-5.470,6.642,10.549,15.629,12.112,-5.861,-50.012,-2.735,0.000,-5.079,5.079,15.629
'[01:51:24.566 05/09/2075]',19.145,-2.344,16.801,3.516,1.563,3.516,16.020,14.457,25.006,-1.563,26.960,-2.735,6.252,20.317,10.159,9.768,4.298,26.960,-16.020,-5.079,-2.735,10.940,10.159
'[01:51:24.570 05/09/2075]',17.973,3.516,19.536,-1.172,0.781,2.735,18.364,16.801,25.006,1.563,18.364,5.861,3.126,12.112,31.258,4.298,7.033,50.012,-18.755,-6.642,-11.331,5.470,31.258
'[01:51:24.574 05/09/2075]',18.755,5.470,15.238,3.516,-2.344,8.205,16.020,21.490,20.317,-12.112,29.695,10.549,0.391,17.192,24.225,5.861,-7.033,-6.642,-14.457,-6.252,-13.675,7.424,24.225
'[01:51:24.578 05/09/2075]',20.708,15.238,16.801,-7.033,-4.689,14.457,17.192,18.364,21.880,-16.410,32.821,13.284,5.470,15.238,25.788,4.689,-7.033,3.907,-16.020,-10.549,-15.629,3.516,25.788
'[01:51:24.582 05/09/2075]',21.099,19.927,24.225,-22.271,-9.768,15.629,20.708,16.801,18.364,-4.298,21.099,16.801,2.735,16.020,36.337,-3.907,1.172,28.523,-23.443,-14.457,-20.317,6.252,36.337
'[01:51:24.586 05/09/2075]',21.490,14.847,18.364,-13.675,-15.238,17.192,16.801,22.662,9.768,-7.424,23.053,23.834,0.000,14.847,38.681,-3.907,-3.907,-17.973,-17.582,-13.675,-21.880,7.033,38.681
'[01:51:24.590 05/09/2075]',23.834,15.629,10.940,-15.238,-15.629,16.801,12.503,21.099,10.940,-5.079,21.880,23.443,0.000,13.284,41.026,-2.735,-1.172,4.689,-10.159,-14.457,-23.053,0.781,41.026
'[01:51:24.594 05/09/2075]',29.304,17.973,5.861,-25.788,-12.503,13.675,12.503,12.894,7.814,3.126,12.112,21.099,-5.861,16.020,39.072,-3.516,9.377,50.403,-5.079,-20.708,-27.350,1.563,39.072
'[01:51:24.598 05/09/2075]',26.960,2.344,4.689,-6.642,-9.768,7.424,9.768,19.536,6.642,-4.298,13.675,31.258,-8.205,14.066,35.165,5.861,2.735,2.344,-3.907,-10.940,-21.880,-1.563,35.165
'[01:51:24.602 05/09/2075]',27.350,-4.298,4.689,-3.126,-5.861,4.689,7.814,17.192,10.940,-11.722,16.410,28.523,-6.252,15.629,23.834,10.940,-4.689,-16.801,-3.907,-0.781,-26.178,-1.172,23.834
'[01:51:24.605 05/09/2075]',26.569,-2.344,9.377,-12.112,-3.907,4.298,10.159,9.377,12.503,-1.563,5.079,24.225,-7.033,17.973,19.536,8.987,4.298,30.867,-8.596,2.344,-27.350,0.000,19.536
'[01:51:24.609 05/09/2075]',24.225,3.126,16.020,-22.662,-1.563,5.079,10.940,7.033,11.331,1.563,-2.344,26.178,-7.033,17.973,21.880,3.126,4.298,16.020,-15.238,-5.470,-25.006,3.907,21.880
'[01:51:24.613 05/09/2075]',27.350,0.391,16.020,-26.178,-0.391,7.814,4.689,4.689,8.987,-16.020,10.159,23.834,-5.861,8.987,18.364,5.470,-5.861,-50.794,-15.238,-3.126,-30.867,0.000,18.364
'[01:51:24.617 05/09/2075]',25.397,10.159,-3.907,-28.913,-3.516,9.377,0.391,-2.735,7.033,-12.894,2.735,16.020,-10.549,8.205,14.457,1.563,2.344,-8.987,4.689,-14.457,-34.774,0.391,14.457
'[01:51:24.621 05/09/2075]',26.178,7.033,-0.781,-39.853,-5.079,11.331,-1.563,-11.722,10.549,5.079,-18.364,7.814,-12.894,10.159,16.801,-7.814,12.112,48.059,1.563,-12.894,-37.900,4.689,16.801
'[01:51:24.625 05/09/2075]',23.053,-12.503,-9.768,-26.178,-13.284,4.689,-10.549,-6.642,4.298,-12.894,-9.377,12.112,-16.410,0.391,11.331,0.391,0.000,-23.053,10.549,0.391,-37.118,-4.298,11.331
'[01:51:24.629 05/09/2075]',22.271,-23.443,-16.801,-19.145,-13.284,0.391,-12.503,-9.768,1.172,-26.569,5.470,7.814,-15.238,5.079,0.781,-0.781,-9.377,-64.469,17.582,13.284,-33.211,-0.391,0.781
'[01:51:24.633 05/09/2075]',22.271,-21.880,-19.145,-23.053,-12.112,-1.172,-12.112,-14.847,0.781,-2.735,-11.331,2.735,-19.536,9.768,4.689,-4.689,5.470,5.470,19.927,15.238,-28.523,-5.861,4.689
'[01:51:24.637 05/09/2075]',22.271,-23.053,-22.271,-17.582,-9.377,-5.861,-12.894,-12.112,-0.391,5.079,-24.225,7.033,-19.145,5.470,-0.781,3.516,8.205,8.205,23.053,14.847,-29.695,-7.033,-0.781
'[01:51:24.641 05/09/2075]',20.708,-31.648,-16.020,-5.470,-6.642,-8.987,-7.424,-7.814,-3.907,-2.735,-6.252,7.033,-19.536,3.126,-6.252,16.410,1.563,-28.132,16.801,15.238,-21.099,-7.814,-6.252
'[01:51:24.645 05/09/2075]',26.178,-24.225,-13.675,-14.847,-1.954,-7.814,-2.344,-12.894,-1.563,0.391,-1.172,0.000,-21.880,3.907,-2.735,17.973,8.205,1.954,14.457,6.642,-29.695,-7.033,-2.735
'[01:51:24.648 05/09/2075]',26.178,-28.523,-18.364,-3.516,-0.781,-10.159,0.391,-12.112,1.954,2.344,-7.033,-0.391,-19.536,3.907,-10.940,23.834,10.940,1.563,19.145,8.596,-32.039,-3.126,-10.940
'[01:51:24.652 05/09/2075]',25.788,-33.211,-19.927,3.516,-1.172,-11.722,1.563,-10.940,2.735,-10.549,5.470,-1.954,-16.020,-3.516,-7.814,23.834,1.954,-44.933,20.708,9.377,-27.350,-8.205,-7.814
'[01:51:24.656 05/09/2075]',29.695,-27.350,-16.410,1.172,3.907,-7.033,6.252,-15.238,11.331,0.000,7.424,-9.377,-16.020,8.596,0.000,16.801,10.159,-2.344,17.192,10.940,-32.039,0.391,0.000
'[01:51:24.660 05/09/2075]',26.178,-9.377,-23.053,-3.126,3.907,-2.344,9.377,-21.490,16.410,12.112,-2.344,-14.847,-12.503,16.410,-5.470,13.675,23.834,41.807,23.834,4.689,-35.946,6.252,-5.470
'[01:51:24.664 05/09/2075]',22.271,-5.470,-3.126,-16.410,1.954,1.563,13.284,-20.708,14.847,1.563,8.596,-10.549,-12.112,16.020,-1.172,12.894,18.755,5.079,3.907,-5.079,-30.085,9.377,-1.172
'[01:51:24.668 05/09/2075]',21.490,-10.549,5.470,-9.377,3.907,3.516,12.894,-14.847,12.503,-7.033,19.145,-7.814,-15.238,21.490,-2.735,13.675,13.675,-20.708,-4.689,-0.781,-25.397,14.066,-2.735
'[01:51:24.672 05/09/2075]',23.053,-15.629,5.861,-8.596,6.642,1.563,10.159,-14.457,17.192,5.470,-2.735,-7.033,-8.987,13.675,-6.642,14.847,21.490,38.681,-5.079,2.735,-21.490,10.159,-6.642
'[01:51:24.676 05/09/2075]',22.271,-22.271,1.172,3.126,7.424,-1.563,4.689,-5.470,16.410,0.391,-5.470,0.781,-6.642,8.205,-2.344,12.894,13.675,1.172,-0.391,5.079,-14.457,5.861,-2.344
'[01:51:24.680 05/09/2075]',29.304,-33.211,5.861,4.298,13.284,-5.079,0.781,-1.172,13.675,-16.801,12.503,4.689,-3.126,8.596,-4.689,14.457,0.000,-64.860,-5.079,10.940,-15.629,9.768,-4.689
'[01:51:24.684 05/09/2075]',35.946,-25.788,-12.894,2.344,17.582,-7.814,-3.126,-5.470,16.020,-6.642,-0.781,-1.563,4.298,3.126,-14.847,13.284,7.033,1.172,13.675,8.205,-18.755,3.516,-14.847
'[01:51:24.688 05/09/2075]',34.774,-15.629,-12.503,-7.814,15.629,-4.689,-1.954,-9.377,15.238,13.675,-17.582,-5.079,0.391,12.894,-10.549,3.516,16.020,50.794,13.284,2.344,-29.695,10.549,-10.549
'[01:51:24.691 05/09/2075]',35.165,-16.801,-2.735,-14.457,15.238,-6.252,-3.907,-4.689,5.861,-1.563,-2.344,1.954,-3.907,8.987,-7.033,5.861,2.344,-16.410,3.516,0.781,-35.165,10.549,-7.033
'[01:51:24.695 05/09/2075]',33.993,-17.973,-8.205,-12.894,12.112,-5.861,-4.298,-6.642,3.516,-9.768,8.205,-0.391,-4.298,7.033,-3.516,1.563,-5.079,-40.635,8.987,7.424,-39.463,4.689,-3.516
'[01:51:24.699 05/09/2075]',28.523,-19.145,6.642,-20.317,7.033,-4.689,0.000,-5.861,5.470,4.689,-5.470,2.344,-12.112,10.940,10.159,-2.344,4.298,19.927,-5.861,5.861,-37.900,7.033,10.159
'[01:51:24.703 05/09/2075]',23.443,-19.927,14.457,-19.145,3.516,-4.298,1.172,-0.781,5.861,5.470,-6.642,8.205,-13.284,12.894,16.801,-2.344,3.126,3.126,-13.675,4.689,-33.602,9.768,16.801
'[01:51:24.707 05/09/2075]',25.397,-23.834,3.126,-2.735,4.298,-5.861,0.391,3.516,8.596,-1.954,2.735,6.642,-10.940,10.940,17.582,-0.391,-5.470,-15.238,-2.344,3.907,-26.960,8.205,17.582
'[01:51:24.711 05/09/2075]',28.523,-23.053,-2.735,3.126,7.424,-3.516,1.563,0.391,12.894,1.172,-0.781,4.689,-10.549,12.503,12.503,3.126,1.954,19.927,3.516,2.344,-23.053,7.814,12.503
'[01:51:24.715 05/09/2075]',27.741,-26.178,-1.172,8.205,8.205,-3.907,1.172,2.735,10.940,-2.735,-1.563,7.814,-13.675,11.722,14.457,1.954,0.781,-0.781,1.954,4.298,-23.053,7.033,14.457
'[01:51:24.719 05/09/2075]',30.085,-23.834,-5.861,7.424,7.814,-4.689,-1.563,6.642,7.814,-17.582,8.987,14.457,-10.549,6.642,9.377,7.033,-8.596,-52.747,6.642,0.391,-27.350,7.424,9.377
'[01:51:24.723 05/09/2075]',35.946,-23.834,-2.735,-5.470,7.814,-2.735,-3.907,2.344,6.252,-11.722,1.172,7.814,-10.549,5.861,5.861,1.954,-2.344,-3.126,3.516,5.861,-30.867,1.954,5.861
'[01:51:24.727 05/09/2075]',31.648,-19.536,12.503,-29.695,2.344,-1.954,-1.172,-1.954,2.735,-8.596,4.689,5.079,-10.940,12.112,8.205,-6.252,3.126,13.284,-11.722,2.735,-30.867,5.470,8.205
'[01:51:24.730 05/09/2075]',31.258,-25.788,9.377,-17.582,1.954,-6.642,-2.735,5.079,0.391,-12.503,10.549,14.066,-5.861,10.549,5.861,0.391,-4.298,-33.993,-8.596,3.516,-23.834,2.735,5.861
'[01:51:24.734 05/09/2075]',35.556,-30.867,-5.861,-5.470,3.907,-8.205,-4.689,3.126,0.391,-8.987,11.722,14.457,-3.126,8.205,4.689,7.424,-5.861,-21.490,6.642,12.894,-27.741,-3.907,4.689
'[01:51:24.738 05/09/2075]',32.039,-36.728,-6.252,-5.079,0.781,-8.596,-4.298,-3.126,4.298,13.284,-8.205,7.814,-3.126,12.503,10.940,-2.344,6.252,39.463,7.033,14.847,-21.099,-4.298,10.940
'[01:51:24.742 05/09/2075]',27.741,-39.463,2.735,-5.079,-4.298,-9.377,-1.563,1.954,1.172,8.596,-5.861,13.284,-6.642,8.596,8.596,7.033,2.344,-8.987,-1.954,16.801,-26.178,-4.689,8.596
'[01:51:24.746 05/09/2075]',29.695,-34.774,-3.907,-7.814,-2.735,-6.252,-6.252,-0.391,1.563,-8.205,10.549,9.768,-3.126,3.126,8.596,5.470,-7.424,-68.376,4.689,15.629,-26.960,-8.987,8.596
'[01:51:24.750 05/09/2075]',33.211,-29.695,-5.861,-17.582,-1.172,-1.563,-9.377,-6.642,6.252,1.172,-2.344,1.954,-3.516,6.252,4.689,0.000,6.642,-1.172,6.642,15.629,-30.085,-5.470,4.689
'[01:51:24.754 05/09/2075]',33.211,-32.039,0.000,-17.582,2.344,-4.298,-7.033,-5.861,7.033,14.847,-20.317,4.298,-4.298,1.172,7.033,2.344,15.629,34.383,0.781,13.675,-22.271,-8.205,7.033
'[01:51:24.758 05/09/2075]',40.244,-29.304,-16.410,-5.079,10.549,-7.424,-12.894,-0.781,7.424,-3.516,-6.252,7.424,-0.391,-4.298,0.781,9.768,0.781,-28.523,17.192,11.331,-26.178,-9.768,0.781
'[01:51:24.762 05/09/2075]',44.151,-32.821,-19.536,-5.861,15.238,-10.549,-10.940,-8.205,9.377,-9.377,5.861,0.391,0.391,-2.344,2.735,5.861,-1.172,-28.523,20.317,16.020,-28.523,-8.596,2.735
'[01:51:24.766 05/09/2075]',40.635,-36.337,-9.768,-14.457,13.284,-13.675,-5.861,-13.675,8.987,2.735,-6.252,-3.516,-3.126,-7.814,7.033,6.642,6.642,3.907,10.549,13.284,-27.741,-13.284,7.033
'[01:51:24.770 05/09/2075]',37.509,-38.681,-12.503,-8.596,11.722,-13.675,-5.079,-14.847,10.159,1.563,-1.172,-5.470,-6.252,-1.172,14.066,-1.172,3.516,-23.443,13.284,11.722,-32.430,-4.298,14.066
'[01:51:24.773 05/09/2075]',36.337,-43.761,-13.675,-1.954,11.722,-11.331,-4.298,-17.973,11.722,-2.735,8.987,-9.377,-4.689,-2.344,9.768,4.689,3.516,-21.490,14.457,17.192,-33.602,-4.689,9.768
'[01:51:24.777 05/09/2075]',39.463,-44.542,-7.033,-3.907,14.066,-5.079,-1.954,-22.271,10.940,4.298,8.596,-14.457,-3.516,-5.861,17.192,1.563,13.284,16.801,7.814,16.410,-29.695,-8.596,17.192
'[01:51:24.781 05/09/2075]',38.291,-40.244,-10.549,5.079,15.629,-5.470,-1.563,-14.457,8.596,0.000,13.675,-7.424,-3.907,3.907,18.755,-3.516,8.987,-14.847,11.331,14.066,-29.304,1.563,18.755
'[01:51:24.785 05/09/2075]',40.244,-31.648,-11.331,0.391,14.457,-4.689,-2.344,-8.205,2.735,-14.457,30.085,-4.298,-7.814,7.424,10.940,3.126,-2.344,-57.827,12.112,8.205,-33.602,2.735,10.940
'[01:51:24.789 05/09/2075]',41.026,-22.662,-4.689,-12.112,12.894,-2.735,1.563,-10.549,3.126,-5.861,26.569,-10.940,-9.377,9.768,19.927,-7.033,2.735,-16.410,5.470,3.516,-33.602,4.298,19.927
'[01:51:24.793 05/09/2075]',42.979,-19.145,-7.033,-12.112,14.066,-2.735,3.516,-10.159,7.033,3.907,12.894,-11.331,-8.205,15.238,16.801,-10.159,10.159,12.894,7.814,0.781,-32.039,8.205,16.801
'[01:51:24.797 05/09/2075]',46.496,-24.225,-12.894,-5.079,14.847,-4.298,0.781,-7.424,5.079,-10.940,24.615,-4.689,-8.987,9.768,10.549,1.563,1.954,-33.993,13.675,4.689,-35.556,1.954,10.549
'[01:51:24.801 05/09/2075]',50.794,-25.788,-13.675,-1.172,20.708,-1.172,0.781,-9.768,12.112,-8.987,22.271,-9.377,6.642,-1.954,7.814,2.735,7.033,-0.781,14.457,3.516,-27.741,-1.954,7.814
'[01:51:24.805 05/09/2075]',50.794,-28.132,-14.847,-3.516,21.880,-2.735,-1.954,-12.503,17.192,12.503,-5.861,-9.768,4.689,0.391,11.331,-3.126,17.973,63.687,15.629,3.907,-27.741,-2.735,11.331
'[01:51:24.809 05/09/2075]',43.761,-35.556,-18.364,7.814,18.755,-8.596,-6.642,-3.907,9.377,-2.735,0.000,0.781,0.000,0.391,3.516,2.344,2.735,-2.735,19.145,7.424,-26.960,-1.172,3.516
'[01:51:24.813 05/09/2075]',46.105,-32.039,-23.834,7.814,19.927,-7.424,-7.424,-5.079,7.424,-16.801,19.927,-6.252,0.391,3.907,5.470,-6.252,-8.596,-62.125,24.615,4.689,-27.350,2.344,5.470
'[01:51:24.816 05/09/2075]',44.933,-29.695,-1.954,-14.457,18.755,-5.079,-1.563,-12.894,10.159,1.563,-0.781,-9.768,-2.344,8.596,10.549,-15.238,3.126,11.331,2.735,1.954,-22.662,3.516,10.549
'[01:51:24.820 05/09/2075]',43.370,-29.304,-1.172,-10.940,16.410,-3.516,-1.172,-8.987,9.377,9.377,-14.457,-6.252,-2.344,10.159,1.954,-11.722,8.596,34.383,1.954,6.252,-20.708,5.470,1.954
'[01:51:24.824 05/09/2075]',44.933,-23.053,7.033,-18.364,12.503,2.344,1.954,-7.033,7.814,-1.954,1.563,-2.344,1.954,5.861,3.516,-7.033,0.000,-16.801,-6.252,1.954,-21.099,3.516,3.516
'[01:51:24.828 05/09/2075]',44.933,-16.801,17.973,-27.350,8.987,9.377,7.033,-8.205,8.205,-4.298,5.861,1.954,0.781,5.861,6.642,-1.172,1.563,-5.861,-17.192,0.000,-23.443,0.391,6.642
'[01:51:24.832 05/09/2075]',47.277,-14.847,11.331,-18.755,9.768,9.377,5.079,-0.781,8.596,2.344,-4.689,6.642,1.954,9.377,2.344,-1.563,8.205,19.927,-10.549,-0.781,-21.099,3.126,2.344
'[01:51:24.836 05/09/2075]',51.184,-10.549,-1.563,-10.159,11.331,7.033,5.079,2.344,3.907,-2.344,2.735,9.768,1.172,8.596,3.907,0.391,1.954,-22.271,2.344,-3.516,-30.085,4.298,3.907
'[01:51:24.840 05/09/2075]',55.092,-4.298,5.861,-20.317,15.238,8.205,7.424,2.344,8.205,2.344,4.298,7.033,3.907,11.331,7.814,-0.391,3.126,3.126,-5.079,-6.252,-36.728,7.814,7.814
'[01:51:24.844 05/09/2075]',58.999,-7.814,5.861,-26.960,19.927,7.033,5.079,-3.516,11.331,13.284,-7.814,0.391,3.516,16.410,-3.126,0.000,12.503,50.403,-5.079,-1.563,-37.118,7.424,-3.126
'[01:51:24.848 05/09/2075]',53.529,-10.940,1.563,-19.536,18.364,1.954,2.735,-1.172,10.549,6.642,-5.470,8.596,2.344,11.722,-0.781,6.252,5.079,1.954,-0.781,-1.563,-37.509,5.470,-0.781
'[01:51:24.852 05/09/2075]',52.357,-17.192,3.907,-12.112,19.145,1.954,3.126,0.781,12.112,2.735,-2.344,16.410,0.000,9.377,4.689,14.457,-2.344,-18.364,-3.126,-0.391,-35.946,1.954,4.689
'[01:51:24.855 05/09/2075]',53.529,-22.271,-1.563,-6.252,21.099,0.391,3.126,-3.126,20.317,9.377,-15.238,8.205,3.126,12.503,-6.642,13.675,5.861,25.006,2.344,1.172,-26.178,1.563,-6.642
'[01:51:24.859 05/09/2075]',50.794,-16.020,-2.735,-10.159,20.708,0.000,3.126,-3.126,16.020,9.768,-14.847,8.205,1.172,12.112,7.033,-1.172,4.689,12.503,3.516,-5.079,-23.834,3.126,7.033
'[01:51:24.863 05/09/2075]',54.701,-13.284,-14.847,-1.954,21.099,1.563,1.954,-0.781,11.722,-7.424,6.642,8.987,2.735,12.894,6.252,-2.344,-6.642,-48.059,15.629,-3.907,-29.695,6.252,6.252
'[01:51:24.867 05/09/2075]',54.701,-8.205,-4.298,-16.801,18.364,4.298,3.516,-3.516,10.159,-5.079,8.987,0.000,5.079,7.424,8.205,-7.033,-1.563,1.172,5.079,-0.781,-33.211,2.344,8.205
'[01:51:24.871 05/09/2075]',49.621,-4.689,-0.391,-20.317,16.020,8.596,6.642,-8.596,13.675,16.410,-5.861,-0.391,3.907,17.192,13.284,-12.503,7.814,60.562,1.172,1.954,-33.993,8.987,13.284
'[01:51:24.875 05/09/2075]',46.886,-16.020,-5.861,0.000,12.503,3.516,6.642,0.391,7.033,1.172,8.205,10.159,4.298,8.596,10.159,2.735,-3.126,-2.735,6.642,8.987,-30.085,2.735,10.159
'[01:51:24.879 05/09/2075]',48.840,-23.053,-7.424,7.814,13.675,0.000,8.205,2.735,7.033,-12.112,25.397,11.722,7.424,1.563,13.284,8.596,-12.894,-37.900,8.205,16.020,-29.304,-3.516,13.284
'[01:51:24.883 05/09/2075]',49.231,-21.880,-4.298,1.563,16.801,-0.781,11.331,-3.516,9.768,7.033,11.331,8.205,3.907,9.377,21.490,0.781,0.781,31.648,5.079,14.847,-27.350,0.391,21.490
'[01:51:24.887 05/09/2075]',54.310,-28.913,-12.503,8.987,17.973,-6.642,6.252,3.126,5.079,11.331,0.000,18.755,2.735,4.689,15.238,10.549,3.516,35.946,13.284,17.582,-27.350,-3.516,15.238
'[01:51:24.891 05/09/2075]',54.701,-21.490,-3.907,-12.503,15.629,-6.642,5.079,0.781,-1.172,-0.391,18.364,13.284,-0.781,4.689,21.880,4.298,-6.642,-4.298,4.689,9.377,-33.993,-2.344,21.880
'[01:51:24.895 05/09/2075]',55.092,-20.317,-12.112,-12.503,14.457,-4.298,3.907,-5.470,0.391,-1.172,20.708,4.298,-1.563,9.377,16.020,0.391,-3.516,21.880,12.894,12.112,-36.728,-1.954,16.020
'[01:51:24.898 05/09/2075]',54.310,-26.569,-16.410,-6.252,12.503,-7.033,2.735,-4.298,0.391,0.000,15.238,7.814,-4.298,14.847,12.112,-0.391,-0.391,18.755,17.192,10.940,-33.211,2.735,12.112
'[01:51:24.902 05/09/2075]',50.794,-30.085,-12.112,-3.907,10.549,-6.252,0.391,-1.172,-0.781,-11.331,23.053,8.596,-7.033,8.987,20.317,-1.954,-7.424,-24.225,12.894,7.814,-31.648,0.781,20.317
'[01:51:24.906 05/09/2075]',49.231,-30.085,-23.834,2.735,10.549,-3.516,-0.391,-7.424,3.126,-5.861,17.192,-1.563,-11.331,12.112,25.788,-14.847,-1.954,13.284,24.615,12.112,-35.946,2.344,25.788
'[01:51:24.910 05/09/2075]',46.496,-31.258,-12.894,-10.940,11.722,-4.298,-1.954,-14.457,6.252,3.907,2.344,-7.424,-8.205,10.549,20.317,-17.192,8.205,51.966,13.675,8.596,-27.350,2.735,20.317
'[01:51:24.914 05/09/2075]',42.979,-32.039,-8.596,-14.847,13.284,-6.252,-4.689,-14.457,2.735,-5.861,7.033,-6.642,-10.940,12.503,13.284,-18.755,1.172,7.424,9.377,6.252,-22.271,5.861,13.284
'[01:51:24.918 05/09/2075]',46.105,-30.085,-21.490,-12.503,12.894,-6.252,-7.033,-17.973,0.000,-16.020,17.973,-14.847,-11.722,9.377,7.033,-18.364,-6.252,-23.053,22.271,13.675,-36.337,3.126,7.033
'[01:51:24.922 05/09/2075]',50.012,-30.867,-26.960,-7.814,20.317,-7.424,-7.814,-20.317,5.079,-0.781,0.000,-19.145,-3.516,1.954,1.172,-15.629,3.126,35.946,27.741,9.768,-30.085,0.391,1.172
'[01:51:24.926 05/09/2075]',50.012,-33.602,-14.847,-5.861,19.536,-4.689,-4.298,-14.847,0.000,-1.563,3.126,-11.722,-12.112,1.172,3.126,-2.344,0.781,4.689,15.629,7.033,-35.946,0.781,3.126
'[01:51:24.930 05/09/2075]',48.449,-32.039,-21.880,7.424,19.927,-2.735,-2.735,-11.722,-1.172,-16.801,24.615,-10.159,-8.596,-3.126,7.424,0.391,-8.205,-58.608,22.662,2.735,-29.695,-1.563,7.424
'[01:51:24.934 05/09/2075]',42.589,-19.536,-13.675,-6.252,15.629,0.391,1.172,-14.847,3.126,-5.470,16.410,-14.066,-5.470,1.563,9.768,-6.252,2.344,8.205,14.457,-6.642,-25.006,1.563,9.768
'[01:51:24.938 05/09/2075]',39.072,-11.722,10.549,-25.788,8.205,5.079,9.377,-12.503,2.735,16.410,1.563,-15.238,-6.252,11.331,15.629,-15.238,11.722,59.389,-9.768,-14.066,-23.834,8.987,15.629
'[01:51:24.941 05/09/2075]',36.728,-14.847,5.079,-10.940,2.344,2.735,8.205,0.391,-1.954,-1.954,17.973,-1.954,-5.079,12.112,6.642,-3.126,-0.781,-3.516,-4.298,-6.642,-22.271,6.252,6.642
'[01:51:24.945 05/09/2075]',41.416,-18.755,0.000,-7.814,0.391,1.563,5.470,4.298,-5.861,-15.238,30.867,0.000,-3.516,9.768,0.000,2.735,-9.377,-27.741,0.781,3.907,-34.774,5.861,0.000
'[01:51:24.949 05/09/2075]',46.105,-21.490,3.907,-10.159,0.391,1.563,7.424,5.079,-5.079,0.781,12.112,4.298,-3.126,8.596,1.172,4.689,1.563,30.085,-3.126,7.814,-42.979,7.424,1.172
'[01:51:24.953 05/09/2075]',48.059,-30.085,1.954,1.563,3.126,-1.563,7.033,11.722,-5.470,0.391,1.954,17.582,-3.126,4.298,-6.252,19.536,-1.563,16.801,-1.172,12.112,-35.946,0.391,-6.252
'[01:51:24.957 05/09/2075]',51.966,-25.397,12.894,-15.238,9.768,-2.735,4.298,10.159,-5.861,-5.861,8.596,18.364,-2.344,6.252,-4.298,14.847,-11.331,-8.596,-12.112,9.768,-36.337,0.000,-4.298
'[01:51:24.961 05/09/2075]',55.482,-4.689,24.615,-46.105,15.238,1.172,7.424,2.344,-0.781,3.907,2.344,12.894,-1.563,17.192,4.298,-3.126,-5.470,27.350,-23.834,-10.159,-35.165,6.642,4.298
'[01:51:24.965 05/09/2075]',53.919,-7.033,7.033,-28.523,17.582,-3.516,3.907,5.470,-4.689,2.735,0.000,15.238,-2.735,17.582,0.391,-2.344,-11.331,10.549,-6.252,-8.596,-26.960,2.735,0.391
'[01:51:24.969 05/09/2075]',49.621,-11.331,-0.781,-22.271,14.066,-7.814,0.391,7.424,-7.033,-8.987,11.722,16.410,-10.159,23.443,-1.172,-0.781,-21.880,-38.681,1.563,-4.689,-32.430,3.516,-1.172
'[01:51:24.973 05/09/2075]',44.542,-10.549,-9.377,-14.847,12.503,-8.987,0.781,2.735,-4.298,0.391,1.172,6.252,-6.252,13.675,2.344,-5.470,-15.238,13.284,10.159,-3.907,-34.774,5.470,2.344
'[01:51:24.977 05/09/2075]',39.463,-18.364,-21.880,-0.391,7.033,-13.284,2.735,0.391,-3.907,0.781,0.391,0.000,-4.298,16.020,-5.079,-8.205,-9.377,27.741,22.662,1.172,-27.350,8.596,-5.079
'[01:51:24.980 05/09/2075]',36.728,-19.536,6.642,-16.020,4.689,-11.722,6.252,6.642,-8.205,-4.298,4.298,7.814,-7.814,10.549,-7.814,4.298,-14.457,-19.536,-5.861,-1.954,-23.053,3.907,-7.814
'[01:51:24.984 05/09/2075]',33.602,-22.271,7.424,-12.112,3.516,-10.940,7.424,5.079,-6.252,-5.079,7.814,1.172,-5.470,6.642,-5.079,1.172,-11.722,-14.066,-6.642,1.563,-21.099,4.298,-5.079
'[01:51:24.988 05/09/2075]',37.118,-28.132,7.033,-12.503,1.954,-9.377,6.252,3.516,-3.126,11.722,-9.768,-3.126,-5.079,8.205,-6.642,-1.563,-0.781,44.933,-6.252,3.907,-19.927,6.252,-6.642
'[01:51:24.992 05/09/2075]',36.337,-35.556,5.079,0.000,2.344,-12.112,3.516,11.722,-6.642,4.298,-5.470,3.516,-8.596,10.159,-10.159,3.516,-6.642,-2.344,-4.298,6.252,-14.457,7.424,-10.159
'[01:51:24.996 05/09/2075]',35.165,-38.291,-2.344,7.424,1.172,-15.238,2.344,12.112,-2.735,-12.894,14.066,1.563,-3.907,5.861,-5.861,4.689,-17.192,-60.562,3.126,10.159,-18.755,5.470,-5.861
'[01:51:25.000 05/09/2075]',41.026,-23.053,-2.735,-9.768,7.424,-13.284,3.516,5.861,5.470,0.000,5.079,-5.079,-1.172,13.675,0.781,-7.033,-3.126,9.768,3.516,-1.563,-25.397,12.894,0.781
'[01:51:25.004 05/09/2075]',44.151,-17.973,3.907,-16.410,10.549,-13.284,7.814,7.033,7.814,15.629,-7.424,-0.781,-6.252,22.271,2.344,-2.735,8.596,51.184,-3.126,-8.205,-25.788,14.457,2.344
'[01:51:25.008 05/09/2075]',43.761,-18.364,2.735,-12.503,8.596,-12.894,6.252,10.940,8.205,0.781,7.814,3.126,-3.907,9.377,12.503,3.126,-0.781,-8.205,-1.954,-8.596,-27.741,1.954,12.503
'[01:51:25.012 05/09/2075]',46.886,-21.880,-4.298,-10.940,9.768,-10.940,3.907,4.298,6.252,-6.252,17.192,-0.781,-4.689,11.331,7.033,0.391,-0.781,-12.112,5.079,-2.735,-33.602,6.642,7.033
'[01:51:25.016 05/09/2075]',45.714,-30.867,-8.596,-1.172,7.814,-11.722,3.516,2.735,1.954,3.126,0.781,3.907,-8.987,11.331,0.000,7.033,6.642,20.317,9.377,1.954,-27.350,5.861,0.000
'[01:51:25.020 05/09/2075]',36.728,-37.118,-19.927,12.112,1.172,-16.801,1.954,3.126,-2.344,0.000,-0.391,2.735,-5.079,6.252,2.735,-4.689,2.735,-6.252,20.708,1.954,-16.020,9.768,2.735
'[01:51:25.023 05/09/2075]',34.383,-34.383,-22.271,9.768,0.000,-16.020,0.391,1.563,-1.172,-2.344,3.126,2.344,-3.516,13.675,-5.470,-1.563,0.391,-13.284,23.053,3.126,-18.755,14.847,-5.470
'[01:51:25.027 05/09/2075]',34.774,-27.741,-15.238,1.954,1.172,-10.549,3.126,-1.563,-1.172,4.298,2.735,0.391,-3.516,18.364,-4.298,-3.516,7.814,21.880,16.020,-4.298,-10.549,17.192,-4.298
'[01:51:25.031 05/09/2075]',35.556,-22.271,-12.112,-1.172,0.391,-8.205,3.516,2.344,-2.344,3.126,5.079,6.252,-0.391,19.536,3.126,-8.987,3.907,-9.768,12.894,-14.066,-3.907,15.238,3.126
'[01:51:25.035 05/09/2075]',40.244,-21.490,-9.377,-1.172,3.516,-3.907,1.172,5.079,-3.516,-5.861,18.755,7.814,1.563,20.317,0.781,-6.642,-2.735,-57.827,10.159,-10.940,-9.377,17.192,0.781
'[01:51:25.039 05/09/2075]',42.589,-16.410,-14.847,-1.954,3.126,0.781,1.563,0.781,-2.735,4.689,11.722,0.391,1.172,19.536,5.861,-14.066,1.954,-22.271,15.629,-10.549,-15.238,16.020,5.861
'[01:51:25.043 05/09/2075]',42.589,-22.271,-4.689,-7.424,2.735,0.391,6.642,-4.298,-4.298,19.536,-4.689,-3.126,0.391,23.443,0.391,-17.582,10.549,6.252,5.470,-8.987,-8.205,17.582,0.391
'[01:51:25.047 05/09/2075]',48.059,-27.350,-7.424,0.391,6.252,1.563,4.298,-1.172,-5.470,8.596,3.516,0.391,0.781,21.490,-7.424,-7.814,3.126,-40.244,8.205,-3.907,-16.020,19.145,-7.424
'[01:51:25.051 05/09/2075]',51.184,-27.741,-7.814,1.954,4.689,5.861,7.814,-2.735,-5.079,11.331,2.735,-3.126,1.172,17.582,-10.549,-2.735,4.689,-11.331,8.596,-5.079,-15.629,14.457,-10.549
'[01:51:25.055 05/09/2075]',53.138,-29.695,-1.172,0.781,4.689,7.814,11.722,-3.907,-0.781,32.039,-21.880,-1.563,3.126,13.675,-7.814,-1.563,15.238,57.827,1.954,-6.252,-8.596,11.331,-7.814
'[01:51:25.059 05/09/2075]',49.231,-32.430,-1.172,8.596,0.391,4.298,11.331,6.252,-5.470,19.145,-11.331,7.814,0.781,6.252,0.391,1.954,4.689,-3.516,1.954,-5.079,-9.768,4.298,0.391
'[01:51:25.063 05/09/2075]',41.026,-26.178,-0.781,7.033,-4.298,3.516,11.331,8.987,-6.642,3.126,6.252,7.424,2.344,8.205,-1.954,0.781,-6.252,-60.562,1.563,-5.079,-9.377,8.205,-1.954
'[01:51:25.066 05/09/2075]',37.118,-22.662,4.298,-7.033,-6.642,1.954,10.940,3.126,-1.954,19.536,-10.940,3.126,3.516,9.768,-4.298,-0.391,6.252,11.722,-3.516,-3.907,-10.159,7.424,-4.298
'[01:51:25.070 05/09/2075]',37.900,-27.741,8.596,-9.377,-6.642,-2.344,9.768,7.424,-5.079,31.258,-23.443,6.252,0.000,17.973,0.391,-8.987,12.894,37.118,-7.814,0.781,-13.675,12.894,0.391
'[01:51:25.074 05/09/2075]',45.324,-21.490,-2.344,-12.503,-4.689,-1.172,4.689,9.768,-9.768,19.536,-10.549,3.907,5.079,19.536,-11.722,-10.159,0.391,-18.755,3.126,-3.907,-17.192,19.927,-11.722
'[01:51:25.078 05/09/2075]',55.482,-24.615,0.391,-18.755,-1.172,1.172,6.642,3.516,-14.457,21.880,-0.781,-3.126,5.861,19.927,-5.861,-17.973,-0.391,-11.331,0.391,-1.563,-16.020,15.629,-5.861
'[01:51:25.082 05/09/2075]',58.608,-29.695,-6.252,-7.814,-0.391,-1.172,7.814,7.033,-17.582,33.993,-11.722,-1.954,7.424,13.284,2.344,-21.490,5.861,19.145,7.033,-0.391,-12.112,7.424,2.344
'[01:51:25.086 05/09/2075]',57.045,-33.993,-1.172,-9.768,-4.689,-2.735,8.205,9.377,-21.490,29.695,-5.861,1.172,8.596,10.549,-3.126,-13.675,-0.781,-20.708,1.954,0.391,-11.722,6.642,-3.126
'[01:51:25.090 05/09/2075]',56.264,-33.211,-2.735,-8.987,-3.516,-3.126,8.987,7.814,-18.755,34.774,-4.689,-0.781,7.033,17.582,-5.861,-9.377,0.781,8.205,3.516,1.563,-14.457,10.940,-5.861
'[01:51:25.094 05/09/2075]',51.184,-33.211,-14.457,-4.298,-7.814,-7.424,10.159,2.735,-12.503,42.589,-12.894,-2.735,6.642,18.755,-2.735,-9.377,10.940,59.780,15.238,3.126,-15.238,6.642,-2.735
'[01:51:25.098 05/09/2075]',45.714,-38.291,-17.192,4.298,-10.549,-11.722,7.814,7.814,-12.503,32.430,-7.424,5.079,7.424,22.271,-10.549,-1.954,3.126,10.549,17.973,8.205,-14.847,13.284,-10.549
'[01:51:25.102 05/09/2075]',41.416,-40.244,-21.880,16.020,-9.377,-15.629,5.470,14.066,-11.722,25.006,-3.516,7.424,4.689,22.271,-14.066,2.344,-3.907,-10.159,22.662,10.940,-11.331,16.410,-14.066
'[01:51:25.105 05/09/2075]',36.728,-42.589,-15.238,15.238,-10.549,-16.410,7.033,12.503,-8.596,29.695,-11.722,4.689,5.861,17.192,-18.755,8.596,2.735,29.695,16.020,12.112,1.954,8.987,-18.755
'[01:51:25.109 05/09/2075]',33.211,-43.370,4.298,4.689,-8.596,-16.020,5.079,18.364,-12.894,26.569,-15.238,7.814,3.516,9.768,-12.894,3.516,4.689,12.503,-3.516,8.596,10.159,7.814,-12.894
'[01:51:25.113 05/09/2075]',33.602,-45.714,-3.907,9.377,-7.424,-17.192,-1.172,19.927,-19.536,5.079,-1.563,12.112,-1.954,5.079,-28.523,20.317,-6.642,-50.012,4.689,8.205,3.516,8.987,-28.523
'[01:51:25.117 05/09/2075]',33.602,-41.026,-9.768,3.516,-4.689,-18.755,-3.907,14.457,-22.271,8.596,-1.172,6.642,-4.298,4.689,-13.284,4.689,-1.172,-8.205,10.549,3.516,0.000,8.596,-13.284
'[01:51:25.121 05/09/2075]',42.198,-42.589,-8.987,-8.205,3.907,-20.708,-7.033,5.079,-19.145,27.350,-20.708,3.126,-2.344,1.172,-7.424,-1.172,9.768,46.886,9.768,5.470,-9.768,6.642,-7.424
'[01:51:25.125 05/09/2075]',41.807,-52.357,-21.099,5.079,4.689,-24.615,-14.847,8.205,-23.443,15.238,-8.987,7.814,-3.126,0.391,-9.768,4.298,-1.954,-24.225,21.880,10.159,-17.973,6.252,-9.768
'[01:51:25.129 05/09/2075]',43.370,-55.873,-23.443,4.689,5.470,-25.006,-14.066,1.563,-28.132,8.205,5.861,6.252,-3.126,-7.033,0.781,2.344,-9.768,-67.985,24.225,10.940,-20.708,0.391,0.781
'[01:51:25.133 05/09/2075]',42.198,-51.575,-16.801,-13.284,3.126,-20.708,-12.112,-10.159,-26.569,29.695,-14.066,-3.516,-4.689,-3.126,6.252,-12.894,4.689,-1.172,17.582,6.252,-18.755,-1.563,6.252
'[01:51:25.137 05/09/2075]',40.635,-49.621,-25.397,-8.987,-0.781,-17.973,-14.066,-9.768,-25.006,34.774,-25.397,-3.126,-5.470,3.126,-1.954,-15.629,5.470,1.563,26.178,1.954,-18.364,5.861,-1.954
'[01:51:25.141 05/09/2075]',37.118,-42.589,-34.383,-5.079,-6.642,-14.847,-10.159,-12.112,-27.741,26.178,-13.675,-8.205,-5.470,11.722,-8.205,-21.880,-5.470,-33.993,35.165,-1.172,-16.801,17.192,-8.205
'[01:51:25.145 05/09/2075]',37.900,-32.430,-19.145,-25.788,-3.907,-8.987,-5.861,-19.536,-25.788,24.225,-6.252,-17.582,-5.079,23.834,-15.629,-28.132,-1.172,-13.675,19.927,-3.126,-11.331,22.271,-15.629
'[01:51:25.148 05/09/2075]',33.993,-33.993,-11.331,-21.880,-3.516,-7.814,-6.642,-14.066,-22.271,26.178,-11.722,-10.940,-3.907,25.788,-19.145,-21.880,0.781,-11.722,12.112,0.391,-7.814,26.178,-19.145
'[01:51:25.152 05/09/2075]',31.648,-37.900,-19.145,-6.642,-5.470,-8.987,-7.033,-8.987,-25.788,16.801,-1.172,-4.689,-5.079,21.099,-15.238,-16.410,-6.642,-55.482,19.927,4.689,-9.768,24.225,-15.238
'[01:51:25.156 05/09/2075]',33.211,-35.556,-13.284,-14.847,-3.126,-8.205,-7.033,-10.549,-24.615,22.662,-1.172,-10.159,-1.954,17.192,-13.284,-16.020,-0.391,-17.192,14.066,5.079,-9.377,18.755,-13.284
'[01:51:25.160 05/09/2075]',36.337,-31.258,-21.880,-7.814,-2.344,-7.033,-7.033,-7.424,-22.271,33.993,-9.377,-8.205,0.000,17.582,-9.377,-15.238,8.596,30.476,22.662,0.391,-11.331,17.973,-9.377
'[01:51:25.164 05/09/2075]',42.589,-35.946,-19.536,-0.391,0.391,-10.159,-4.689,0.391,-24.225,24.225,1.954,-0.391,3.516,13.675,-6.642,-9.768,-0.391,-8.205,20.317,1.563,-9.768,14.457,-6.642
'[01:51:25.168 05/09/2075]',45.324,-23.834,-10.940,-11.331,2.344,-6.642,-0.391,3.516,-25.006,17.973,16.020,-6.642,7.424,15.629,-7.424,-13.284,-5.470,-30.476,11.722,-8.205,-4.298,11.722,-7.424
'[01:51:25.172 05/09/2075]',45.324,-25.788,0.391,-8.987,6.642,-4.689,2.735,4.689,-16.801,36.728,-2.344,-6.642,8.205,26.569,-11.331,-13.675,5.861,39.072,0.391,-3.126,-6.252,23.053,-11.331
'[01:51:25.176 05/09/2075]',42.979,-34.383,10.549,2.344,7.033,-3.516,7.814,9.377,-15.238,33.211,-2.344,-0.781,8.205,20.317,-5.079,-10.159,1.954,13.675,-9.768,5.470,-6.252,17.973,-5.079
'[01:51:25.180 05/09/2075]',39.463,-28.523,7.814,2.735,4.298,-1.172,10.159,7.814,-12.894,14.847,17.192,-0.781,7.033,23.834,-14.066,0.391,-8.205,-46.105,-7.033,5.470,-17.192,23.834,-14.066
'[01:51:25.184 05/09/2075]',36.728,-24.225,5.861,6.642,3.126,3.907,12.112,3.907,-7.033,23.053,9.377,-3.126,4.298,37.118,-24.615,3.907,5.079,17.973,-5.079,1.954,-16.801,38.291,-24.615
'[01:51:25.188 05/09/2075]',36.728,-20.317,16.410,1.172,2.735,11.331,17.192,0.391,-2.735,42.198,-5.079,-8.596,1.563,16.801,10.159,-4.689,17.582,66.422,-15.629,-0.781,-17.192,16.801,10.159
'[01:51:25.191 05/09/2075]',38.291,-15.629,26.178,-2.344,2.735,14.457,16.801,10.549,-5.079,25.788,13.284,2.735,0.391,12.503,7.424,14.847,7.033,-1.563,-25.397,-7.033,-14.457,6.642,7.424
'[01:51:25.195 05/09/2075]',40.244,-16.020,22.662,-1.172,4.298,17.973,10.549,9.768,-5.079,21.099,23.443,-3.126,4.298,10.549,17.973,0.781,3.907,-29.304,-21.880,-5.861,-12.894,4.689,17.973
'[01:51:25.199 05/09/2075]',42.979,-23.053,19.927,-1.172,7.424,14.066,7.424,6.642,-3.516,37.118,-0.391,-5.079,5.470,8.205,17.192,-5.861,13.675,33.993,-19.145,0.000,-12.894,5.470,17.192
'[01:51:25.203 05/09/2075]',43.370,-37.118,5.470,10.549,5.470,7.424,0.000,9.768,-5.861,34.383,-11.722,1.563,6.642,7.033,0.391,1.563,9.377,14.066,-4.689,7.424,-9.377,5.470,0.391
'[01:51:25.207 05/09/2075]',37.900,-43.761,-12.503,17.973,-1.172,1.172,-8.205,6.642,-7.033,21.880,-9.768,-2.735,9.768,0.781,-8.205,-1.563,0.000,-14.847,13.284,9.377,-8.596,7.424,-8.205
'[01:51:25.211 05/09/2075]',39.463,-40.244,-17.192,7.424,-0.391,-0.391,-7.033,-1.954,0.000,23.443,-15.238,-10.549,9.377,5.861,-15.629,-5.079,5.470,19.536,17.973,3.516,-8.987,14.457,-15.629
'[01:51:25.215 05/09/2075]',41.026,-40.244,-16.020,0.391,0.781,-3.907,-7.424,-3.516,0.781,21.490,-17.582,-5.470,5.470,1.954,-8.596,-1.954,4.298,1.563,16.801,2.735,-12.894,5.470,-8.596
'[01:51:25.219 05/09/2075]',41.416,-41.416,-6.642,-5.470,1.563,-6.252,-6.642,-0.781,1.954,6.252,-5.861,-1.563,6.642,2.735,-8.596,-0.391,-4.689,-48.059,7.424,3.126,-12.503,6.642,-8.596
'[01:51:25.223 05/09/2075]',38.291,-37.900,-5.079,-12.503,0.391,-6.642,-5.861,-5.079,5.470,14.457,-14.847,-4.298,1.172,6.642,-3.126,-5.470,1.954,3.516,5.861,4.298,-17.973,9.377,-3.126
'[01:51:25.227 05/09/2075]',36.728,-41.416,-4.298,-17.582,-1.172,-7.033,-7.424,-9.377,0.391,11.722,-19.536,-2.735,-9.377,7.033,0.000,-8.205,7.033,23.053,5.079,5.861,-19.927,8.987,0.000
'[01:51:25.230 05/09/2075]',31.648,-44.542,-14.847,-2.344,-7.033,-8.205,-9.768,-3.516,-5.470,-0.391,-14.066,7.033,-11.331,1.172,-1.954,-0.391,0.391,-29.695,15.629,2.735,-15.238,5.079,-1.954
'[01:51:25.234 05/09/2075]',31.258,-44.542,-13.675,-8.205,-8.205,-6.252,-12.503,-7.033,-8.205,-3.907,-10.549,4.689,-17.973,-2.735,-1.172,3.516,-1.954,-25.006,14.457,6.642,-24.225,-0.391,-1.172
'[01:51:25.238 05/09/2075]',36.728,-37.900,-5.079,-17.973,-1.954,-3.907,-10.549,-7.424,-2.344,20.317,-30.476,3.907,-14.457,7.424,-1.563,0.391,10.159,42.198,5.861,-0.781,-22.271,5.861,-1.563
'[01:51:25.242 05/09/2075]',40.635,-46.886,-3.516,-8.205,0.000,-6.252,-11.331,0.391,-10.159,16.801,-24.225,10.549,-13.675,6.642,-2.735,2.344,3.516,-4.298,4.298,5.861,-19.927,1.954,-2.735
'[01:51:25.246 05/09/2075]',43.370,-53.529,2.735,-7.033,2.344,-5.861,-12.503,1.563,-12.894,3.516,-4.689,10.159,-10.549,3.126,-0.391,3.907,-7.814,-60.171,-1.954,13.675,-23.053,0.391,-0.391
'[01:51:25.250 05/09/2075]',43.370,-49.621,-19.145,3.907,3.126,-5.861,-15.629,-2.344,-11.331,16.020,-17.192,5.079,-10.159,2.735,-4.298,3.907,3.126,11.722,19.927,11.331,-26.178,2.735,-4.298
'[01:51:25.254 05/09/2075]',43.370,-53.529,-7.033,0.391,4.298,-5.861,-11.331,-3.907,-12.112,28.523,-27.741,4.689,-16.801,2.735,10.940,-5.079,13.284,45.324,7.814,8.987,-22.271,0.391,10.940
'[01:51:25.258 05/09/2075]',42.198,-54.310,-6.252,-0.781,0.391,-1.954,-12.503,-3.907,-10.159,8.205,-4.298,6.642,-14.847,0.781,9.377,3.126,2.344,-18.755,7.033,7.814,-26.960,-0.781,9.377
'[01:51:25.262 05/09/2075]',38.681,-42.979,0.000,-8.205,-1.172,3.907,-7.424,-7.033,-7.033,1.172,8.987,5.470,-10.549,4.298,3.907,8.987,0.000,-24.225,0.781,0.391,-22.662,0.391,3.907
'[01:51:25.266 05/09/2075]',40.244,-35.165,14.847,-17.973,1.172,9.377,-0.781,-8.205,-0.781,13.675,1.172,4.689,-7.033,9.377,12.503,1.954,11.331,17.582,-14.066,-7.033,-14.847,1.954,12.503
'[01:51:25.270 05/09/2075]',37.118,-30.867,14.457,-16.410,-3.126,11.722,-0.391,-3.126,-3.907,12.112,1.563,8.987,-7.033,7.814,11.331,5.079,8.205,-4.298,-13.675,-5.079,-22.271,5.861,11.331
'[01:51:25.273 05/09/2075]',37.900,-24.615,1.563,-7.814,-1.172,13.675,-3.516,-1.172,-5.079,10.940,2.735,7.814,-2.344,0.781,7.033,8.596,4.689,-3.126,-0.781,-5.861,-25.397,4.298,7.033
'[01:51:25.277 05/09/2075]',40.635,-25.788,-4.298,-3.126,2.344,11.331,-3.126,-3.907,-7.033,19.927,-2.344,1.172,-0.391,1.563,11.722,-2.735,12.503,35.946,5.079,-5.079,-20.708,7.424,11.722
'[01:51:25.281 05/09/2075]',45.324,-36.337,-12.112,7.814,4.689,5.861,-7.424,0.781,-11.331,13.284,1.954,5.470,-1.172,3.126,4.298,0.781,8.205,-1.172,12.894,1.563,-17.582,5.470,4.298
'[01:51:25.285 05/09/2075]',40.244,-43.370,-19.536,21.880,1.954,2.735,-9.768,3.907,-14.457,-0.391,16.020,10.940,-3.907,3.126,-0.781,11.331,-3.126,-53.919,20.317,7.814,-14.847,1.563,-0.781
'[01:51:25.289 05/09/2075]',42.589,-42.198,-16.020,19.145,4.298,3.126,-6.642,1.563,-11.331,8.596,15.238,7.033,-5.470,12.894,-1.172,10.940,0.391,-15.238,16.801,7.033,-12.112,3.126,-1.172
'[01:51:25.293 05/09/2075]',47.277,-38.681,-4.689,5.079,8.596,4.298,-2.735,-1.563,-7.814,18.755,3.907,7.424,-9.377,17.973,0.391,12.894,10.549,13.284,5.470,6.642,-16.020,1.172,0.391
'[01:51:25.297 05/09/2075]',42.198,-30.476,7.814,-1.563,6.252,7.033,0.391,2.344,-10.549,9.768,14.066,9.377,-13.675,14.457,10.940,9.768,2.735,-31.258,-7.033,1.954,-27.350,5.079,10.940
'[01:51:25.301 05/09/2075]',43.761,-34.774,12.894,0.000,3.907,13.675,2.735,0.781,-6.642,18.364,12.503,1.563,-10.159,14.847,11.722,7.814,8.205,5.470,-12.112,2.735,-23.443,7.424,11.722
'[01:51:25.305 05/09/2075]',45.714,-34.383,25.006,-3.907,9.377,16.410,5.861,-0.781,1.563,44.933,-14.457,-1.563,-3.126,9.377,21.880,0.391,24.225,78.926,-24.225,2.344,-14.457,2.735,21.880
'[01:51:25.309 05/09/2075]',37.900,-41.416,17.973,17.973,6.252,12.894,1.954,9.768,0.391,31.258,-6.252,6.252,-6.252,13.284,9.768,13.675,14.457,16.410,-17.192,10.159,-14.457,8.205,9.768
'[01:51:25.313 05/09/2075]',36.728,-50.403,11.331,30.867,6.642,9.768,-1.172,12.503,-0.391,14.457,13.675,8.987,-5.470,10.549,11.331,19.145,3.126,-43.370,-10.549,16.020,-9.377,4.298,11.331
'[01:51:25.316 05/09/2075]',39.072,-44.151,12.894,16.410,15.238,4.298,-1.954,6.252,5.079,28.523,-2.344,7.033,-7.814,18.755,10.159,14.847,14.457,26.569,-12.112,12.894,-7.424,6.252,10.159
'[01:51:25.320 05/09/2075]',41.026,-46.105,4.689,15.238,17.973,-5.861,-9.768,12.894,3.907,28.523,-17.973,10.549,-6.642,16.020,-0.781,16.410,15.629,39.463,-3.907,11.722,-12.503,15.238,-0.781
'[01:51:25.324 05/09/2075]',40.244,-48.449,1.172,4.689,13.284,-10.159,-16.801,12.112,-2.735,15.238,-7.424,6.252,-10.940,12.894,8.596,-0.391,0.391,-23.053,-0.391,10.159,-16.020,14.066,8.596
'[01:51:25.328 05/09/2075]',44.542,-48.840,-1.954,-7.424,15.238,-12.503,-20.317,3.907,-2.344,8.987,-9.768,0.000,-8.987,13.675,-2.344,-5.470,-1.172,-19.145,2.735,6.642,-10.159,13.675,-2.344
'[01:51:25.332 05/09/2075]',43.370,-53.529,-14.066,-3.516,10.159,-16.410,-25.006,3.126,-5.861,13.675,-28.132,2.344,-12.503,10.549,-8.205,-7.424,1.172,3.907,14.847,11.331,-13.284,10.940,-8.205
'[01:51:25.336 05/09/2075]',38.681,-58.608,-14.066,-0.391,3.516,-17.192,-23.834,2.735,-7.814,1.954,-23.834,6.252,-15.238,5.470,-10.159,-3.126,-5.861,-35.556,14.847,12.112,-13.284,7.814,-10.159
'[01:51:25.340 05/09/2075]',37.509,-46.105,-8.596,-9.377,4.298,-9.768,-19.536,-1.563,-5.079,0.391,-19.536,3.516,-16.410,4.298,-11.722,1.563,-4.298,-9.377,9.377,6.252,-14.457,3.516,-11.722
'[01:51:25.344 05/09/2075]',36.337,-42.979,-5.079,-13.675,3.516,-4.689,-14.066,-9.377,-0.781,8.987,-25.788,0.781,-15.238,17.192,-20.708,0.391,6.642,42.979,5.861,3.516,-10.159,12.503,-20.708
'[01:51:25.348 05/09/2075]',31.648,-43.370,5.079,-16.410,0.391,-0.781,-13.675,-7.814,-1.954,-2.344,-14.066,3.126,-12.112,4.689,-2.344,-5.861,2.344,-1.563,-4.298,3.907,-7.814,4.689,-2.344
'[01:51:25.352 05/09/2075]',28.132,-40.244,5.470,-12.894,-1.563,2.344,-14.457,-5.861,-1.172,-4.689,-9.377,6.642,-15.238,11.722,-2.344,-4.298,1.563,-22.271,-4.689,3.907,-10.549,10.549,-2.344
'[01:51:25.355 05/09/2075]',28.913,-43.370,0.000,-7.033,1.563,1.954,-16.410,-8.205,0.391,3.126,-18.755,3.126,-12.503,12.503,-3.126,-8.205,10.940,25.006,0.781,7.814,-3.516,10.940,-3.126
'[01:51:25.359 05/09/2075]',29.695,-50.794,-0.781,-0.391,3.126,-1.563,-17.582,-5.470,1.172,4.298,-20.317,7.033,-10.549,3.126,9.377,-9.377,11.331,15.629,1.563,14.457,-6.642,6.642,9.377
'[01:51:25.363 05/09/2075]',32.821,-51.966,-0.781,5.470,8.596,-2.735,-21.490,1.563,3.126,-14.457,-3.516,15.629,-7.814,1.172,1.954,6.252,-0.391,-47.668,1.563,17.973,-9.768,4.298,1.954
'[01:51:25.367 05/09/2075]',40.635,-48.449,-8.596,1.563,11.722,-1.563,-18.755,-4.689,0.391,-11.331,0.391,9.377,-12.112,1.563,5.470,3.126,2.344,-0.391,9.377,13.675,-13.675,2.344,5.470
'[01:51:25.371 05/09/2075]',37.900,-46.496,-4.298,-3.516,7.424,-0.391,-13.675,-9.768,4.298,5.861,-11.331,3.126,-9.768,4.689,17.973,-10.940,8.596,58.608,5.079,12.112,-8.205,-2.735,17.973
'[01:51:25.375 05/09/2075]',36.337,-45.714,1.563,0.000,2.735,0.391,-12.503,1.172,-1.172,-14.066,8.205,11.331,-12.503,0.781,15.238,1.172,-1.563,-5.079,-0.781,5.470,-15.238,0.391,15.238
'[01:51:25.379 05/09/2075]',35.946,-44.933,0.781,5.079,-0.391,2.344,-7.033,2.344,-7.033,-27.741,31.648,10.159,-16.801,3.907,13.675,5.470,-7.424,-37.509,0.000,3.907,-14.457,1.563,13.675
'[01:51:25.383 05/09/2075]',32.039,-46.496,-1.563,14.457,-3.516,3.126,-3.126,2.344,-5.079,-9.377,19.145,4.689,-14.847,5.470,17.582,0.000,5.861,33.211,2.344,6.642,-11.722,4.689,17.582
'[01:51:25.387 05/09/2075]',27.350,-46.105,15.238,10.549,-5.861,5.079,-3.126,12.112,-3.907,-4.689,12.503,15.629,-15.629,6.252,15.629,12.894,11.331,37.900,-14.457,6.642,-19.145,14.457,15.629
'[01:51:25.391 05/09/2075]',28.913,-47.277,14.066,16.410,-5.470,7.424,-4.298,16.020,-5.861,-10.940,25.788,13.675,-17.192,13.284,6.252,19.145,3.516,0.391,-13.284,9.768,-13.675,14.066,6.252
'[01:51:25.395 05/09/2075]',30.085,-42.198,5.470,18.364,-1.563,8.596,-6.252,12.112,-6.252,-10.159,28.523,12.894,-16.020,8.205,13.284,16.801,5.079,7.033,-4.689,9.768,-15.629,8.596,13.284
'[01:51:25.398 05/09/2075]',30.867,-33.602,21.099,5.079,3.516,10.549,-5.079,14.847,-6.252,-6.252,23.053,20.317,-21.099,8.987,16.801,25.006,10.159,11.722,-20.317,-0.391,-19.145,8.205,16.801
'[01:51:25.402 05/09/2075]',36.728,-28.132,12.112,11.722,8.987,11.331,-5.861,17.973,-7.814,-12.112,35.556,21.880,-26.569,17.973,22.271,23.053,2.344,-27.741,-11.331,-4.689,-21.880,5.470,22.271
'[01:51:25.406 05/09/2075]',37.900,-23.053,15.238,2.344,12.503,14.457,-3.516,9.377,-3.516,-5.079,33.993,17.582,-15.238,6.252,28.523,22.271,6.642,12.894,-14.457,-9.377,-19.927,3.126,28.523
'[01:51:25.410 05/09/2075]',36.337,-25.397,16.801,-1.563,13.284,14.457,-1.954,0.391,-0.391,6.642,25.397,13.284,-13.284,7.424,35.556,14.066,16.410,62.906,-16.020,-8.987,-15.238,0.781,35.556
'[01:51:25.414 05/09/2075]',35.946,-37.118,16.801,0.781,12.112,10.940,-4.689,-0.781,0.000,-0.391,30.867,15.238,-12.503,18.364,28.913,9.768,7.424,18.755,-16.020,-1.563,-14.457,11.331,28.913
'[01:51:25.418 05/09/2075]',33.602,-46.105,7.033,8.596,10.940,8.596,-8.987,-5.861,-0.391,-9.768,33.211,12.112,-10.159,8.205,27.350,8.596,0.781,-17.973,-6.252,3.126,-9.377,5.470,27.350
'[01:51:25.422 05/09/2075]',31.258,-53.138,0.000,8.205,10.940,3.907,-15.629,-11.722,1.563,6.642,3.126,5.470,-11.331,7.033,21.490,-0.781,8.987,37.509,0.781,9.768,-6.252,7.033,21.490
'[01:51:25.426 05/09/2075]',30.476,-50.012,7.424,0.000,9.377,0.781,-17.192,-4.298,2.735,1.172,-1.172,9.768,-17.973,17.973,16.020,-3.516,5.470,3.126,-6.642,7.424,-12.894,16.410,16.020
'[01:51:25.430 05/09/2075]',32.039,-44.542,0.000,-3.126,11.722,-2.344,-19.927,-3.907,0.391,-17.582,12.112,10.549,-16.020,5.470,17.192,-1.563,-8.205,-68.376,0.781,4.298,-15.629,8.205,17.192
'[01:51:25.434 05/09/2075]',30.085,-39.072,1.954,-19.145,8.596,-5.861,-20.708,-7.033,3.126,-9.377,-1.954,3.516,-5.079,-6.252,13.675,-6.252,-0.781,-0.781,-1.172,3.126,-5.470,-3.516,13.675
'[01:51:25.438 05/09/2075]',27.350,-37.900,-3.516,-16.801,6.252,-9.377,-19.927,-6.252,6.642,7.033,-22.271,2.344,-8.596,11.331,1.954,-10.549,4.298,45.714,4.298,7.033,-10.940,10.940,1.954
'[01:51:25.441 05/09/2075]',26.569,-46.105,-10.549,-9.768,2.735,-17.192,-23.443,-1.954,-3.126,-12.503,-10.940,9.768,-12.894,-7.424,9.377,-4.298,-9.768,-25.788,11.331,12.503,-12.112,-5.861,9.377
'[01:51:25.445 05/09/2075]',28.523,-47.277,-16.801,-8.205,3.907,-16.801,-26.178,-4.298,-2.735,-19.927,-2.344,2.735,-7.814,-5.470,0.391,-7.424,-14.847,-50.012,17.582,13.675,-8.205,-3.907,0.391
'[01:51:25.449 05/09/2075]',28.523,-53.529,-19.145,1.954,7.033,-18.364,-24.225,-5.470,3.126,-5.079,-20.708,-1.172,-9.768,0.781,0.000,-13.284,0.391,10.159,19.927,18.755,-7.033,1.954,0.000
'[01:51:25.453 05/09/2075]',33.211,-55.873,-19.927,3.907,10.159,-18.364,-23.053,-6.252,3.126,-7.814,-23.053,2.735,-12.894,-3.907,1.172,-6.642,0.000,-7.424,20.708,17.582,-12.894,-2.735,1.172
'[01:51:25.457 05/09/2075]',35.165,-57.045,-15.238,6.252,13.675,-14.847,-20.317,-8.596,8.987,-17.582,-6.642,2.735,-8.596,-4.298,1.954,0.000,-5.079,-35.165,16.020,14.066,-11.722,-1.954,1.954
'[01:51:25.461 05/09/2075]',37.509,-60.952,-21.099,11.722,13.284,-10.940,-17.582,-15.238,14.066,-16.020,-5.079,-3.516,-10.940,3.126,-3.126,0.391,0.391,1.172,21.880,17.973,-18.364,3.126,-3.126
'[01:51:25.465 05/09/2075]',29.695,-56.654,-20.708,12.112,7.033,-9.377,-14.847,-17.582,12.503,-19.536,-6.642,3.907,-15.238,1.563,-6.252,11.331,-0.781,-14.066,21.490,11.722,-21.490,5.079,-6.252
'[01:51:25.469 05/09/2075]',26.178,-51.184,-7.814,3.516,5.470,-4.298,-14.066,-15.629,6.642,-29.695,10.549,0.391,-18.364,0.000,1.172,4.689,-10.940,-59.389,8.596,3.126,-12.112,0.781,1.172
'[01:51:25.473 05/09/2075]',22.271,-48.059,-0.781,0.391,3.126,0.391,-13.284,-16.410,6.252,-18.364,1.172,-7.814,-14.847,-4.298,-0.781,2.344,-3.126,-3.907,1.563,8.205,-13.284,3.907,-0.781
'[01:51:25.477 05/09/2075]',23.834,-39.463,-5.470,1.954,6.252,1.954,-11.331,-15.629,4.298,-12.503,1.954,-8.205,-15.238,2.344,1.172,-2.344,3.907,26.178,6.252,2.344,-7.424,6.642,1.172
