'Time and date','FP1-F7','F7-T7','T7-P7','P7-O1','FP1-F3','F3-C3','C3-P3','P3-O1','FP2-F4','F4-C4','C4-P4','P4-O2','FP2-F8','F8-T8','T8-P8','P8-O2','FZ-CZ','CZ-PZ','P7-T7','T7-FT9','FT9-FT10','FT10-T8','T8-P8'
'hh:mm:ss.mmm dd/mm/yyyy','uV','uV','uV','uV','uV','uV','uV','uV','uV','uV','uV','uV','uV','uV','uV','uV','uV','uV','uV','uV','uV','uV','uV'
'[04:45:06.000 07/11/2076]',35.556,63.687,-6.642,16.410,51.966,12.112,8.987,35.946,50.794,26.178,-116.435,-75.018,-28.523,105.104,1.172,-192.234,-44.151,19.145,7.424,-161.758,13.675,102.759,1.172
'[04:45:06.004 07/11/2076]',0.391,0.391,0.391,0.391,0.391,0.391,0.391,0.391,0.391,0.391,0.391,0.391,0.391,0.391,0.391,0.391,0.391,0.391,0.391,0.391,0.391,0.391,0.391
'[04:45:06.008 07/11/2076]',0.391,0.391,0.391,0.391,0.391,0.391,0.391,0.391,0.391,0.391,0.000,0.391,0.391,0.391,0.391,-0.391,0.391,0.000,0.391,0.391,0.391,0.391,0.391
'[04:45:06.012 07/11/2076]',0.000,0.781,0.391,0.391,0.391,0.391,0.000,0.391,0.391,0.391,-3.516,-2.735,-1.563,2.344,0.000,-6.642,-0.391,-1.563,0.391,-1.563,1.172,2.344,0.000
'[04:45:06.016 07/11/2076]',0.391,0.391,0.391,0.391,0.391,0.391,0.391,0.391,0.391,0.391,1.563,-1.563,0.391,0.391,0.391,0.000,0.781,1.954,0.391,0.781,0.000,0.000,0.391
'[04:45:06.020 07/11/2076]',3.516,-1.172,1.563,1.172,1.172,0.391,1.954,0.781,-0.391,1.172,19.536,14.066,8.987,-9.377,2.344,32.430,3.907,9.768,-0.781,10.159,-3.907,-8.596,2.344
'[04:45:06.023 07/11/2076]',3.126,-1.563,1.172,1.954,0.781,0.781,1.172,1.563,-0.391,0.391,14.066,23.053,8.205,-8.205,1.563,35.556,1.954,4.689,-0.391,7.424,-2.344,-6.252,1.563
'[04:45:06.027 07/11/2076]',-2.344,1.563,-0.781,0.391,-0.391,0.391,-1.563,0.391,1.563,-0.781,-23.053,-2.344,-7.424,10.159,-1.954,-25.397,-4.298,-11.722,1.563,-11.331,5.470,11.331,-1.954
'[04:45:06.031 07/11/2076]',-3.907,3.516,-1.563,-1.172,-0.391,-0.781,-0.781,-0.781,1.954,0.391,-23.834,-30.085,-11.722,14.457,-1.563,-52.747,-3.126,-7.424,2.344,-12.112,5.470,11.722,-1.563
'[04:45:06.035 07/11/2076]',4.298,-1.954,1.563,0.391,1.954,0.000,3.126,-0.391,-1.172,2.344,30.476,-2.735,9.768,-10.940,3.907,25.788,6.252,15.629,-0.781,15.238,-6.252,-13.675,3.907
'[04:45:06.039 07/11/2076]',12.112,-7.033,4.689,3.516,3.126,1.954,5.079,2.344,-3.126,3.126,67.204,58.608,31.258,-34.383,7.424,121.514,12.112,29.304,-3.907,35.165,-15.629,-30.867,7.424
'[04:45:06.043 07/11/2076]',23.443,-12.503,9.377,10.159,6.252,2.735,11.722,8.987,-3.516,7.033,115.263,133.236,63.297,-65.641,13.675,240.684,21.880,59.780,-8.596,60.952,-30.085,-56.264,13.675
'[04:45:06.047 07/11/2076]',32.430,-19.927,12.503,16.020,8.596,3.516,14.457,13.675,-5.470,6.642,151.990,198.095,85.958,-89.866,16.801,338.755,25.397,71.893,-11.722,81.270,-37.118,-75.018,16.801
'[04:45:06.051 07/11/2076]',27.741,-16.801,7.814,13.284,7.814,2.735,8.596,12.112,-1.563,5.079,100.806,179.731,66.813,-64.078,12.503,269.206,14.847,44.933,-7.033,54.310,-25.788,-49.231,12.503
'[04:45:06.055 07/11/2076]',21.099,-14.457,3.126,8.987,7.033,-1.563,5.470,7.424,-0.391,7.033,58.608,128.156,46.105,-37.900,10.549,175.433,10.159,30.085,-2.344,33.211,-16.410,-28.132,10.549
'[04:45:06.059 07/11/2076]',26.569,-21.490,2.344,3.126,10.159,-3.126,3.126,0.781,-5.861,10.549,96.117,103.541,51.966,-47.668,16.020,184.029,18.755,42.589,-1.563,55.873,-26.178,-45.324,16.020
'[04:45:06.063 07/11/2076]',32.039,-27.350,4.689,-3.516,13.284,-2.344,0.781,-5.470,-10.159,13.675,126.203,106.276,58.999,-56.264,21.490,211.770,25.397,46.105,-3.907,70.330,-34.383,-54.310,21.490
'[04:45:06.066 07/11/2076]',30.085,-27.350,3.126,-3.907,14.066,-2.735,-3.516,-5.079,-13.675,18.755,105.104,136.361,55.092,-51.966,21.490,221.538,28.132,35.946,-2.344,62.125,-36.337,-45.714,21.490
'[04:45:06.070 07/11/2076]',29.695,-26.569,5.861,-6.252,16.410,-1.954,-6.252,-4.689,-14.847,22.271,92.991,134.408,49.231,-47.668,23.053,209.817,31.648,30.867,-5.079,56.654,-37.509,-42.589,23.053
'[04:45:06.074 07/11/2076]',30.867,-22.662,6.252,-9.768,18.755,0.391,-5.079,-8.987,-17.582,30.085,99.243,94.945,41.026,-42.589,25.006,182.466,35.165,25.006,-5.470,52.357,-40.244,-41.807,25.006
'[04:45:06.078 07/11/2076]',32.039,-19.927,7.424,-10.940,18.364,5.079,-4.689,-10.159,-19.536,37.509,97.289,89.475,37.118,-37.118,25.397,179.341,41.807,16.020,-6.642,47.668,-40.635,-38.291,25.397
'[04:45:06.082 07/11/2076]',36.728,-21.099,10.159,-9.377,17.192,13.284,-3.516,-10.159,-21.880,43.761,100.415,97.680,39.853,-41.026,28.132,193.016,49.621,14.066,-9.377,50.794,-43.370,-41.807,28.132
'[04:45:06.086 07/11/2076]',37.509,-19.145,13.284,-11.722,14.066,21.099,-1.563,-13.284,-21.099,51.575,104.713,65.641,40.244,-38.681,30.085,168.400,57.827,11.722,-12.503,50.012,-42.589,-42.198,30.085
'[04:45:06.090 07/11/2076]',34.383,-16.410,15.238,-12.112,10.549,25.006,-0.391,-13.675,-17.973,55.873,88.303,43.370,36.337,-29.304,29.695,133.236,64.469,9.768,-14.457,41.807,-35.946,-35.556,29.695
'[04:45:06.094 07/11/2076]',36.728,-16.020,14.066,-7.033,11.722,27.350,-0.781,-10.159,-17.582,59.389,85.958,76.190,44.542,-36.728,30.867,165.665,73.455,12.894,-13.284,43.370,-37.900,-38.681,30.867
'[04:45:06.098 07/11/2076]',39.463,-18.364,15.238,-5.470,13.284,28.523,-1.954,-8.596,-16.410,58.999,98.462,92.991,51.966,-47.668,32.039,196.532,75.800,16.801,-14.457,53.138,-44.151,-46.496,32.039
'[04:45:06.102 07/11/2076]',35.165,-14.847,14.457,-7.033,14.066,27.741,-3.516,-10.159,-9.377,53.529,87.912,57.436,42.589,-37.900,28.913,156.679,71.111,6.642,-13.675,44.151,-39.853,-39.072,28.913
'[04:45:06.105 07/11/2076]',30.867,-11.722,13.675,-8.596,14.847,25.788,-4.689,-10.940,-4.689,50.012,70.720,41.026,32.821,-27.350,26.178,125.812,69.548,-1.563,-12.894,32.039,-33.993,-27.350,26.178
'[04:45:06.109 07/11/2076]',29.695,-14.457,15.629,-7.424,10.940,27.741,-4.689,-10.549,-0.781,46.105,89.084,56.654,41.026,-39.463,28.523,160.195,75.409,7.424,-14.847,42.979,-37.509,-36.728,28.523
'[04:45:06.113 07/11/2076]',27.741,-14.457,18.755,-8.205,8.596,27.350,-2.735,-9.377,2.735,44.542,96.508,53.138,44.151,-39.463,30.085,162.930,80.098,8.987,-17.973,40.635,-29.304,-37.509,30.085
'[04:45:06.117 07/11/2076]',23.834,-11.331,10.940,-3.516,10.549,21.099,-7.033,-5.470,6.642,41.026,55.482,48.059,29.304,-21.490,23.834,120.342,76.581,-10.940,-10.159,18.755,-18.364,-18.755,23.834
'[04:45:06.121 07/11/2076]',25.788,-12.503,4.689,-1.172,14.066,23.443,-12.894,-8.205,10.549,37.118,48.449,57.436,32.430,-27.741,22.662,127.375,74.237,-14.066,-3.907,23.053,-26.178,-19.145,22.662
'[04:45:06.125 07/11/2076]',30.476,-17.192,1.172,1.172,20.708,20.708,-14.457,-11.331,8.987,34.774,69.548,39.463,36.728,-40.244,23.443,134.017,72.674,-8.596,-0.391,39.463,-30.476,-34.774,23.443
'[04:45:06.129 07/11/2076]',34.774,-19.927,-2.344,0.391,25.788,19.145,-15.238,-17.192,9.377,29.695,78.535,28.523,38.681,-46.105,21.490,134.017,67.985,-11.722,3.126,44.151,-31.258,-39.463,21.490
'[04:45:06.133 07/11/2076]',33.602,-23.053,-5.861,3.126,24.225,21.490,-19.145,-19.145,9.768,26.569,65.641,60.171,42.589,-52.357,20.317,152.381,62.906,-7.033,6.642,46.886,-31.648,-39.463,20.317
'[04:45:06.137 07/11/2076]',31.648,-25.397,-6.642,4.298,19.536,19.927,-17.973,-17.973,7.424,26.569,60.171,64.860,42.979,-50.794,20.317,147.302,61.734,-1.954,7.424,44.933,-25.006,-38.681,20.317
'[04:45:06.141 07/11/2076]',27.350,-23.443,-7.424,4.298,14.847,17.973,-15.238,-17.973,5.861,28.523,58.217,39.853,37.118,-40.244,20.317,116.435,60.171,-1.954,8.205,36.337,-15.629,-32.430,20.317
'[04:45:06.145 07/11/2076]',26.960,-24.615,-8.205,4.689,12.503,18.364,-14.847,-17.582,4.689,31.258,58.217,50.403,40.244,-40.635,19.536,125.812,60.562,-3.126,8.987,38.291,-14.066,-31.258,19.536
'[04:45:06.148 07/11/2076]',28.132,-28.913,-6.642,6.252,11.722,16.410,-14.066,-15.238,0.781,31.258,68.767,64.860,44.542,-48.059,19.536,151.209,58.217,-2.344,7.424,49.231,-15.629,-38.681,19.536
'[04:45:06.152 07/11/2076]',23.443,-30.867,-8.987,7.814,8.205,11.722,-14.457,-14.457,0.000,26.960,65.250,38.291,37.900,-44.151,15.629,121.514,50.403,-9.377,9.768,46.886,-11.722,-35.556,15.629
'[04:45:06.156 07/11/2076]',17.192,-32.039,-12.112,7.424,3.516,6.252,-14.847,-14.066,0.391,20.708,47.668,21.490,29.695,-38.291,10.159,89.475,43.370,-17.582,12.894,40.244,-3.907,-30.867,10.159
'[04:45:06.160 07/11/2076]',15.629,-34.774,-11.722,8.596,-1.172,3.516,-14.066,-10.549,-0.781,16.801,45.714,58.999,33.602,-44.151,8.205,123.077,44.151,-13.284,12.503,42.979,-3.126,-33.602,8.205
'[04:45:06.164 07/11/2076]',10.159,-35.946,-14.066,11.722,-9.768,1.172,-16.020,-4.689,-1.563,12.503,39.463,85.958,33.211,-44.151,5.470,141.832,42.198,-14.847,14.847,37.118,2.344,-31.258,5.470
'[04:45:06.168 07/11/2076]',4.689,-28.913,-14.847,2.735,-13.675,4.689,-14.847,-11.722,1.172,8.987,31.648,42.979,23.834,-32.821,3.516,91.429,38.291,-24.225,15.629,24.615,8.987,-23.053,3.516
'[04:45:06.172 07/11/2076]',5.470,-23.053,-12.503,-5.861,-12.894,10.159,-15.629,-17.973,4.298,7.033,21.490,28.523,18.755,-27.350,1.563,69.548,35.946,-24.615,13.284,20.317,7.814,-17.582,1.563
'[04:45:06.176 07/11/2076]',14.066,-26.960,-12.894,-5.861,-9.377,16.020,-19.536,-18.364,1.172,3.907,47.668,38.291,29.304,-47.277,1.954,107.839,36.337,-8.987,13.675,41.807,-8.987,-32.430,1.954
'[04:45:06.180 07/11/2076]',18.755,-26.569,-13.284,-8.987,-6.642,18.364,-21.099,-21.099,-1.172,0.000,66.813,30.867,33.602,-56.264,3.126,115.653,34.774,-3.126,14.066,48.449,-13.284,-38.681,3.126
'[04:45:06.184 07/11/2076]',17.192,-26.178,-16.410,-8.596,-7.424,16.801,-23.834,-19.145,-3.907,-2.344,42.589,45.324,27.350,-48.059,0.781,100.806,30.476,-8.596,17.192,37.900,-9.377,-26.960,0.781
'[04:45:06.188 07/11/2076]',16.801,-27.350,-18.755,-7.424,-7.814,12.503,-26.178,-15.629,-9.377,-2.344,27.350,55.092,23.834,-42.979,-0.391,89.866,30.085,-7.814,19.536,32.039,-5.470,-17.973,-0.391
'[04:45:06.191 07/11/2076]',12.112,-28.523,-19.536,-11.722,-13.675,8.596,-22.662,-19.145,-14.847,0.391,49.231,21.490,23.443,-39.072,1.172,71.111,31.258,-3.907,20.317,35.165,1.172,-23.053,1.172
'[04:45:06.195 07/11/2076]',9.377,-28.913,-17.192,-17.582,-16.020,6.252,-22.271,-22.662,-19.145,5.079,58.217,5.470,23.443,-35.165,3.516,58.217,31.258,-4.298,17.973,36.337,7.033,-22.662,3.516
'[04:45:06.199 07/11/2076]',8.205,-31.648,-16.020,-17.192,-17.192,4.298,-25.397,-18.364,-25.006,8.987,50.012,33.211,26.178,-34.383,1.563,74.237,28.523,-1.954,16.801,39.072,7.814,-19.927,1.563
'[04:45:06.203 07/11/2076]',5.861,-30.085,-14.847,-19.927,-19.536,3.126,-27.350,-15.238,-30.476,12.894,46.496,28.132,25.397,-32.430,1.172,63.687,23.443,0.391,15.629,39.072,8.205,-20.317,1.172
'[04:45:06.207 07/11/2076]',2.344,-23.443,-13.675,-24.615,-21.490,4.298,-26.960,-15.629,-33.211,17.192,39.463,7.814,19.145,-24.225,1.563,34.383,20.708,0.781,14.457,32.039,9.768,-16.020,1.563
'[04:45:06.211 07/11/2076]',4.689,-21.490,-12.112,-27.741,-19.145,6.252,-27.350,-16.410,-35.556,21.099,33.211,30.867,21.099,-25.788,2.735,51.575,21.880,1.172,12.894,31.258,4.689,-15.629,2.735
'[04:45:06.215 07/11/2076]',8.987,-21.099,-11.331,-30.867,-19.536,8.205,-28.523,-14.457,-37.900,23.053,39.853,44.542,23.443,-32.430,4.298,74.237,25.006,-1.954,12.112,34.774,-0.391,-21.880,4.298
'[04:45:06.219 07/11/2076]',6.252,-16.020,-12.112,-41.026,-23.834,8.987,-27.741,-21.099,-34.383,25.788,33.993,7.814,17.192,-25.397,5.079,36.337,25.006,-12.894,12.894,26.569,0.391,-19.536,5.079
'[04:45:06.223 07/11/2076]',4.298,-14.457,-12.503,-47.277,-25.788,6.642,-28.132,-23.443,-27.741,26.569,14.847,-11.722,10.940,-15.629,2.735,3.126,23.443,-19.927,13.284,16.801,5.470,-11.331,2.735
'[04:45:06.227 07/11/2076]',5.470,-18.755,-14.066,-41.026,-31.258,3.126,-27.350,-13.675,-28.913,28.523,18.364,25.788,19.536,-26.178,3.907,46.105,26.178,-7.814,14.847,22.271,6.252,-18.364,3.907
'[04:45:06.230 07/11/2076]',6.252,-17.973,-12.894,-42.979,-33.602,4.298,-24.225,-14.847,-25.397,28.132,25.788,29.304,25.397,-30.085,6.252,55.873,23.443,2.344,13.675,27.350,6.252,-23.053,6.252
'[04:45:06.234 07/11/2076]',2.344,-13.284,-14.847,-41.807,-34.383,7.033,-24.615,-16.410,-19.536,25.006,8.987,1.954,17.582,-19.536,3.126,14.457,16.020,-3.516,15.629,15.238,10.549,-11.331,3.126
'[04:45:06.238 07/11/2076]',3.516,-12.112,-17.192,-37.118,-31.648,10.549,-27.350,-14.066,-17.582,23.834,-3.126,1.954,16.020,-19.927,1.563,6.252,12.894,-4.689,17.973,13.675,7.033,-7.424,1.563
'[04:45:06.242 07/11/2076]',7.814,-13.284,-15.238,-35.556,-26.960,10.159,-26.178,-13.675,-18.364,23.053,22.662,0.000,25.006,-34.383,1.954,34.774,16.020,4.298,16.020,31.648,0.000,-24.225,1.954
'[04:45:06.246 07/11/2076]',8.987,-14.457,-10.940,-37.118,-23.053,8.205,-24.615,-15.238,-16.801,22.271,32.430,-7.424,29.695,-39.853,-0.781,41.807,16.410,1.563,11.722,36.728,-0.391,-29.304,-0.781
'[04:45:06.250 07/11/2076]',6.252,-15.629,-11.331,-30.476,-19.145,2.344,-27.350,-7.424,-14.457,19.927,4.298,20.708,26.960,-35.946,-7.033,47.668,12.112,-5.079,12.112,28.913,3.126,-20.708,-7.033
'[04:45:06.254 07/11/2076]',5.079,-16.801,-9.377,-26.960,-14.457,-3.126,-28.132,-2.735,-14.066,17.973,-8.205,32.039,24.225,-33.602,-10.940,47.668,10.549,-5.861,10.159,27.350,5.470,-17.582,-10.940
'[04:45:06.258 07/11/2076]',2.735,-17.973,-5.079,-28.523,-11.722,-5.470,-26.178,-5.470,-14.066,15.629,4.298,-0.781,19.145,-29.695,-12.112,27.741,8.205,-3.516,5.861,26.178,7.424,-17.582,-12.112
'[04:45:06.262 07/11/2076]',1.563,-18.755,-4.689,-26.178,-10.159,-4.689,-26.960,-5.079,-14.066,14.847,10.159,-3.907,17.192,-26.178,-14.457,30.867,6.642,-5.861,5.470,23.443,9.377,-14.847,-14.457
'[04:45:06.266 07/11/2076]',2.344,-22.662,-4.689,-19.927,-8.205,-5.861,-27.350,-2.344,-14.847,15.238,6.642,20.708,20.708,-26.960,-19.927,55.092,5.079,-2.344,5.470,27.741,11.331,-16.020,-19.927
'[04:45:06.270 07/11/2076]',-1.172,-22.271,-5.079,-18.364,-10.549,-5.861,-26.178,-3.516,-12.112,15.238,3.516,7.424,19.927,-22.271,-27.741,45.324,4.689,-5.079,5.861,27.741,15.629,-16.410,-27.741
'[04:45:06.273 07/11/2076]',-5.079,-19.536,-9.768,-17.582,-11.722,-7.424,-26.569,-6.642,-6.642,14.847,-10.940,-5.861,17.192,-15.629,-34.774,25.006,4.689,-10.159,10.549,24.225,17.582,-13.675,-34.774
'[04:45:06.277 07/11/2076]',-3.907,-21.099,-11.722,-14.066,-11.331,-10.159,-25.397,-3.907,-4.689,14.457,-15.629,23.053,22.271,-21.099,-40.244,57.436,8.596,-7.033,12.503,31.258,12.894,-17.582,-40.244
'[04:45:06.281 07/11/2076]',-1.563,-23.443,-10.940,-11.331,-12.503,-10.940,-22.271,-1.563,-5.861,13.675,-4.689,38.681,28.132,-29.695,-37.509,82.051,8.205,-2.735,11.722,37.118,8.987,-24.225,-37.509
'[04:45:06.285 07/11/2076]',-2.735,-20.708,-10.159,-15.238,-14.457,-10.159,-19.927,-4.689,-4.298,12.503,-7.033,0.391,20.317,-20.708,-33.211,35.556,6.252,-9.377,10.940,28.132,10.549,-17.582,-33.211
'[04:45:06.289 07/11/2076]',-5.861,-17.582,-9.768,-13.284,-16.801,-12.112,-16.020,-1.563,-4.689,12.894,-13.284,-19.927,14.457,-11.331,-28.913,1.954,5.861,-8.987,10.549,19.145,16.801,-10.549,-28.913
'[04:45:06.293 07/11/2076]',-0.391,-16.801,-9.768,-13.675,-15.629,-8.596,-14.066,-2.735,-4.689,11.722,-3.126,14.066,22.271,-19.536,-23.443,38.681,11.331,-0.781,10.549,22.662,10.940,-13.284,-23.443
'[04:45:06.297 07/11/2076]',1.172,-15.629,-8.987,-17.582,-11.722,-3.907,-15.238,-8.596,-1.563,9.768,8.205,21.099,26.960,-24.615,-17.192,53.919,14.847,1.563,9.768,25.788,5.470,-15.238,-17.192
'[04:45:06.301 07/11/2076]',0.000,-8.596,-13.675,-19.536,-7.033,-0.781,-21.490,-12.503,3.907,2.344,-12.503,13.675,16.801,-15.238,-19.145,26.960,8.596,-10.549,14.457,13.284,0.781,-1.954,-19.145
'[04:45:06.305 07/11/2076]',-0.781,-6.642,-13.675,-20.317,-4.689,0.000,-23.443,-12.894,7.033,-2.344,-26.178,17.973,10.549,-11.722,-19.536,18.364,2.344,-9.768,14.457,5.079,0.391,5.470,-19.536
'[04:45:06.309 07/11/2076]',1.954,-7.424,-10.549,-21.099,-0.391,1.563,-23.443,-14.066,3.907,-3.126,1.954,4.298,15.238,-21.490,-14.847,29.695,1.563,1.563,11.331,16.410,-3.907,-7.033,-14.847
'[04:45:06.313 07/11/2076]',0.781,-6.252,-7.424,-22.271,0.391,1.563,-21.880,-16.410,5.861,-3.516,14.847,-9.768,16.020,-22.662,-14.066,28.913,-1.954,3.907,8.205,19.536,-2.735,-10.159,-14.066
'[04:45:06.316 07/11/2076]',-2.344,-8.205,-7.033,-18.755,0.000,-1.172,-23.834,-12.112,6.252,-4.689,-8.205,16.801,12.894,-18.755,-17.973,36.337,-3.907,-0.391,7.814,11.722,3.126,-3.907,-17.973
'[04:45:06.320 07/11/2076]',-4.689,-10.940,-7.814,-17.192,0.781,-4.689,-25.006,-11.722,5.861,-5.470,-19.145,24.225,11.331,-21.099,-21.099,37.900,-3.516,-3.516,8.596,10.549,4.298,-3.907,-21.099
'[04:45:06.324 07/11/2076]',-9.768,-11.331,-8.987,-18.755,1.563,-8.596,-27.350,-14.847,9.768,-10.159,-17.973,-8.596,5.079,-19.536,-24.615,12.894,-2.735,-11.722,9.768,7.814,5.079,-2.344,-24.615
'[04:45:06.328 07/11/2076]',-12.894,-14.066,-12.503,-16.410,0.391,-13.675,-29.304,-13.675,10.159,-14.457,-21.880,-5.470,0.391,-20.317,-27.350,17.192,-3.907,-17.192,13.284,4.298,5.470,-1.563,-27.350
'[04:45:06.332 07/11/2076]',-10.940,-18.364,-14.847,-15.629,3.907,-17.192,-31.258,-15.238,7.424,-16.410,-14.847,10.549,3.516,-31.258,-27.741,42.979,-5.861,-16.801,15.629,12.894,0.391,-9.377,-27.741
'[04:45:06.336 07/11/2076]',-7.424,-20.317,-17.192,-17.582,7.033,-18.364,-33.602,-18.755,6.642,-18.364,-8.596,-11.722,1.954,-32.039,-30.085,28.523,-9.377,-16.410,17.973,14.847,-2.344,-10.549,-30.085
'[04:45:06.340 07/11/2076]',-7.424,-20.708,-20.317,-15.238,7.424,-19.536,-33.211,-19.536,4.298,-17.973,-24.225,-28.523,-7.033,-24.615,-34.383,0.391,-13.284,-17.192,21.099,9.377,-0.391,-5.861,-34.383
'[04:45:06.344 07/11/2076]',-4.689,-25.006,-18.755,-6.642,5.861,-18.364,-30.085,-12.894,0.391,-17.582,-23.053,7.424,-1.954,-31.258,-37.900,37.900,-11.722,-8.987,19.536,13.675,0.000,-8.596,-37.900
'[04:45:06.348 07/11/2076]',-2.735,-27.350,-15.238,1.172,2.735,-16.020,-23.053,-6.252,-2.735,-17.582,-13.675,24.615,1.563,-33.602,-38.681,62.125,-9.377,-3.907,16.020,16.020,2.344,-11.331,-38.681
'[04:45:06.352 07/11/2076]',-12.894,-21.099,-12.112,6.252,-7.033,-14.457,-18.364,0.391,-3.516,-19.927,-33.602,-13.284,-14.457,-11.331,-43.370,0.391,-12.112,-15.629,12.894,-4.689,20.317,3.516,-43.370
'[04:45:06.355 07/11/2076]',-18.755,-15.238,-8.205,6.252,-12.894,-12.112,-11.331,1.563,-3.126,-19.145,-33.993,-18.755,-15.629,-4.689,-42.979,-10.940,-9.377,-13.284,8.987,-9.377,26.569,7.424,-42.979
'[04:45:06.359 07/11/2076]',-11.722,-16.020,-3.516,6.252,-12.503,-5.470,-7.814,2.735,-6.252,-17.582,-4.298,0.391,-0.781,-19.145,-39.853,32.821,0.391,-0.391,4.298,10.940,15.238,-6.252,-39.853
'[04:45:06.363 07/11/2076]',-5.861,-16.020,-4.298,7.033,-10.159,-2.735,-11.331,5.079,-8.205,-19.536,9.768,10.159,5.079,-29.695,-38.681,55.873,2.735,0.000,5.079,22.271,6.252,-14.847,-38.681
'[04:45:06.367 07/11/2076]',-7.033,-14.457,-6.642,8.987,-8.987,-3.126,-15.629,8.205,-7.033,-21.490,-9.768,16.020,-3.126,-20.708,-41.807,42.589,-1.172,-11.722,7.424,16.410,6.252,-5.861,-41.807
'[04:45:06.371 07/11/2076]',-6.642,-15.629,-8.205,12.112,-5.861,-7.033,-18.364,13.675,-7.033,-23.443,-23.443,25.397,-7.033,-17.582,-42.589,38.681,-4.298,-17.192,8.987,13.675,5.470,-0.391,-42.589
'[04:45:06.375 07/11/2076]',-4.689,-17.192,-7.814,13.675,-3.516,-10.159,-18.364,16.020,-8.596,-21.880,-2.344,7.033,-6.252,-19.927,-39.463,39.853,-5.079,-13.675,8.596,21.880,3.516,-9.768,-39.463
'[04:45:06.379 07/11/2076]',-5.470,-17.192,-3.907,12.503,-3.126,-12.112,-14.457,16.410,-8.596,-20.317,9.768,-1.563,-3.907,-17.973,-37.118,38.681,-8.987,-14.066,4.689,22.271,8.987,-10.940,-37.118
'[04:45:06.383 07/11/2076]',-6.252,-16.020,-1.563,19.145,-3.516,-11.722,-11.331,23.834,-8.205,-17.192,-1.172,32.039,1.954,-18.755,-35.946,57.045,-7.424,-11.722,2.344,19.927,7.424,-5.470,-35.946
'[04:45:06.387 07/11/2076]',-3.516,-15.238,-0.391,25.397,-3.907,-9.768,-9.768,30.867,-8.596,-12.894,-5.079,39.463,6.252,-17.973,-32.039,56.654,-5.079,-8.596,1.172,19.536,7.033,-3.126,-32.039
'[04:45:06.391 07/11/2076]',-2.344,-11.331,0.391,29.695,-3.516,-8.596,-5.079,35.556,-6.642,-8.987,-3.907,21.490,6.252,-9.377,-29.304,33.211,-3.907,-7.033,0.391,14.457,12.112,1.954,-29.304
'[04:45:06.395 07/11/2076]',1.172,-8.987,1.954,33.602,-1.563,-4.298,-4.298,39.853,-4.298,-3.126,-2.344,35.556,11.722,-4.689,-26.569,44.933,2.735,-4.298,-1.172,12.112,15.238,6.642,-26.569
'[04:45:06.398 07/11/2076]',8.205,-10.549,0.391,35.556,0.391,-0.391,-3.516,37.509,-3.126,1.563,8.205,48.840,19.536,-5.861,-23.053,66.813,8.205,0.391,0.391,19.145,10.940,3.907,-23.053
'[04:45:06.402 07/11/2076]',9.377,-10.940,0.391,33.993,2.344,2.735,-4.298,32.039,-1.172,8.205,8.596,21.880,17.582,2.735,-22.662,41.416,9.768,-2.735,0.391,19.536,12.503,5.470,-22.662
'[04:45:06.406 07/11/2076]',7.424,-8.205,-1.563,32.821,0.391,3.907,-2.735,28.523,0.000,15.629,-6.252,3.516,10.159,14.847,-22.662,11.722,14.066,-7.424,2.344,10.549,16.020,12.894,-22.662
'[04:45:06.410 07/11/2076]',5.861,-9.768,-1.954,34.774,-2.735,3.126,0.781,27.350,-1.954,23.443,-5.861,37.900,14.847,12.112,-19.145,44.933,23.834,-1.563,2.735,17.192,11.331,10.159,-19.145
'[04:45:06.414 07/11/2076]',3.516,-14.066,0.391,39.853,-8.596,0.000,6.252,32.039,-6.252,26.960,-5.861,62.125,17.192,10.549,-17.192,66.813,26.569,-0.781,0.391,17.582,17.582,8.596,-17.192
'[04:45:06.418 07/11/2076]',0.000,-7.033,3.516,32.039,-9.768,0.781,12.112,24.225,-2.344,27.741,-15.238,23.834,8.987,25.397,-19.145,17.582,26.178,-9.768,-2.735,5.079,26.960,17.192,-19.145
'[04:45:06.422 07/11/2076]',-0.391,-3.516,4.689,26.960,-7.424,3.126,13.284,18.364,2.735,26.569,-25.397,8.596,7.814,31.648,-23.053,-1.954,28.132,-11.331,-3.907,0.391,28.913,23.053,-23.053
'[04:45:06.426 07/11/2076]',8.205,-7.814,6.642,28.523,-2.735,5.861,13.675,17.582,3.126,25.788,0.000,22.271,21.490,11.722,-21.880,40.244,33.211,0.391,-5.861,18.364,14.457,7.814,-21.880
'[04:45:06.430 07/11/2076]',15.629,-7.424,10.159,25.006,4.689,8.987,14.066,14.457,8.205,26.569,16.410,17.192,29.304,4.689,-20.317,55.482,36.337,4.298,-9.377,23.443,10.159,0.000,-20.317
'[04:45:06.434 07/11/2076]',12.894,-3.516,8.987,26.178,8.987,8.987,9.377,16.020,13.675,25.397,-8.596,33.211,23.834,10.940,-21.490,51.184,35.556,-5.079,-8.205,10.159,9.377,10.159,-21.490
'[04:45:06.438 07/11/2076]',9.377,-1.563,7.814,29.304,10.549,8.205,7.424,18.364,15.238,23.834,-24.615,46.496,21.099,11.722,-19.536,48.449,35.556,-12.112,-7.033,0.781,10.549,16.020,-19.536
'[04:45:06.441 07/11/2076]',8.596,1.172,9.768,26.960,15.629,7.814,8.987,12.894,17.192,21.880,-5.079,16.020,20.317,10.159,-15.238,36.337,33.211,-9.377,-8.987,1.563,12.503,9.768,-15.238
'[04:45:06.445 07/11/2076]',8.205,7.033,9.768,21.880,23.053,10.159,7.814,5.079,20.317,19.536,4.298,1.172,19.927,10.549,-13.675,30.476,32.039,-15.238,-8.987,0.000,11.722,9.768,-13.675
'[04:45:06.449 07/11/2076]',12.112,7.033,6.252,25.006,28.913,10.940,5.079,4.689,21.099,19.145,-1.954,30.867,23.053,6.642,-12.894,53.919,31.648,-16.801,-5.470,-1.172,7.424,10.940,-12.894
'[04:45:06.453 07/11/2076]',17.192,7.814,5.470,24.615,34.774,11.331,7.424,1.563,22.271,19.145,-1.563,27.741,22.271,7.033,-10.159,51.184,32.430,-14.457,-4.689,-2.344,3.516,9.377,-10.159
'[04:45:06.457 07/11/2076]',19.145,10.549,6.252,19.536,39.463,12.503,7.814,-3.126,26.178,20.317,-5.861,6.642,15.238,15.238,-10.159,27.741,33.993,-15.629,-5.470,-8.987,0.391,12.894,-10.159
'[04:45:06.461 07/11/2076]',20.317,10.940,4.689,16.020,37.509,15.238,7.033,-6.642,27.350,19.145,-11.331,28.523,16.410,12.112,-10.159,48.840,37.900,-16.410,-3.907,-11.331,-5.079,12.503,-10.159
'[04:45:06.465 07/11/2076]',21.880,6.252,5.861,14.847,33.993,14.847,7.033,-6.642,25.006,14.847,-0.781,43.370,20.317,0.391,-10.549,74.237,37.509,-17.582,-5.079,-5.861,-8.987,5.470,-10.549
'[04:45:06.469 07/11/2076]',17.973,6.252,5.079,8.205,29.304,12.503,7.424,-10.940,23.443,12.503,-2.344,4.298,13.675,5.470,-15.238,36.337,32.821,-25.397,-4.298,-10.549,-4.298,8.596,-15.238
'[04:45:06.473 07/11/2076]',14.066,8.205,3.126,6.642,23.053,8.596,8.987,-10.159,22.662,11.722,-16.020,-12.894,9.377,13.284,-19.536,3.907,28.132,-28.913,-2.344,-20.317,5.861,16.801,-19.536
'[04:45:06.477 07/11/2076]',15.629,1.954,3.516,15.238,16.801,3.516,13.675,1.563,14.457,14.847,-4.689,29.695,18.364,3.516,-17.192,50.794,32.821,-16.801,-2.735,-11.331,10.549,7.424,-17.192
'[04:45:06.480 07/11/2076]',17.192,2.344,7.814,15.238,16.020,4.298,17.973,3.516,11.331,15.629,3.516,36.728,22.271,2.735,-14.457,58.999,32.430,-10.549,-7.033,-7.033,14.457,3.516,-14.457
'[04:45:06.484 07/11/2076]',13.284,8.205,8.205,10.549,14.457,7.033,14.847,3.126,16.020,11.722,-13.284,14.066,13.284,16.801,-15.629,14.847,22.662,-18.364,-7.424,-19.145,19.536,16.020,-15.629
'[04:45:06.488 07/11/2076]',10.940,8.596,7.424,9.768,13.284,7.033,9.768,5.079,16.801,4.298,-25.788,10.940,7.814,19.927,-18.755,-0.781,12.503,-22.662,-6.642,-20.317,17.973,21.099,-18.755
'[04:45:06.492 07/11/2076]',13.675,2.735,7.424,4.689,15.629,3.126,7.033,4.298,12.503,-2.735,-1.172,8.205,14.847,5.079,-21.099,18.755,5.079,-12.112,-6.642,-0.781,8.987,7.424,-21.099
'[04:45:06.496 07/11/2076]',16.801,0.391,7.424,-2.735,18.364,-2.735,4.298,0.391,11.331,-10.549,12.894,-3.126,17.973,0.000,-26.569,20.708,-7.033,-9.768,-6.642,6.252,6.642,1.563,-26.569
'[04:45:06.500 07/11/2076]',14.847,-2.735,1.563,-2.344,18.755,-12.112,0.000,4.689,8.987,-16.020,-12.894,22.662,14.847,1.954,-36.728,23.443,-19.145,-14.066,-0.781,1.954,8.987,8.205,-36.728
'[04:45:06.504 07/11/2076]',12.894,-7.033,-0.781,-1.954,17.582,-19.927,-1.563,7.033,6.642,-20.317,-26.178,32.039,13.284,1.172,-43.370,21.880,-28.132,-11.331,1.563,2.735,13.284,7.424,-43.370
'[04:45:06.508 07/11/2076]',11.331,-6.642,1.172,-5.861,17.192,-22.662,-0.781,5.861,3.907,-21.880,-10.940,-0.781,10.159,1.563,-42.979,2.344,-35.165,-8.205,-0.391,5.861,15.238,2.735,-42.979
'[04:45:06.512 07/11/2076]',6.252,-8.205,3.126,-2.735,12.112,-23.834,-1.172,10.159,2.344,-22.271,-6.252,-1.172,7.814,2.735,-41.026,3.907,-40.635,-10.159,-2.344,5.470,19.145,2.344,-41.026
'[04:45:06.516 07/11/2076]',3.126,-13.284,7.033,3.516,6.642,-24.615,-0.391,19.145,-1.172,-21.490,-4.298,25.397,8.205,-1.563,-35.165,28.523,-43.761,-5.861,-6.252,10.940,17.192,-0.781,-35.165
'[04:45:06.520 07/11/2076]',0.391,-12.503,8.205,4.689,4.298,-25.397,-1.172,21.490,-5.079,-19.536,-1.563,13.675,3.516,-1.172,-27.741,14.457,-44.542,-5.470,-7.424,11.722,17.192,-2.735,-27.741
'[04:45:06.523 07/11/2076]',-2.344,-11.722,5.470,5.861,2.735,-25.788,-3.126,23.053,-6.642,-17.973,-9.768,2.735,-4.298,3.516,-23.834,-5.861,-43.761,-10.159,-4.689,9.768,12.894,1.172,-23.834
'[04:45:06.527 07/11/2076]',-2.735,-11.722,1.563,9.377,0.000,-25.006,-4.298,26.178,-10.549,-15.629,-9.768,37.118,-1.954,-2.344,-19.927,26.960,-39.072,-7.814,-0.781,15.629,7.033,-1.954,-19.927
'[04:45:06.531 07/11/2076]',-4.689,-13.284,-0.781,10.549,-6.252,-25.006,-3.126,25.788,-13.284,-13.675,1.563,51.966,1.172,-7.814,-18.755,51.575,-34.774,-5.861,1.563,21.880,4.298,-6.642,-18.755
'[04:45:06.535 07/11/2076]',-8.596,-8.987,-1.563,4.298,-11.331,-23.834,-0.391,19.927,-12.503,-12.503,-1.563,13.675,-5.861,3.907,-19.927,8.596,-36.337,-10.549,2.344,13.675,10.940,-0.781,-19.927
'[04:45:06.539 07/11/2076]',-17.973,-7.033,-1.563,3.907,-21.490,-27.350,5.861,19.536,-10.940,-10.940,-9.768,-7.424,-11.331,14.847,-22.662,-20.317,-39.463,-6.642,2.344,3.126,22.662,5.470,-22.662
'[04:45:06.543 07/11/2076]',-15.238,-8.987,0.781,1.563,-24.615,-25.006,12.894,13.675,-8.596,-7.033,3.516,17.582,2.344,4.298,-19.145,17.192,-32.430,9.768,0.000,12.894,19.536,-1.954,-19.145
'[04:45:06.547 07/11/2076]',-7.424,-10.940,2.735,-2.344,-17.973,-19.145,14.457,4.689,-3.907,-5.861,12.894,20.317,14.847,-5.861,-17.192,32.430,-30.476,21.490,-1.954,19.145,16.020,-6.252,-17.192
'[04:45:06.551 07/11/2076]',-6.252,-7.424,1.563,-4.689,-13.284,-12.894,10.940,-1.563,2.344,-8.205,-7.033,8.596,10.940,-0.781,-17.973,5.079,-33.993,10.940,-0.781,8.205,16.020,6.642,-17.973
'[04:45:06.555 07/11/2076]',-3.126,-5.470,0.391,-7.814,-7.424,-9.377,8.205,-6.642,6.642,-7.033,-21.880,7.033,9.768,3.126,-18.364,-8.987,-33.602,7.814,0.391,0.391,16.410,16.020,-18.364
'[04:45:06.559 07/11/2076]',4.298,-7.033,0.391,-12.503,1.563,-9.768,5.470,-12.112,4.689,-3.907,2.735,-10.159,17.192,-3.907,-16.410,-1.954,-29.695,15.238,0.391,12.894,11.722,5.079,-16.410
'[04:45:06.563 07/11/2076]',6.642,-6.252,0.391,-17.192,6.642,-12.112,3.126,-14.457,2.735,-3.126,19.145,-24.615,16.801,-2.735,-13.284,-6.252,-32.039,13.284,0.391,14.457,11.331,2.735,-13.284
'[04:45:06.566 07/11/2076]',6.252,-8.987,-0.781,-16.020,8.987,-17.192,-0.781,-10.940,-1.172,-2.344,1.563,3.516,12.112,3.126,-13.675,0.391,-32.430,5.861,1.563,7.033,11.331,10.940,-13.675
'[04:45:06.570 07/11/2076]',5.861,-10.549,-2.344,-16.801,10.159,-19.927,-2.735,-12.112,-6.642,-1.954,-2.735,10.940,8.596,3.907,-11.331,-0.781,-32.039,6.642,3.126,5.861,9.377,10.940,-11.331
'[04:45:06.574 07/11/2076]',4.298,-10.549,-0.781,-19.145,11.722,-18.364,-3.516,-16.020,-10.159,-1.563,7.033,-20.317,1.172,5.079,-7.033,-23.834,-29.695,3.516,1.563,3.126,7.033,11.331,-7.033
'[04:45:06.578 07/11/2076]',2.735,-8.205,0.391,-20.708,10.549,-15.238,-2.735,-17.582,-12.112,-0.781,8.987,-17.973,-1.954,4.298,-5.470,-19.145,-24.225,-1.172,0.391,-2.735,9.377,11.331,-5.470
'[04:45:06.582 07/11/2076]',2.735,-7.424,4.689,-20.708,7.424,-11.331,0.391,-16.410,-14.066,0.000,17.582,-3.516,1.954,-4.298,-1.563,3.907,-19.145,-0.391,-3.907,1.172,7.033,2.344,-1.563
'[04:45:06.586 07/11/2076]',2.735,-3.907,7.814,-22.271,5.470,-6.642,1.954,-16.020,-12.894,0.000,23.834,-24.225,2.735,-8.596,3.126,-10.940,-17.582,2.735,-7.033,1.563,7.033,-3.126,3.126
'[04:45:06.590 07/11/2076]',-1.954,-1.172,12.503,-17.582,0.391,-4.689,4.298,-7.814,-10.940,0.000,9.768,-33.211,-1.954,-3.907,7.033,-35.946,-18.755,3.907,-11.722,-3.516,9.768,0.781,7.033
'[04:45:06.594 07/11/2076]',-3.516,-2.344,15.238,-6.252,-6.642,-4.689,11.722,3.516,-12.503,-1.172,14.066,8.205,3.516,-9.377,12.503,1.954,-14.066,16.020,-14.457,-0.391,9.377,-2.344,12.503
'[04:45:06.598 07/11/2076]',-3.907,-3.907,17.192,3.126,-11.722,-5.079,16.410,13.675,-14.066,-0.391,24.615,26.960,7.814,-13.284,17.973,23.443,-10.159,24.225,-16.410,3.907,10.549,-7.033,17.973
'[04:45:06.602 07/11/2076]',-8.205,0.000,16.410,7.424,-16.020,-8.205,20.708,19.536,-12.894,-2.344,8.987,-5.079,-5.079,4.298,16.020,-28.132,-13.675,14.066,-15.629,-12.112,23.053,6.252,16.020
'[04:45:06.605 07/11/2076]',-8.205,3.516,17.192,5.079,-16.410,-7.814,26.960,15.629,-10.159,-1.172,6.252,-20.317,-7.033,14.066,15.629,-48.449,-10.159,13.675,-16.410,-17.192,29.304,9.768,15.629
'[04:45:06.609 07/11/2076]',1.172,1.563,16.801,5.079,-12.112,-2.735,27.350,13.675,-11.722,3.516,30.867,-1.954,7.424,-2.344,19.536,-5.470,0.000,27.741,-16.020,0.391,18.755,-4.298,19.536
'[04:45:06.613 07/11/2076]',9.768,-2.735,16.410,4.689,-3.907,-0.781,22.662,10.549,-12.112,5.861,44.542,4.689,16.801,-12.112,21.490,16.020,0.000,32.821,-15.629,14.066,8.596,-11.331,21.490
'[04:45:06.617 07/11/2076]',7.424,-1.172,12.503,3.516,-1.172,0.000,17.192,6.252,-9.377,8.596,20.317,6.642,11.722,-3.516,19.536,-0.781,-1.954,20.317,-11.722,4.689,8.596,0.000,19.536
'[04:45:06.621 07/11/2076]',5.079,-4.298,7.814,4.298,-0.781,-2.735,12.503,4.689,-9.377,9.377,2.344,14.847,7.033,-2.344,18.755,-5.861,-2.735,14.847,-7.033,0.391,5.079,5.079,18.755
'[04:45:06.625 07/11/2076]',4.689,-7.033,5.079,1.172,0.391,-6.252,10.940,0.391,-12.894,10.549,20.708,-11.331,5.861,-8.596,19.145,-9.377,-2.344,16.020,-4.298,9.768,0.391,-5.470,19.145
'[04:45:06.629 07/11/2076]',3.516,-8.205,5.470,-3.126,0.391,-7.424,11.331,-6.252,-11.331,8.596,26.569,-28.523,3.907,-9.377,17.192,-16.020,-1.563,7.814,-4.689,10.940,0.781,-8.987,17.192
'[04:45:06.633 07/11/2076]',1.954,-10.940,1.563,-1.172,0.000,-7.033,8.205,-8.596,-12.112,6.642,9.377,0.781,2.344,-15.629,14.457,3.516,1.563,2.735,-0.781,10.549,-1.563,-10.159,14.457
'[04:45:06.637 07/11/2076]',1.954,-13.675,0.391,0.391,1.172,-8.987,5.861,-8.205,-12.112,3.907,1.172,4.689,0.391,-19.927,9.377,5.861,1.954,2.735,0.391,12.503,-2.344,-12.503,9.377
'[04:45:06.641 07/11/2076]',-0.391,-14.066,0.781,0.391,1.172,-10.549,5.079,-8.987,-8.987,-0.391,-4.298,-17.582,-5.861,-16.410,4.689,-14.847,-0.391,-0.781,0.000,8.596,1.563,-10.549,4.689
'[04:45:06.645 07/11/2076]',-5.079,-13.675,0.391,-1.172,-2.344,-10.549,5.470,-10.940,-5.079,-4.298,-6.252,-4.689,-3.907,-19.927,2.344,0.000,-4.298,0.781,0.391,7.814,3.516,-12.894,2.344
'[04:45:06.648 07/11/2076]',-4.298,-14.066,1.954,-1.954,-4.689,-9.768,5.861,-8.596,-1.954,-9.377,6.252,7.814,3.516,-29.695,1.563,26.569,-10.549,10.549,-1.172,16.020,0.781,-19.927,1.563
'[04:45:06.652 07/11/2076]',-7.033,-9.768,3.126,-1.954,-8.596,-8.205,7.814,-6.252,2.735,-12.503,6.642,-16.020,3.126,-25.006,0.391,2.344,-19.145,9.377,-2.344,14.457,2.735,-17.973,0.391
'[04:45:06.656 07/11/2076]',-10.549,-5.470,1.172,-0.781,-13.284,-8.596,10.159,-2.735,5.861,-12.503,-6.642,-29.304,-1.172,-16.020,0.391,-25.397,-21.880,8.596,-0.391,6.252,6.252,-11.722,0.391
'[04:45:06.660 07/11/2076]',-5.079,-6.252,1.954,4.689,-14.066,-8.205,13.675,4.298,2.735,-7.814,-0.781,9.768,7.033,-21.490,1.954,15.629,-13.675,19.927,-1.172,12.503,2.735,-14.457,1.954
'[04:45:06.664 07/11/2076]',-4.298,-9.377,2.344,13.284,-14.066,-13.284,16.020,15.238,-1.954,-5.079,-0.391,38.681,8.596,-19.927,1.563,39.463,-14.847,19.927,-1.563,9.768,6.642,-12.112,1.563
'[04:45:06.668 07/11/2076]',-6.252,-4.689,3.126,6.642,-13.284,-13.675,17.582,8.987,-2.344,-3.126,-5.861,-1.954,-1.172,-4.689,1.563,-9.377,-18.364,13.675,-2.344,-1.172,12.894,-4.298,1.563
'[04:45:06.672 07/11/2076]',-5.861,-2.735,3.907,1.954,-9.768,-11.722,17.192,1.954,-1.563,-1.563,-10.940,-21.490,-5.079,2.735,1.172,-35.165,-19.536,15.629,-3.126,-5.861,13.284,2.344,1.172
'[04:45:06.676 07/11/2076]',0.781,-5.470,3.126,4.298,-3.126,-7.033,13.675,0.000,-2.344,-1.172,15.238,-6.252,6.642,-12.503,5.079,5.861,-17.192,29.695,-2.344,10.159,1.563,-10.159,5.079
'[04:45:06.680 07/11/2076]',4.298,-4.298,6.252,0.391,1.563,-0.781,12.503,-5.861,-1.172,0.781,34.383,-14.457,10.940,-15.629,7.814,14.847,-15.238,34.383,-5.470,16.801,-1.954,-15.629,7.814
'[04:45:06.684 07/11/2076]',1.172,-0.391,5.079,3.907,3.907,1.563,7.814,-3.907,3.907,3.126,8.596,2.735,8.987,-5.079,6.252,8.596,-14.066,26.178,-4.298,6.642,0.391,-1.172,6.252
'[04:45:06.688 07/11/2076]',-1.172,0.391,3.907,10.159,5.079,0.781,6.252,1.563,6.642,1.563,-5.470,18.755,8.205,-1.172,4.689,8.987,-13.675,23.443,-3.126,0.000,2.735,6.252,4.689
'[04:45:06.691 07/11/2076]',-3.126,1.563,4.689,10.940,5.861,-1.954,8.596,2.735,7.033,0.391,14.847,-11.722,8.596,-1.172,5.470,-1.954,-15.238,26.569,-3.907,3.907,4.298,-0.391,5.470
'[04:45:06.695 07/11/2076]',-7.424,1.563,4.689,12.894,4.689,-2.344,8.596,0.391,8.205,-1.172,23.053,-26.178,9.377,-3.126,5.861,-7.033,-18.364,27.350,-3.907,4.689,5.470,-1.172,5.861
'[04:45:06.699 07/11/2076]',-7.033,0.000,1.172,19.536,3.907,-3.126,8.205,3.126,7.424,-3.907,17.192,2.735,11.722,-9.768,4.689,17.582,-19.927,33.211,-0.391,3.907,5.470,-1.563,4.689
'[04:45:06.703 07/11/2076]',-7.033,-2.344,0.781,20.708,3.126,-3.126,9.768,1.563,5.470,-7.424,17.973,0.391,7.033,-12.894,7.424,14.847,-24.225,41.416,0.000,4.298,5.079,-2.735,7.424
'[04:45:06.707 07/11/2076]',-10.940,-0.391,-0.391,16.410,1.172,-2.344,11.331,-4.689,7.424,-11.722,13.284,-21.880,-0.781,-7.814,7.424,-10.940,-27.741,43.761,1.172,-1.954,5.861,3.516,7.424
'[04:45:06.711 07/11/2076]',-9.377,-1.172,-3.126,11.331,-0.781,-1.563,11.722,-10.940,5.470,-16.410,10.159,1.954,-2.735,-12.894,7.814,8.596,-28.523,45.714,3.907,-2.344,0.391,4.298,7.814
'[04:45:06.715 07/11/2076]',-8.205,-5.861,-4.689,7.814,-5.470,-2.735,12.503,-12.894,-0.781,-22.662,21.490,19.927,-1.954,-25.397,8.987,35.946,-30.867,44.933,5.470,3.907,-6.642,-3.907,8.987
'[04:45:06.719 07/11/2076]',-15.629,-2.735,-6.642,1.172,-14.066,-4.298,12.503,-16.801,-7.814,-25.397,19.145,-11.331,-12.894,-18.755,6.642,-0.391,-33.993,34.774,7.424,-1.563,-6.642,-2.344,6.642
'[04:45:06.723 07/11/2076]',-21.099,-1.172,-6.642,-0.391,-19.927,-5.861,13.284,-16.801,-15.238,-23.053,5.861,-24.615,-23.053,-10.159,3.907,-29.304,-33.602,29.304,7.424,-9.768,-1.172,2.344,3.907
'[04:45:06.727 07/11/2076]',-22.271,-5.861,-1.172,7.033,-26.178,-9.377,17.192,-3.516,-29.695,-18.364,20.317,24.225,-16.020,-20.317,5.861,26.178,-23.443,38.681,1.954,0.391,1.172,-9.768,5.861
'[04:45:06.730 07/11/2076]',-23.053,-5.861,3.907,7.424,-27.350,-12.112,21.099,1.954,-35.556,-17.582,29.304,27.741,-15.629,-18.755,5.861,31.648,-19.927,43.761,-3.126,3.516,2.735,-11.722,5.861
'[04:45:06.734 07/11/2076]',-25.788,-0.391,5.470,1.954,-28.913,-10.549,21.490,0.391,-35.165,-18.755,16.801,0.781,-24.225,-2.344,1.172,-10.940,-24.615,33.602,-4.689,-8.987,7.814,0.391,1.172
'[04:45:06.738 07/11/2076]',-23.053,-0.391,4.298,-0.391,-25.788,-11.331,18.755,-0.391,-32.039,-23.443,8.596,-3.907,-25.788,0.391,-0.781,-24.615,-28.523,30.867,-3.516,-10.940,1.172,3.907,-0.781
'[04:45:06.742 07/11/2076]',-13.675,-2.344,0.391,-3.126,-21.099,-12.112,17.582,-2.344,-34.383,-25.006,34.774,-10.159,-14.847,-13.284,-0.391,-5.470,-26.569,42.589,0.391,4.298,-11.722,-10.549,-0.391
'[04:45:06.746 07/11/2076]',-7.814,-3.126,-3.516,-7.814,-17.973,-12.503,15.629,-7.424,-31.648,-24.615,50.403,-19.145,-5.861,-18.755,-0.391,-0.391,-25.397,44.542,4.298,9.768,-17.582,-17.582,-0.391
'[04:45:06.750 07/11/2076]',-4.298,-4.689,-8.987,-7.424,-15.629,-14.847,11.331,-5.861,-30.476,-24.225,23.443,9.377,-5.861,-18.755,-3.516,5.861,-24.615,34.774,9.768,4.298,-17.192,-14.066,-3.516
'[04:45:06.754 07/11/2076]',-2.735,-5.861,-12.503,-7.033,-14.066,-17.582,7.814,-2.735,-28.913,-22.271,5.079,20.317,-2.735,-20.317,-8.205,4.689,-23.053,31.648,13.284,3.907,-15.629,-14.847,-8.205
'[04:45:06.758 07/11/2076]',-1.172,-2.735,-11.722,-12.503,-10.549,-19.145,7.424,-5.861,-27.741,-24.615,15.629,-14.066,-5.470,-21.099,-8.596,-16.020,-21.880,23.834,12.503,2.344,-12.503,-19.536,-8.596
'[04:45:06.762 07/11/2076]',0.781,-2.344,-10.549,-12.112,-8.205,-16.801,8.205,-6.642,-26.569,-27.741,18.364,-19.145,-6.642,-22.271,-10.159,-16.801,-23.053,14.847,11.331,1.172,-9.377,-21.099,-10.159
'[04:45:06.766 07/11/2076]',3.907,-5.861,-9.377,-6.252,-5.861,-15.238,6.642,-2.735,-27.350,-31.258,18.364,1.563,-3.126,-28.913,-10.549,4.689,-23.443,12.112,10.159,4.689,-7.814,-24.615,-10.549
'[04:45:06.770 07/11/2076]',4.298,-5.470,-6.642,-2.735,-6.642,-9.768,9.377,-3.516,-25.397,-32.821,20.708,-13.284,-2.735,-29.304,-11.331,-7.033,-22.662,10.549,7.424,4.298,-3.126,-24.615,-11.331
'[04:45:06.773 07/11/2076]',2.344,-3.907,-6.252,1.954,-6.252,-3.516,8.987,-4.689,-22.271,-32.821,9.768,-27.350,-8.596,-23.443,-13.284,-28.523,-22.662,7.814,7.033,1.954,2.344,-20.708,-13.284
'[04:45:06.777 07/11/2076]',-0.781,-6.252,-4.689,7.814,-10.549,0.781,7.424,-0.391,-21.490,-28.523,6.642,4.689,-2.344,-28.132,-14.457,6.642,-16.020,10.940,5.470,8.987,2.344,-21.880,-14.457
'[04:45:06.781 07/11/2076]',-2.735,-8.596,-2.344,12.112,-12.503,1.172,7.424,2.735,-19.927,-26.960,15.238,20.708,1.563,-31.258,-14.457,32.430,-11.331,12.894,3.126,13.284,6.642,-25.397,-14.457
'[04:45:06.785 07/11/2076]',-7.033,-5.861,-1.172,12.503,-12.112,0.391,7.814,2.344,-16.410,-25.397,9.768,-14.457,-5.470,-17.192,-14.457,-9.377,-12.503,5.079,1.954,6.252,15.238,-19.536,-14.457
'[04:45:06.789 07/11/2076]',-10.549,-4.689,-3.126,18.755,-11.722,-5.470,9.377,8.596,-13.675,-23.053,3.907,-32.039,-7.814,-7.033,-14.847,-35.556,-11.722,7.424,3.907,-1.954,24.615,-12.112,-14.847
'[04:45:06.793 07/11/2076]',-5.079,-7.424,-1.563,24.615,-8.596,-6.252,12.894,11.722,-11.331,-21.880,13.284,4.298,3.516,-12.112,-11.722,4.298,-7.814,19.536,2.344,3.907,26.569,-16.801,-11.722
'[04:45:06.797 07/11/2076]',2.735,-8.596,-1.954,28.523,-0.781,-2.735,11.722,11.331,-5.079,-23.053,25.397,16.410,15.238,-19.927,-8.205,25.397,-7.424,28.132,2.735,13.284,21.099,-23.443,-8.205
'[04:45:06.801 07/11/2076]',5.470,-4.298,-6.252,33.602,5.079,1.172,7.424,13.675,1.954,-25.788,7.814,13.675,13.284,-15.238,-8.596,7.814,-13.284,20.708,7.033,3.907,18.364,-13.675,-8.596
'[04:45:06.805 07/11/2076]',6.642,-5.470,-6.642,38.681,7.424,3.516,5.470,16.410,8.987,-26.178,-8.205,20.317,12.503,-10.940,-7.814,0.781,-16.020,19.145,7.424,-1.172,17.973,-7.033,-7.814
'[04:45:06.809 07/11/2076]',12.503,-7.424,-6.252,42.198,13.284,4.689,4.298,16.801,10.549,-25.397,19.536,6.642,19.927,-21.880,-1.172,14.847,-12.503,28.523,7.033,13.675,8.596,-21.490,-1.172
'[04:45:06.813 07/11/2076]',15.629,-8.596,-4.689,42.979,18.364,3.516,5.861,16.801,10.549,-23.443,35.946,-5.470,23.443,-26.178,2.735,16.801,-15.629,30.476,5.470,16.801,8.205,-25.788,2.735
'[04:45:06.816 07/11/2076]',14.457,-8.596,-5.470,47.277,21.099,0.781,2.735,21.880,11.722,-26.178,15.629,28.523,20.708,-24.615,2.344,31.258,-18.755,25.006,6.252,9.768,10.549,-19.145,2.344
'[04:45:06.820 07/11/2076]',13.675,-7.424,-5.079,46.496,26.178,-2.344,1.563,21.880,12.503,-28.523,6.642,38.681,19.145,-26.569,3.907,33.211,-24.225,25.006,5.861,7.033,12.894,-18.755,3.907
'[04:45:06.824 07/11/2076]',10.549,-4.298,-3.516,43.761,30.085,-6.642,0.781,21.490,15.629,-31.648,10.549,8.987,14.457,-24.615,4.689,10.159,-32.039,22.271,4.298,4.298,12.894,-17.192,4.689
'[04:45:06.828 07/11/2076]',8.205,-3.126,-2.735,45.324,31.648,-8.987,1.563,23.443,21.490,-31.258,6.642,14.066,13.284,-21.880,4.689,15.238,-36.337,19.536,3.516,1.563,14.847,-13.284,4.689
'[04:45:06.832 07/11/2076]',7.814,-5.079,-1.954,47.277,31.258,-10.549,1.563,24.615,25.788,-29.304,11.331,30.476,19.536,-26.178,5.861,39.853,-41.026,22.271,2.735,8.205,10.549,-16.410,5.861
'[04:45:06.836 07/11/2076]',7.814,-4.298,-2.735,46.105,32.430,-8.596,0.781,22.271,28.523,-27.350,14.457,6.642,18.755,-23.834,6.252,21.099,-47.277,23.053,3.516,10.549,7.033,-15.629,6.252
'[04:45:06.840 07/11/2076]',5.470,-3.516,-4.298,47.277,30.867,-7.814,1.172,19.927,31.648,-26.569,-2.344,-5.861,12.503,-13.675,3.516,-6.252,-51.966,19.927,5.079,3.907,11.331,-6.642,3.516
'[04:45:06.844 07/11/2076]',5.079,-4.689,-4.689,51.575,29.304,-7.033,2.735,21.490,29.695,-26.569,-1.563,31.648,17.973,-18.364,5.861,27.350,-52.357,27.350,5.470,5.470,12.894,-7.814,5.861
'[04:45:06.848 07/11/2076]',3.516,-6.642,-1.954,53.529,25.397,-7.424,5.470,23.834,26.569,-26.569,7.424,44.933,21.880,-21.880,8.596,44.542,-55.092,33.211,2.735,6.252,17.192,-9.377,8.596
'[04:45:06.852 07/11/2076]',-7.033,-2.344,-0.391,51.966,18.755,-12.894,9.377,25.397,25.788,-24.615,-12.112,4.689,6.642,0.391,7.814,-21.099,-61.734,22.662,1.172,-14.066,32.821,7.033,7.814
'[04:45:06.855 07/11/2076]',-9.768,0.000,2.344,46.886,17.582,-14.847,11.722,23.834,25.006,-20.708,-12.112,-4.689,2.735,8.987,10.159,-34.774,-59.780,25.788,-1.563,-18.755,36.728,11.722,10.159
'[04:45:06.859 07/11/2076]',-4.689,-2.735,5.079,41.026,18.364,-13.284,12.894,21.490,21.490,-17.192,14.066,12.894,15.238,-5.470,14.847,6.252,-55.092,41.416,-4.298,-3.516,26.569,-0.391,14.847
'[04:45:06.863 07/11/2076]',2.735,-5.861,5.079,36.728,23.834,-10.940,6.642,19.145,19.927,-20.317,27.741,21.490,19.536,-16.020,17.973,26.960,-55.873,45.714,-4.298,10.159,12.503,-10.159,17.973
'[04:45:06.867 07/11/2076]',3.907,-1.954,0.391,33.602,25.397,-11.331,1.172,20.317,21.099,-24.225,5.861,31.258,10.549,-9.377,17.582,14.457,-61.343,34.774,0.391,-0.391,10.549,-0.391,17.582
'[04:45:06.871 07/11/2076]',5.079,-1.954,-1.954,32.430,24.615,-12.503,-1.172,22.662,18.755,-27.350,-11.722,40.244,3.907,-7.814,15.629,7.033,-66.422,29.304,2.735,-6.252,8.596,5.470,15.629
'[04:45:06.875 07/11/2076]',4.689,-1.954,-3.907,29.695,20.317,-13.284,-0.781,21.490,13.675,-27.741,8.205,14.847,1.172,-12.112,16.801,1.563,-66.813,32.039,4.689,3.126,1.954,-4.298,16.801
'[04:45:06.879 07/11/2076]',1.954,-1.954,-3.126,25.788,14.847,-14.066,3.126,18.364,10.549,-26.960,17.192,0.781,-1.172,-12.503,16.020,0.000,-66.813,32.039,3.907,5.079,2.344,-8.205,16.020
'[04:45:06.883 07/11/2076]',1.172,-3.516,-4.689,25.788,12.112,-14.066,1.563,19.145,7.424,-28.523,5.470,28.523,-1.563,-16.410,10.159,20.317,-64.078,31.648,5.470,5.861,-1.172,-6.642,10.159
'[04:45:06.887 07/11/2076]',-1.954,-5.079,-7.424,25.397,7.424,-16.020,1.172,18.364,5.079,-32.039,0.391,31.648,-3.126,-21.099,6.252,23.053,-61.734,32.821,8.205,7.814,-5.079,-9.768,6.252
'[04:45:06.891 07/11/2076]',-5.470,-3.516,-8.596,23.443,5.861,-19.927,1.172,17.192,3.907,-34.383,-0.391,10.159,-9.768,-17.582,1.954,4.298,-60.171,28.523,9.377,3.516,-5.079,-8.987,1.954
'[04:45:06.895 07/11/2076]',-5.079,-4.298,-7.033,21.880,7.033,-22.271,0.781,18.755,3.907,-33.211,0.391,21.099,-8.596,-16.410,-0.391,17.192,-55.092,25.006,7.814,3.126,-5.861,-7.814,-0.391
'[04:45:06.898 07/11/2076]',-2.344,-5.861,-5.079,22.662,6.252,-20.317,2.344,19.145,0.391,-29.695,13.284,33.211,-2.735,-21.490,0.781,40.244,-48.449,22.662,5.861,9.768,-9.377,-13.675,0.781
'[04:45:06.902 07/11/2076]',-2.735,-3.907,-5.470,22.662,5.861,-17.582,1.954,18.364,-2.344,-24.225,14.457,3.907,-5.079,-14.457,0.000,11.331,-46.496,17.192,6.252,6.642,-6.642,-12.112,0.000
'[04:45:06.906 07/11/2076]',-4.689,-2.735,-3.126,22.271,3.516,-15.629,2.735,19.536,-4.689,-18.364,3.516,-12.112,-9.377,-2.735,0.391,-19.145,-39.853,11.722,3.907,-0.391,0.391,-4.298,0.391
'[04:45:06.910 07/11/2076]',-1.954,-1.954,-5.079,28.132,1.172,-12.112,2.735,25.397,-10.549,-12.112,8.987,26.178,-0.781,-7.424,2.344,17.192,-26.569,18.364,5.861,0.781,1.954,-7.424,2.344
'[04:45:06.914 07/11/2076]',-2.735,-3.516,-7.033,34.383,-3.907,-14.457,3.907,34.774,-16.410,-6.642,5.861,50.794,1.172,-5.470,2.735,34.383,-20.708,14.847,7.814,-5.861,11.722,-5.861,2.735
'[04:45:06.918 07/11/2076]',-6.252,3.126,-4.689,25.788,-5.861,-12.503,5.861,29.695,-12.894,-0.391,-1.563,7.814,-5.470,11.722,1.954,-16.801,-17.973,4.689,5.470,-17.582,21.880,3.126,1.954
'[04:45:06.922 07/11/2076]',-6.252,9.377,-7.033,19.145,-6.642,-8.205,5.470,24.225,-8.205,2.344,-11.331,-9.377,-6.252,19.536,0.000,-40.244,-14.066,1.172,7.814,-21.880,23.053,8.596,0.000
'[04:45:06.926 07/11/2076]',4.298,5.470,-10.549,18.755,-2.344,-5.079,5.079,20.708,-7.424,3.516,10.549,-2.735,5.861,0.781,0.781,-4.689,-8.596,11.331,11.331,0.391,5.470,-7.814,0.781
'[04:45:06.930 07/11/2076]',11.331,3.907,-9.768,10.940,-1.172,-1.172,4.298,14.457,-5.079,2.344,30.085,-12.894,14.457,-8.596,1.172,7.033,-6.642,15.238,10.549,13.675,-5.470,-17.582,1.172
'[04:45:06.934 07/11/2076]',13.284,5.079,-14.847,12.894,-3.516,1.563,1.563,17.582,-3.516,1.172,7.424,5.079,9.768,-4.298,1.172,2.344,-6.252,8.987,15.629,7.814,-12.112,-7.424,1.172
'[04:45:06.938 07/11/2076]',17.192,5.079,-17.192,15.238,-5.079,3.126,2.344,20.708,-2.735,1.172,-6.642,21.099,7.424,-4.298,5.861,3.126,-3.126,7.814,17.973,2.735,-17.973,-3.126,5.861
'[04:45:06.941 07/11/2076]',18.364,7.424,-14.066,11.722,-7.814,5.861,7.424,17.973,-4.298,5.079,12.894,-9.377,7.033,-4.298,11.331,-9.768,0.000,10.549,14.847,5.079,-18.755,-7.814,11.331
'[04:45:06.945 07/11/2076]',17.973,8.205,-8.987,8.205,-7.814,9.377,9.377,14.457,-1.954,6.642,24.225,-19.927,7.424,-1.954,16.410,-13.675,0.781,10.549,9.768,5.079,-17.973,-5.861,16.410
'[04:45:06.949 07/11/2076]',20.708,5.079,-6.642,11.331,-5.470,8.987,12.112,14.457,-0.391,4.689,19.927,10.940,14.457,-6.252,16.801,10.159,1.563,12.503,7.424,5.079,-15.238,-4.298,16.801
'[04:45:06.953 07/11/2076]',20.317,0.391,-2.344,14.457,-2.344,4.689,12.894,16.410,-1.563,5.861,19.927,6.642,16.801,-6.642,14.847,4.689,0.391,15.629,3.126,5.861,-9.377,-2.735,14.847
'[04:45:06.957 07/11/2076]',17.192,0.000,0.391,16.020,-1.563,4.298,12.503,17.973,0.000,6.642,10.549,-11.331,12.894,3.907,9.377,-21.880,-1.172,18.364,0.391,0.391,0.391,5.861,9.377
'[04:45:06.961 07/11/2076]',17.973,-0.391,1.954,18.364,-2.735,5.861,16.020,18.364,0.391,10.549,5.861,13.284,17.582,5.470,7.033,-0.391,1.172,22.271,-1.172,0.391,2.735,7.424,7.033
'[04:45:06.965 07/11/2076]',19.536,-0.391,5.079,19.927,-5.470,11.722,16.020,21.490,-3.126,16.020,17.973,30.476,22.271,0.781,5.079,32.430,5.861,27.350,-4.298,6.252,1.954,1.563,5.079
'[04:45:06.969 07/11/2076]',17.582,4.689,7.814,13.675,-7.814,17.582,16.020,18.364,-1.563,17.582,15.238,0.391,15.238,11.722,1.172,3.126,3.516,23.834,-7.033,-0.391,6.252,5.079,1.172
'[04:45:06.973 07/11/2076]',13.284,11.331,10.159,8.596,-10.159,19.536,19.145,15.238,1.563,17.192,4.298,-13.284,9.768,22.662,-0.391,-21.880,3.126,21.099,-9.377,-11.722,12.503,10.549,-0.391
'[04:45:06.977 07/11/2076]',14.066,9.768,13.675,13.675,-12.503,16.410,26.178,22.662,0.391,20.708,20.317,36.337,23.443,9.377,2.344,40.635,10.159,35.556,-12.894,-5.079,12.112,-0.781,2.344
'[04:45:06.980 07/11/2076]',15.629,11.331,15.238,12.503,-11.331,16.410,26.178,23.443,5.079,18.755,18.755,38.681,28.132,7.814,4.298,41.416,11.331,37.509,-14.457,-6.252,10.549,-1.563,4.298
'[04:45:06.984 07/11/2076]',10.549,17.192,14.457,6.642,-12.894,15.238,28.913,18.364,12.112,17.192,1.172,10.549,18.755,20.317,3.907,-2.344,7.033,27.350,-13.675,-19.536,12.894,8.205,3.907
'[04:45:06.988 07/11/2076]',12.112,18.755,9.768,4.298,-10.940,16.801,24.615,14.457,15.238,15.238,-8.205,3.907,15.629,19.145,5.470,-13.675,6.642,23.443,-8.987,-20.317,1.954,10.549,5.470
'[04:45:06.992 07/11/2076]',18.364,12.894,7.814,0.000,-8.205,17.192,20.317,9.377,14.457,12.894,14.457,-4.298,21.490,3.126,8.596,4.298,11.331,26.960,-7.033,-1.954,-10.549,-4.298,8.596
'[04:45:06.996 07/11/2076]',23.053,7.814,6.642,-8.596,-6.252,16.801,18.755,-0.391,12.894,6.252,33.211,-15.238,23.443,-3.907,7.814,10.940,11.722,26.569,-5.861,6.642,-14.457,-12.112,7.814
'[04:45:07.000 07/11/2076]',20.708,1.954,0.781,-8.205,-7.814,13.284,11.331,-1.954,12.503,0.391,12.503,13.284,19.927,-5.470,5.470,18.755,6.252,19.536,0.000,3.126,-12.894,-7.424,5.470
'[04:45:07.004 07/11/2076]',17.582,-2.344,-0.391,-10.549,-9.377,7.033,8.987,-2.735,12.112,-6.642,0.391,22.662,16.410,-6.642,4.689,13.284,3.126,16.801,1.172,3.126,-9.768,-5.861,4.689
'[04:45:07.008 07/11/2076]',12.112,-2.344,-1.954,-16.801,-13.284,3.907,9.768,-8.987,8.987,-14.066,13.675,-11.331,10.159,-8.205,5.861,-10.940,-3.126,16.410,2.735,5.079,-7.814,-9.768,5.861
'[04:45:07.012 07/11/2076]',7.814,-2.735,-3.126,-21.099,-15.238,-0.391,7.424,-9.377,6.252,-20.317,20.317,-16.801,3.907,-10.940,6.252,-10.940,-11.331,12.894,3.907,5.861,-9.377,-12.112,6.252
'[04:45:07.016 07/11/2076]',4.689,-3.907,-3.907,-21.490,-16.020,-5.079,6.642,-8.987,2.344,-25.006,17.973,2.735,2.735,-19.536,6.252,7.814,-13.675,9.768,4.689,10.549,-14.066,-16.410,6.252
'[04:45:07.020 07/11/2076]',3.516,-3.126,-3.907,-26.178,-18.364,-4.298,5.470,-12.503,0.781,-28.132,16.410,-11.331,-2.735,-20.317,5.861,-5.861,-15.629,8.205,4.689,8.987,-16.020,-18.364,5.861
'[04:45:07.023 07/11/2076]',1.563,0.000,-3.516,-29.695,-17.973,-2.344,4.298,-15.238,1.954,-30.476,5.861,-27.350,-10.940,-14.847,4.298,-28.523,-14.847,7.033,4.298,3.907,-17.973,-15.238,4.298
'[04:45:07.027 07/11/2076]',2.735,0.391,-0.391,-27.350,-17.973,1.172,5.861,-13.284,0.391,-26.569,8.205,2.735,-8.987,-17.973,5.861,4.298,-7.033,12.894,1.172,7.424,-22.271,-17.973,5.861
'[04:45:07.031 07/11/2076]',2.735,-0.781,5.470,-24.225,-20.708,5.470,9.377,-10.940,-3.126,-21.880,20.708,18.364,-5.079,-21.490,7.814,32.039,0.000,17.582,-4.689,12.503,-24.225,-22.662,7.814
'[04:45:07.035 07/11/2076]',-0.781,4.689,8.205,-25.788,-23.834,8.205,13.675,-12.503,-3.907,-17.582,19.927,-18.364,-13.284,-7.814,7.424,-7.033,3.126,8.987,-7.424,1.954,-16.801,-15.238,7.424
'[04:45:07.039 07/11/2076]',-9.377,5.470,9.377,-19.927,-29.304,3.516,19.145,-7.033,-7.033,-10.940,16.020,-42.198,-20.317,4.298,6.252,-35.556,7.033,5.470,-8.596,-4.298,-6.642,-9.768,6.252
'[04:45:07.043 07/11/2076]',-7.424,3.516,7.033,-16.410,-30.867,3.907,21.099,-7.424,-7.424,-6.252,19.145,-6.642,-9.768,-2.344,6.252,4.298,16.020,9.768,-6.252,0.781,-7.424,-13.675,6.252
'[04:45:07.047 07/11/2076]',-5.470,2.735,6.252,-16.410,-29.695,7.033,20.708,-10.940,-5.470,-5.470,26.960,1.954,-3.126,-8.596,7.814,21.099,18.755,13.284,-5.470,8.987,-12.894,-17.582,7.814
'[04:45:07.051 07/11/2076]',-7.424,5.470,0.000,-12.503,-27.350,8.205,14.457,-10.549,-2.344,-8.596,3.126,-3.516,-12.112,0.391,4.298,-5.470,11.722,3.126,0.781,0.391,-14.847,-5.079,4.298
'[04:45:07.055 07/11/2076]',-10.159,5.861,-3.126,-10.159,-26.960,8.596,10.159,-10.549,-2.735,-10.549,-13.675,4.298,-16.801,3.516,2.344,-12.503,6.642,1.563,3.907,-4.298,-17.192,3.126,2.344
'[04:45:07.059 07/11/2076]',-6.642,2.344,-0.781,-8.596,-24.615,10.549,9.377,-10.549,-5.861,-9.768,12.894,-8.205,-12.894,-5.470,5.861,0.000,8.596,11.331,1.563,10.940,-25.006,-8.205,5.861
'[04:45:07.063 07/11/2076]',-7.814,2.735,1.172,-8.596,-23.443,12.112,9.768,-11.331,-5.861,-10.549,28.132,-17.192,-10.549,-7.033,8.596,2.344,9.768,11.331,-0.391,14.066,-23.443,-12.112,8.596
'[04:45:07.066 07/11/2076]',-9.377,2.344,0.781,-3.516,-22.271,12.112,8.205,-7.033,-2.735,-8.205,6.252,14.847,-8.987,-1.954,7.033,12.503,11.331,4.689,0.000,5.861,-17.192,-2.735,7.033
'[04:45:07.070 07/11/2076]',-8.205,2.735,3.126,-2.735,-18.755,13.284,9.377,-9.377,0.391,-5.861,-1.954,25.006,-8.596,0.391,9.377,15.629,16.410,2.344,-2.344,4.689,-13.675,-0.781,9.377
'[04:45:07.074 07/11/2076]',-7.424,5.079,2.735,-5.861,-14.457,12.112,10.940,-14.457,5.470,-5.079,1.563,-3.516,-10.549,7.033,8.987,-8.205,14.066,1.954,-1.954,0.391,-10.549,2.344,8.987
'[04:45:07.078 07/11/2076]',-6.642,4.689,0.781,-5.470,-11.331,9.377,10.549,-16.020,5.861,-4.689,2.344,0.000,-11.722,11.722,8.205,-5.079,12.112,0.000,0.000,-3.907,-5.079,7.033,8.205
'[04:45:07.082 07/11/2076]',-5.861,1.563,-1.172,-7.814,-10.159,7.424,8.596,-19.536,3.126,-4.689,14.457,12.112,-8.205,8.596,8.596,15.238,10.159,3.126,1.954,2.344,-5.079,2.735,8.596
'[04:45:07.086 07/11/2076]',-6.642,0.000,-4.689,-11.722,-11.722,8.205,6.252,-26.569,0.781,-3.126,22.271,-15.629,-8.987,10.549,9.768,-7.424,7.033,5.861,5.470,4.689,-7.033,3.516,9.768
'[04:45:07.090 07/11/2076]',-11.331,1.172,-11.722,-11.331,-15.238,7.814,2.735,-29.304,0.391,-2.344,10.549,-33.211,-16.020,19.927,10.159,-40.635,5.470,5.079,12.503,-1.954,-3.516,13.675,10.159
'[04:45:07.094 07/11/2076]',-12.503,-3.126,-14.066,-6.642,-22.662,7.814,3.907,-26.960,-3.126,1.172,13.284,0.000,-10.159,16.410,13.284,-9.768,9.768,12.112,14.847,2.344,-4.689,12.894,13.284
'[04:45:07.098 07/11/2076]',-13.675,-7.424,-14.457,-3.907,-27.350,5.079,7.033,-25.006,-6.642,4.298,23.443,15.238,-3.907,10.159,17.192,11.722,12.112,16.410,15.238,6.252,-3.907,8.596,17.192
'[04:45:07.102 07/11/2076]',-21.490,-7.033,-16.020,0.000,-33.993,-2.344,10.159,-19.536,-6.252,3.126,1.563,-18.755,-19.145,25.397,15.238,-43.370,6.252,1.563,16.801,-12.894,10.940,20.317,15.238
'[04:45:07.105 07/11/2076]',-25.397,-3.907,-13.284,-2.735,-33.211,-5.470,12.894,-20.708,-5.079,3.516,-1.563,-30.085,-22.271,28.523,16.020,-57.045,6.642,-3.516,14.066,-16.020,16.020,17.973,16.020
'[04:45:07.109 07/11/2076]',-19.927,-6.642,-8.205,-3.126,-27.741,-3.907,14.457,-21.880,-5.861,3.907,22.662,-12.503,-8.987,5.861,21.099,-9.768,12.112,6.642,8.987,1.954,3.907,-0.781,21.099
'[04:45:07.113 07/11/2076]',-14.847,-9.768,-5.079,-0.781,-21.099,0.000,11.722,-20.708,-6.252,0.781,33.602,-3.516,-7.814,-6.252,23.443,14.457,12.112,9.377,5.861,12.503,-7.033,-10.940,23.443
'[04:45:07.117 07/11/2076]',-14.847,-5.470,-4.298,0.391,-17.582,5.079,7.033,-19.536,-3.126,-1.954,10.549,3.126,-15.629,-0.391,23.443,1.172,10.159,-2.344,5.079,3.516,-9.768,-2.735,23.443
'[04:45:07.121 07/11/2076]',-14.457,-5.861,-0.781,1.563,-16.801,6.642,7.033,-16.410,-3.516,-2.344,0.000,12.503,-20.708,1.954,23.834,0.391,10.549,-4.298,1.563,0.000,-14.847,1.563,23.834
'[04:45:07.125 07/11/2076]',-13.284,-7.033,1.954,2.344,-17.973,5.861,8.596,-12.503,-7.814,-1.172,22.271,-5.470,-22.271,0.391,26.569,1.563,12.503,3.516,-1.172,8.596,-19.536,-9.768,26.569
'[04:45:07.129 07/11/2076]',-11.722,-3.907,4.298,0.391,-19.145,5.861,11.331,-10.159,-9.377,-0.391,35.556,-16.020,-22.662,4.298,26.960,0.000,12.503,3.126,-3.516,9.768,-21.099,-12.112,26.960
'[04:45:07.133 07/11/2076]',-9.768,-1.563,3.516,1.172,-19.536,6.252,11.331,-4.298,-12.503,0.781,25.788,19.536,-19.927,6.642,23.053,23.834,12.503,5.861,-2.735,10.159,-26.178,-8.596,23.053
'[04:45:07.137 07/11/2076]',-7.424,-1.172,1.954,4.689,-20.708,5.470,10.549,1.954,-14.066,2.735,18.364,30.085,-18.364,9.768,17.973,25.788,11.331,11.722,-1.172,9.768,-27.741,-4.689,17.973
'[04:45:07.141 07/11/2076]',-6.252,1.954,0.391,3.516,-19.927,4.298,10.159,4.689,-14.457,0.781,12.503,11.722,-22.271,19.927,10.159,1.954,9.768,10.159,0.391,4.298,-23.443,0.391,10.159
'[04:45:07.145 07/11/2076]',-1.172,3.907,1.172,0.391,-17.192,5.861,10.159,3.907,-14.457,2.344,11.722,21.880,-17.582,22.271,4.689,11.331,9.768,11.331,-0.391,2.735,-22.662,1.954,4.689
'[04:45:07.148 07/11/2076]',3.516,1.954,2.735,-1.172,-14.457,6.252,9.768,5.079,-14.847,0.391,24.615,31.258,-9.377,16.801,1.563,30.867,8.596,15.238,-1.954,9.377,-24.615,-2.735,1.563
'[04:45:07.152 07/11/2076]',5.079,4.689,3.907,-5.861,-12.503,6.642,7.424,5.470,-14.066,-3.907,20.708,5.861,-12.503,22.271,-1.954,0.391,3.907,8.596,-3.126,7.424,-23.053,-0.781,-1.954
'[04:45:07.156 07/11/2076]',1.563,7.424,5.079,-8.987,-16.801,5.079,7.033,8.596,-12.894,-7.424,6.642,-8.596,-18.364,31.258,-3.126,-33.211,1.172,1.954,-4.298,0.391,-17.192,7.424,-3.126
'[04:45:07.160 07/11/2076]',-0.781,5.861,7.033,-6.642,-22.271,2.344,8.596,16.020,-14.847,-7.424,7.033,33.211,-10.159,25.788,-1.563,1.563,5.079,7.424,-6.252,4.298,-12.503,5.079,-1.563
'[04:45:07.164 07/11/2076]',-5.861,3.516,8.987,-2.344,-27.741,-2.344,6.642,26.960,-16.410,-10.549,0.000,69.158,-9.377,27.350,0.391,21.880,3.907,3.516,-8.205,2.344,-3.907,8.987,0.391
'[04:45:07.168 07/11/2076]',-10.549,8.596,10.940,-12.503,-29.695,-2.344,9.768,19.145,-13.675,-9.377,-2.344,28.913,-16.020,39.072,3.126,-24.225,2.344,-6.642,-10.159,-6.252,3.907,14.066,3.126
'[04:45:07.172 07/11/2076]',-10.940,14.066,11.722,-21.099,-26.178,-2.344,9.768,11.722,-10.159,-7.033,-7.033,11.722,-18.364,46.496,5.079,-47.277,1.563,-7.814,-10.940,-12.503,7.814,19.145,5.079
'[04:45:07.176 07/11/2076]',-2.344,11.722,10.159,-20.317,-19.536,1.563,7.424,10.159,-14.066,-6.252,23.443,28.913,-5.470,25.788,9.768,0.391,7.424,1.172,-9.377,7.033,-7.814,3.126,9.768
'[04:45:07.180 07/11/2076]',4.298,13.284,12.112,-23.053,-13.675,6.252,8.987,4.298,-15.238,-3.126,43.761,24.225,0.000,19.145,14.457,14.066,13.284,3.126,-11.331,14.066,-14.066,-4.689,14.457
'[04:45:07.184 07/11/2076]',3.126,15.629,9.377,-17.192,-12.894,9.377,7.424,6.252,-15.238,-0.391,21.880,44.151,-5.470,26.178,13.675,13.284,14.847,-1.172,-8.596,1.172,-10.940,6.252,13.675
'[04:45:07.188 07/11/2076]',0.391,14.066,8.205,-9.768,-14.066,8.596,7.424,9.768,-17.582,0.391,7.033,61.343,-9.377,30.085,13.284,15.629,17.582,-1.563,-7.424,-3.907,-10.549,14.066,13.284
'[04:45:07.191 07/11/2076]',0.391,11.722,10.159,-8.205,-14.066,9.377,11.331,7.033,-18.755,3.516,25.397,29.695,-10.159,30.867,16.801,1.563,20.317,3.907,-9.377,0.391,-8.205,8.596,16.801
'[04:45:07.195 07/11/2076]',0.781,12.503,11.722,-7.814,-10.940,10.549,14.066,3.126,-17.192,5.861,36.728,14.066,-9.377,32.430,17.192,-1.954,20.708,7.424,-10.940,0.391,-7.033,9.768,17.192
'[04:45:07.199 07/11/2076]',2.344,8.596,12.894,-1.954,-8.205,9.377,13.284,7.424,-16.020,3.907,32.430,42.979,-3.126,28.132,14.457,23.834,19.536,11.331,-12.112,3.516,-5.470,9.377,14.457
'[04:45:07.203 07/11/2076]',1.954,8.987,13.284,1.563,-6.642,8.596,14.457,10.159,-14.066,3.516,30.476,37.118,-1.954,26.178,12.894,18.364,19.145,12.112,-12.503,3.516,-1.172,9.377,12.894
'[04:45:07.207 07/11/2076]',-0.781,12.503,14.066,1.954,-4.689,7.424,16.020,8.596,-9.768,1.954,21.880,14.847,-7.033,32.430,9.377,-7.424,16.020,13.284,-13.284,-3.126,3.516,14.457,9.377
'[04:45:07.211 07/11/2076]',-1.563,11.331,14.847,4.298,-3.126,9.768,14.457,7.424,-8.987,0.391,15.238,36.728,-5.861,25.006,8.596,14.066,16.801,15.629,-14.066,-3.516,3.907,14.066,8.596
'[04:45:07.215 07/11/2076]',-2.344,5.079,17.582,8.987,-3.907,10.159,13.675,8.987,-11.722,-1.954,26.178,53.919,-3.907,9.768,11.722,46.105,17.973,14.066,-16.801,2.735,1.172,4.689,11.722
'[04:45:07.219 07/11/2076]',-7.424,5.470,18.364,10.159,-3.907,8.987,13.284,7.033,-10.940,-4.298,24.225,19.145,-12.894,9.377,15.629,14.457,15.238,7.033,-17.582,-1.563,3.907,3.907,15.629
'[04:45:07.223 07/11/2076]',-12.894,7.033,20.317,12.112,-5.079,8.596,15.238,8.205,-10.159,-3.516,12.112,7.033,-21.880,13.675,18.364,-7.424,16.410,0.000,-19.536,-9.377,8.987,8.205,18.364
'[04:45:07.227 07/11/2076]',-10.159,0.781,21.490,22.662,-8.596,4.689,18.755,19.536,-12.503,-1.954,30.476,56.654,-11.722,-1.172,23.443,61.343,25.397,8.987,-20.708,-0.781,8.205,-4.689,23.443
'[04:45:07.230 07/11/2076]',-8.987,3.126,19.927,22.662,-7.424,4.298,19.927,19.536,-9.377,-1.954,30.085,58.608,-11.331,-3.126,24.615,65.641,28.523,10.549,-19.145,0.391,6.252,-8.205,24.615
'[04:45:07.234 07/11/2076]',-10.549,8.596,17.582,16.020,-6.642,7.033,16.801,13.284,-3.516,-1.954,7.424,36.337,-21.099,8.987,21.099,26.178,24.615,0.391,-16.801,-14.066,6.642,3.516,21.099
'[04:45:07.238 07/11/2076]',-7.033,9.768,11.722,14.066,-3.126,8.596,9.377,12.894,-3.516,-3.126,-2.344,33.211,-26.178,8.205,19.927,19.536,21.490,0.391,-10.940,-18.364,-1.563,7.424,19.927
'[04:45:07.242 07/11/2076]',-1.172,7.033,8.987,10.549,0.391,8.205,5.079,10.159,-7.033,-2.344,19.145,30.085,-17.582,-8.205,22.662,41.026,23.053,8.987,-8.205,-2.344,-14.066,-8.596,22.662
'[04:45:07.246 07/11/2076]',4.689,7.033,7.424,2.735,5.079,8.987,2.344,4.689,-9.768,-0.781,34.774,22.271,-12.503,-15.629,24.225,48.449,22.271,8.205,-6.642,1.954,-19.145,-16.020,24.225
'[04:45:07.250 07/11/2076]',3.907,8.205,0.781,4.298,4.689,5.079,-1.954,9.768,-10.159,0.000,11.331,50.794,-13.675,-10.940,17.582,56.654,16.801,0.781,0.000,-4.689,-17.192,-8.205,17.582
'[04:45:07.254 07/11/2076]',4.298,7.033,-2.735,3.126,2.344,1.172,-4.689,12.112,-8.205,-2.735,-5.079,59.389,-13.284,-8.205,11.722,51.575,14.066,-3.126,3.516,-6.642,-12.894,-5.079,11.722
'[04:45:07.258 07/11/2076]',4.298,7.814,-4.689,-3.907,1.563,0.391,-5.079,6.642,-4.298,-4.689,2.735,21.490,-12.112,-4.298,4.689,24.615,10.940,-7.424,5.470,-3.516,-7.814,-6.252,4.689
'[04:45:07.262 07/11/2076]',1.563,7.033,-6.642,-5.861,-1.563,-2.735,-5.861,5.470,-2.344,-7.033,4.298,11.331,-8.987,-1.563,-3.126,18.755,7.033,-10.159,7.424,-3.907,-0.391,-3.126,-3.126
'[04:45:07.266 07/11/2076]',0.781,0.391,-6.252,-5.079,-5.079,-5.470,-7.424,8.205,-3.907,-8.205,3.516,28.132,-2.735,-4.298,-8.987,34.774,4.689,-10.549,7.033,3.516,3.907,-5.470,-8.987
'[04:45:07.270 07/11/2076]',0.000,0.781,-7.033,-7.033,-6.252,-3.516,-7.033,3.907,-4.298,-8.987,5.861,10.159,0.391,-1.563,-12.894,16.410,3.126,-10.940,7.814,5.079,9.377,-5.470,-12.894
'[04:45:07.273 07/11/2076]',-2.735,2.735,-8.205,-8.205,-7.814,-1.563,-8.205,1.954,-4.689,-7.424,-2.735,-5.861,-2.344,6.252,-14.457,-11.722,1.172,-9.768,8.987,1.563,13.284,0.391,-14.457
'[04:45:07.277 07/11/2076]',-1.172,0.391,-8.205,-1.954,-9.377,0.391,-8.987,6.252,-6.252,-5.470,-1.563,24.225,2.344,4.298,-12.894,15.629,3.907,-4.298,8.987,7.424,12.503,-0.781,-12.894
'[04:45:07.281 07/11/2076]',0.391,-2.344,-6.642,1.172,-11.722,1.954,-5.861,8.596,-7.033,-1.954,9.377,40.635,8.596,1.563,-10.549,39.463,7.424,-2.735,7.424,12.112,15.629,-4.298,-10.549
'[04:45:07.285 07/11/2076]',-6.642,-0.391,-4.298,-1.563,-16.801,2.735,-5.079,3.907,-5.861,1.563,4.298,0.391,0.781,16.020,-11.722,-5.079,7.033,-10.940,5.079,7.424,23.443,3.126,-11.722
'[04:45:07.289 07/11/2076]',-13.284,-1.172,-2.344,-0.781,-22.662,-1.563,0.000,5.861,-6.252,5.079,-3.516,-23.053,-5.470,28.913,-14.066,-37.509,7.033,-13.284,3.126,0.391,35.165,8.987,-14.066
'[04:45:07.293 07/11/2076]',-9.768,-1.563,0.000,0.000,-21.880,0.391,3.516,5.079,-3.907,8.987,5.861,7.424,6.252,22.271,-14.066,1.954,14.066,-4.689,0.781,6.252,35.165,4.298,-14.066
'[04:45:07.297 07/11/2076]',-3.907,-1.563,3.907,-2.735,-16.801,7.814,2.735,1.563,0.000,10.159,15.238,12.894,16.410,17.582,-14.847,18.364,16.801,0.391,-3.126,14.066,28.913,0.781,-14.847
'[04:45:07.301 07/11/2076]',-1.954,4.298,1.954,-0.391,-10.940,14.847,-1.172,1.954,6.642,8.596,-4.298,6.252,12.894,25.788,-17.582,-4.689,10.940,-9.377,-1.172,2.735,26.960,11.722,-17.582
'[04:45:07.305 07/11/2076]',3.126,8.596,2.344,2.344,-1.172,17.973,-1.172,1.172,14.066,10.940,-21.490,10.549,13.284,30.867,-17.582,-12.503,12.112,-12.503,-1.563,-5.079,26.960,21.099,-17.582
'[04:45:07.309 07/11/2076]',8.987,5.861,5.470,4.298,5.079,22.271,0.391,-3.126,16.020,15.629,3.516,-8.987,21.099,23.053,-14.457,-3.516,17.973,-3.907,-4.689,10.940,20.708,10.940,-14.457
'[04:45:07.313 07/11/2076]',11.722,5.079,7.033,4.298,8.596,23.834,3.126,-8.596,18.755,16.801,17.582,-28.132,24.615,22.662,-12.894,-8.205,20.708,-4.298,-6.252,13.675,23.834,8.205,-12.894
'[04:45:07.316 07/11/2076]',11.331,4.689,4.298,7.424,8.987,24.615,3.907,-9.768,21.880,19.145,-5.470,-3.516,25.006,25.397,-16.801,-0.781,25.788,-8.987,-3.516,7.424,26.178,17.582,-16.801
'[04:45:07.320 07/11/2076]',10.549,3.126,5.470,7.424,7.814,26.178,6.642,-13.284,25.006,21.490,-16.020,-1.563,26.178,25.006,-20.708,-2.344,33.211,-10.940,-4.689,6.252,28.523,19.145,-20.708
'[04:45:07.324 07/11/2076]',8.205,5.470,6.642,6.252,6.642,28.132,7.814,-15.629,27.350,21.880,-15.238,-35.556,22.662,28.132,-23.053,-28.523,38.681,-16.020,-5.861,3.126,28.913,21.099,-23.053
'[04:45:07.328 07/11/2076]',7.033,8.596,7.814,4.689,7.033,28.523,10.940,-17.973,27.741,24.225,-18.755,-30.867,20.708,30.476,-25.006,-23.443,42.589,-19.536,-7.033,-2.735,30.085,24.225,-25.006
'[04:45:07.332 07/11/2076]',8.205,7.033,10.940,4.298,9.377,28.523,14.066,-21.099,27.741,24.615,-8.596,-17.192,25.788,21.490,-20.708,0.391,44.933,-18.755,-10.159,3.907,27.741,17.192,-20.708
'[04:45:07.336 07/11/2076]',7.033,7.424,11.722,-0.391,11.722,29.304,13.284,-28.523,27.741,21.880,-1.172,-41.026,23.443,18.364,-16.801,-17.582,41.416,-18.364,-10.940,5.079,24.615,14.847,-16.801
'[04:45:07.340 07/11/2076]',3.126,9.377,9.768,-4.298,10.159,28.523,12.894,-34.774,26.569,19.536,-14.457,-58.608,14.457,23.053,-14.847,-48.840,36.728,-21.099,-8.987,-4.689,26.178,20.708,-14.847
'[04:45:07.344 07/11/2076]',5.470,5.861,9.768,-3.907,10.940,28.523,13.675,-35.946,23.834,19.536,-10.549,-23.443,17.973,13.284,-8.987,-12.503,41.416,-14.847,-8.987,-0.781,19.145,16.801,-8.987
'[04:45:07.348 07/11/2076]',7.814,3.516,10.940,-3.907,8.987,28.913,14.847,-35.165,20.708,19.145,0.391,-9.377,21.490,6.252,-5.470,8.596,44.933,-11.331,-10.159,0.000,17.192,11.722,-5.470
'[04:45:07.352 07/11/2076]',1.563,7.814,11.331,-5.079,1.954,26.569,17.973,-32.039,19.536,19.927,-21.099,-46.105,6.252,26.178,-6.642,-52.357,42.589,-22.271,-10.549,-23.443,29.304,27.350,-6.642
'[04:45:07.355 07/11/2076]',1.563,14.066,12.112,-8.987,1.563,30.867,21.880,-35.165,19.145,24.615,-18.364,-59.389,5.079,32.821,-7.424,-64.469,46.886,-21.099,-11.331,-25.788,31.258,27.350,-7.424
'[04:45:07.359 07/11/2076]',7.424,12.503,15.238,-7.424,1.172,35.946,25.397,-34.774,16.801,26.960,6.642,-39.853,20.317,16.020,-5.079,-19.145,53.919,-6.642,-14.457,-9.377,23.834,12.112,-5.079
'[04:45:07.363 07/11/2076]',12.894,13.284,14.847,-5.470,4.298,42.979,23.443,-35.946,16.410,26.960,22.271,-34.383,28.523,3.516,-4.689,3.516,54.310,1.954,-14.066,0.000,13.284,4.298,-4.689
'[04:45:07.367 07/11/2076]',10.159,17.973,10.549,-1.563,3.907,48.449,19.927,-35.165,19.145,26.569,2.344,-29.695,23.053,9.377,-6.642,-6.252,52.357,-5.861,-9.768,-8.596,12.112,12.503,-6.642
'[04:45:07.371 07/11/2076]',8.987,16.020,8.987,2.344,4.689,45.714,19.145,-32.430,21.880,25.788,-11.722,-19.927,19.536,9.768,-7.033,-6.642,51.184,-8.205,-8.205,-14.847,10.159,19.927,-7.033
'[04:45:07.375 07/11/2076]',9.768,13.675,8.987,1.563,5.470,43.370,19.536,-33.993,21.490,26.178,5.861,-42.198,19.927,2.344,-3.907,-6.252,52.747,-3.516,-8.205,-6.252,4.298,8.596,-3.907
'[04:45:07.379 07/11/2076]',8.987,11.722,9.377,-3.516,5.079,40.635,19.145,-37.900,20.317,23.834,14.457,-51.575,16.410,0.781,-5.079,-4.298,51.575,-7.814,-8.596,-4.298,3.907,3.907,-5.079
'[04:45:07.383 07/11/2076]',9.768,7.814,5.079,-4.298,5.861,35.946,14.066,-38.681,19.145,19.927,1.172,-21.490,16.801,-5.470,-8.205,17.192,50.012,-10.159,-4.298,-3.516,0.391,3.907,-8.205
'[04:45:07.387 07/11/2076]',10.159,3.126,1.563,-5.861,6.642,30.476,8.987,-38.681,17.192,14.066,-6.252,-16.410,14.847,-10.549,-9.768,14.847,44.933,-10.159,-0.781,-1.563,-0.391,1.172,-9.768
'[04:45:07.391 07/11/2076]',7.814,3.126,-2.735,-7.424,5.861,26.960,5.079,-40.244,17.582,8.596,-8.596,-38.681,6.642,-6.642,-13.284,-7.424,40.244,-13.675,3.516,-5.079,0.391,4.298,-13.284
'[04:45:07.395 07/11/2076]',8.205,1.954,-5.861,-9.768,7.424,24.225,1.954,-41.416,16.410,7.814,-6.642,-30.867,7.033,-7.424,-12.894,0.781,39.853,-14.457,6.642,-6.252,1.172,5.470,-12.894
'[04:45:07.398 07/11/2076]',10.940,-1.954,-5.861,-12.112,7.814,22.662,-0.781,-40.635,14.457,7.814,4.298,-21.490,10.940,-13.675,-9.768,19.145,37.900,-15.629,6.642,1.172,-3.516,0.391,-9.768
'[04:45:07.402 07/11/2076]',10.549,-2.735,-8.987,-16.020,7.424,20.317,-5.861,-40.244,12.894,7.033,1.172,-46.496,5.079,-9.768,-10.940,-8.205,31.258,-22.662,9.768,-0.781,-4.689,3.126,-10.940
'[04:45:07.406 07/11/2076]',7.424,-3.516,-11.722,-19.536,6.642,16.410,-10.940,-40.244,14.066,6.252,-14.066,-62.906,-1.954,-1.954,-12.503,-39.853,27.350,-28.913,12.503,-7.814,-0.781,10.549,-12.503
'[04:45:07.410 07/11/2076]',5.079,-9.768,-13.284,-15.629,1.172,12.112,-12.894,-35.556,10.549,7.814,-14.457,-24.225,4.689,-10.159,-10.940,-2.344,29.304,-23.834,14.066,-0.391,-2.344,6.642,-10.940
'[04:45:07.414 07/11/2076]',0.391,-16.020,-13.675,-7.424,-2.735,6.252,-14.066,-26.960,9.377,7.033,-20.317,6.252,5.861,-11.722,-10.549,19.927,26.960,-25.788,14.457,-1.954,5.861,8.205,-10.549
'[04:45:07.418 07/11/2076]',-7.814,-11.722,-11.331,-13.284,-7.033,7.033,-9.377,-37.118,11.722,8.596,-21.880,-37.509,-1.954,1.563,-10.940,-26.569,24.615,-31.258,12.112,-11.722,17.973,15.629,-10.940
'[04:45:07.422 07/11/2076]',-13.675,-8.987,-8.987,-17.582,-11.331,9.377,-5.079,-43.370,14.457,12.894,-27.741,-57.827,-3.907,10.159,-10.940,-51.966,23.443,-28.132,9.768,-15.238,22.271,19.145,-10.940
'[04:45:07.426 07/11/2076]',-7.424,-10.549,-7.033,-16.410,-10.940,14.847,-3.126,-44.151,12.503,15.238,3.126,-49.621,10.940,-7.424,-4.689,-14.457,26.960,-9.768,7.814,5.470,8.596,2.735,-4.689
'[04:45:07.430 07/11/2076]',-3.516,-9.377,-4.298,-19.536,-10.159,19.145,-1.563,-46.496,14.457,17.582,21.099,-60.952,19.536,-14.066,-1.954,-8.596,28.913,-0.781,5.079,13.675,2.735,-3.516,-1.954
'[04:45:07.434 07/11/2076]',-6.252,-5.079,-5.470,-17.582,-12.112,21.099,-1.563,-43.761,19.536,20.708,-5.470,-44.933,17.582,-7.424,-1.954,-16.020,26.178,-2.344,6.252,1.563,3.126,6.642,-1.954
'[04:45:07.438 07/11/2076]',-6.252,-2.735,-7.814,-11.722,-8.596,21.099,-3.907,-38.681,22.271,21.490,-19.536,-32.039,16.020,-6.252,0.391,-16.020,27.350,-3.126,8.596,-6.252,2.344,12.503,0.391
'[04:45:07.441 07/11/2076]',-6.642,-1.954,-3.516,-12.894,-3.516,20.708,-1.172,-42.979,25.397,23.443,-2.735,-64.078,12.112,-5.079,2.344,-25.006,28.132,0.781,4.298,-5.861,3.516,8.205,2.344
'[04:45:07.445 07/11/2076]',-8.987,-1.563,-3.126,-11.722,1.172,19.927,0.391,-48.840,31.258,23.053,6.252,-77.753,9.768,-3.516,3.516,-26.178,30.085,-1.563,3.907,-6.642,3.516,7.814,3.516
'[04:45:07.449 07/11/2076]',-7.424,-6.252,-4.298,-3.516,6.642,18.364,-1.954,-45.324,34.774,22.271,1.172,-50.794,10.940,-6.642,4.689,0.391,31.258,-1.954,5.079,-3.907,0.391,8.987,4.689
'[04:45:07.453 07/11/2076]',-7.424,-8.987,-5.861,0.391,8.596,16.020,-3.516,-44.933,38.681,21.490,0.000,-57.045,8.205,-5.470,5.470,-3.516,31.648,-2.735,6.642,-2.344,-1.563,10.940,5.470
'[04:45:07.457 07/11/2076]',-8.596,-9.377,-5.470,1.172,11.331,14.847,-2.344,-47.277,42.198,25.006,-8.987,-79.316,1.563,1.954,7.033,-30.476,34.774,-5.470,6.252,-6.642,-0.391,16.801,7.033
'[04:45:07.461 07/11/2076]',-5.079,-7.424,-4.298,1.172,14.457,19.536,-1.954,-48.449,42.979,29.304,-10.159,-55.482,5.470,1.172,8.596,-8.205,41.026,-5.079,5.079,-7.424,-5.470,19.536,8.596
'[04:45:07.465 07/11/2076]',-0.781,-6.642,0.000,1.563,16.801,23.053,0.000,-46.886,39.463,33.211,4.689,-37.509,10.159,-4.689,13.675,22.662,48.059,-1.172,0.781,-3.907,-10.159,13.675,13.675
'[04:45:07.469 07/11/2076]',-2.344,0.000,5.861,-2.344,16.410,28.132,6.642,-51.184,37.509,37.900,8.205,-69.158,3.126,6.642,16.410,-11.331,51.184,-2.344,-5.079,-10.549,-7.814,17.192,16.410
'[04:45:07.473 07/11/2076]',-6.252,6.252,9.377,-4.298,11.722,32.430,10.940,-50.794,35.165,42.198,0.391,-82.051,-1.954,20.317,16.801,-37.900,55.482,0.391,-8.596,-22.271,-3.126,27.741,16.801
'[04:45:07.477 07/11/2076]',-7.033,5.470,11.722,1.954,2.735,34.774,15.238,-41.416,25.006,50.403,19.145,-37.900,6.642,12.894,21.490,15.238,66.422,17.582,-10.940,-14.847,-1.563,19.536,21.490
'[04:45:07.480 07/11/2076]',-8.596,6.642,12.894,-1.563,-3.126,37.509,18.755,-44.542,19.536,55.873,26.569,-38.291,8.987,16.410,23.834,15.238,68.767,26.960,-12.112,-12.503,1.172,19.927,23.834
'[04:45:07.484 07/11/2076]',-12.503,11.722,9.768,-8.596,-7.033,40.635,15.238,-48.840,16.801,59.780,7.814,-64.078,-0.391,30.867,21.099,-30.867,63.687,19.927,-8.987,-24.615,5.079,33.211,21.099
'[04:45:07.488 07/11/2076]',-11.331,12.112,6.252,-12.503,-5.079,40.244,8.205,-50.403,16.410,57.436,-1.954,-66.813,-2.735,32.039,19.145,-43.370,56.264,17.192,-5.470,-25.006,0.391,37.900,19.145
'[04:45:07.492 07/11/2076]',-5.470,5.861,5.861,-16.020,-1.954,35.556,6.642,-50.403,11.722,54.701,21.099,-71.893,3.516,18.364,22.271,-26.960,53.529,25.006,-5.079,-5.079,-8.596,23.443,22.271
'[04:45:07.496 07/11/2076]',-3.126,3.516,6.252,-23.053,0.391,31.648,1.563,-51.575,11.722,50.012,35.165,-76.190,7.033,12.503,23.834,-21.490,46.886,25.006,-5.470,1.954,-11.331,17.582,23.834
'[04:45:07.500 07/11/2076]',-5.079,0.391,2.735,-23.443,-0.781,23.834,-3.126,-46.105,10.940,47.277,10.159,-43.761,4.298,17.973,19.145,-15.238,38.681,14.066,-1.954,-2.735,-6.642,25.006,19.145
'[04:45:07.504 07/11/2076]',-10.159,0.000,-0.391,-25.788,-3.907,16.410,-7.814,-42.979,8.205,48.059,-4.298,-30.476,2.735,21.099,18.364,-19.536,35.165,7.424,1.172,-4.689,-1.172,28.132,18.364
'[04:45:07.508 07/11/2076]',-13.675,1.172,-3.516,-34.774,-5.470,11.722,-9.768,-48.449,3.907,49.621,4.689,-63.297,-1.172,25.006,16.020,-44.151,30.476,1.563,4.298,-4.689,3.126,25.788,16.020
'[04:45:07.512 07/11/2076]',-18.755,0.781,-6.252,-39.853,-6.252,7.814,-14.847,-51.966,1.563,48.840,2.735,-66.813,-4.298,26.569,10.159,-45.324,25.788,-8.987,7.033,-4.689,4.689,26.178,10.159
'[04:45:07.516 07/11/2076]',-20.317,-1.172,-8.596,-40.244,-6.252,4.298,-19.536,-51.575,-2.344,44.933,-0.391,-48.840,-4.298,17.582,6.252,-25.788,23.443,-15.238,9.377,-0.781,3.516,20.708,6.252
'[04:45:07.520 07/11/2076]',-22.271,-1.954,-8.987,-46.105,-6.252,3.907,-21.490,-55.873,-3.907,38.681,-5.470,-65.641,-9.377,12.894,1.563,-40.635,23.834,-24.615,9.768,-0.391,1.172,17.192,1.563
'[04:45:07.523 07/11/2076]',-24.225,1.172,-9.377,-48.840,-6.642,7.033,-25.397,-57.436,-3.126,33.211,-19.927,-80.098,-17.973,14.066,-3.907,-60.952,24.615,-34.383,10.159,-5.079,0.391,18.364,-3.907
'[04:45:07.527 07/11/2076]',-20.317,0.391,-8.205,-44.933,-6.642,9.768,-26.178,-51.575,-5.470,33.211,-23.053,-46.496,-13.675,3.907,-6.252,-26.178,32.430,-33.993,8.987,-1.954,-3.126,12.894,-6.252
'[04:45:07.531 07/11/2076]',-18.755,-1.172,-7.033,-39.463,-8.596,9.768,-24.225,-44.151,-8.987,33.211,-12.894,-29.695,-7.814,-5.079,-7.424,2.344,39.072,-35.165,7.814,1.954,-4.689,6.642,-7.424
'[04:45:07.535 07/11/2076]',-20.708,1.172,-5.470,-37.118,-10.940,8.205,-22.271,-38.681,-10.159,33.602,-16.801,-63.297,-15.238,4.298,-9.768,-35.556,38.291,-44.151,6.252,-6.642,2.344,10.159,-9.768
'[04:45:07.539 07/11/2076]',-26.178,2.344,-4.689,-26.569,-14.847,1.954,-17.192,-25.006,-12.503,35.165,-22.271,-82.442,-21.099,13.284,-13.284,-60.562,39.072,-43.370,5.470,-17.973,14.066,14.066,-13.284
'[04:45:07.543 07/11/2076]',-22.271,0.391,0.391,-19.927,-14.457,0.781,-12.112,-15.629,-14.847,35.946,-12.503,-47.277,-10.549,3.516,-12.112,-17.973,45.324,-34.774,0.391,-10.549,11.722,7.033,-12.112
'[04:45:07.547 07/11/2076]',-15.238,1.954,6.252,-16.801,-9.377,5.079,-10.159,-8.596,-13.284,32.039,0.391,-31.258,-3.907,-3.516,-10.549,7.033,47.277,-30.085,-5.470,-5.079,3.907,-0.391,-10.549
'[04:45:07.551 07/11/2076]',-12.503,6.252,9.377,-12.894,-4.689,8.987,-14.066,0.000,-10.549,28.523,-20.708,-31.258,-11.331,5.079,-14.066,-11.722,37.118,-35.946,-8.596,-14.457,-2.344,9.768,-14.066
'[04:45:07.555 07/11/2076]',-11.331,10.159,12.894,-8.987,-3.126,10.549,-14.847,8.987,-8.205,25.788,-36.728,-19.536,-14.066,8.596,-14.457,-17.582,29.695,-33.993,-12.112,-22.271,-8.596,14.847,-14.457
'[04:45:07.559 07/11/2076]',-5.470,9.768,16.801,-7.033,-0.781,12.112,-12.503,14.457,-10.159,24.225,-6.642,-28.913,-6.642,0.391,-10.940,-2.735,26.960,-19.536,-16.020,-9.377,-18.364,0.391,-10.940
'[04:45:07.563 07/11/2076]',-4.689,8.987,22.271,-4.298,-2.735,10.159,-8.596,21.880,-11.722,23.834,9.377,-38.291,-6.642,-0.391,-5.470,-2.344,16.801,-9.377,-21.490,-6.642,-20.708,-5.079,-5.470
'[04:45:07.566 07/11/2076]',-10.940,8.987,22.271,5.861,-9.377,7.033,-5.079,33.211,-12.503,21.490,-6.252,-3.126,-8.596,1.563,-2.344,8.205,11.331,-5.861,-21.490,-15.238,-14.847,0.391,-2.344
'[04:45:07.570 07/11/2076]',-13.284,7.814,24.225,11.331,-12.112,4.689,-1.172,39.072,-11.722,17.192,-10.159,11.722,-7.814,0.391,0.391,14.066,7.814,0.391,-23.443,-15.629,-11.722,-1.563,0.391
'[04:45:07.574 07/11/2076]',-16.801,9.377,24.225,13.284,-13.675,2.344,1.563,40.244,-11.331,11.722,-5.470,-10.940,-15.238,0.781,3.126,-5.470,2.735,0.391,-23.443,-15.238,-12.112,-4.689,3.126
'[04:45:07.578 07/11/2076]',-17.582,9.377,24.225,14.066,-15.238,1.954,3.516,39.853,-10.549,3.516,-5.470,0.391,-17.973,-2.735,3.126,5.079,1.172,-3.907,-23.443,-16.020,-13.284,-7.424,3.126
'[04:45:07.582 07/11/2076]',-12.503,9.768,23.834,10.940,-11.722,4.689,2.735,36.337,-10.549,-3.126,1.172,20.708,-13.284,-14.847,3.126,32.821,2.735,-4.298,-23.053,-8.987,-20.317,-17.192,3.126
'[04:45:07.586 07/11/2076]',-8.596,12.503,23.834,0.781,-8.596,9.377,1.563,26.569,-10.159,-8.596,5.861,-1.172,-15.238,-18.755,3.907,16.020,3.126,-7.814,-23.053,-5.470,-27.350,-21.099,3.907
'[04:45:07.590 07/11/2076]',-8.205,16.020,18.755,-3.126,-7.033,12.112,-2.344,21.490,-8.596,-12.894,-8.987,-17.973,-22.662,-16.410,4.298,-15.238,4.298,-13.284,-17.973,-12.503,-28.913,-15.629,4.298
'[04:45:07.594 07/11/2076]',-3.516,14.066,14.847,-4.689,-7.033,13.284,-5.470,19.536,-10.159,-12.112,-11.722,16.801,-17.192,-23.834,6.642,16.410,11.331,-10.940,-14.066,-8.205,-32.039,-17.582,6.642
'[04:45:07.598 07/11/2076]',-3.516,11.331,10.940,-7.033,-9.377,9.768,-6.642,17.973,-11.722,-10.940,-6.642,29.304,-13.675,-27.350,8.596,32.039,14.066,-11.331,-10.159,-5.861,-30.476,-19.927,8.596
'[04:45:07.602 07/11/2076]',-11.331,11.722,4.298,-11.722,-14.066,3.126,-10.940,14.066,-8.596,-10.940,-33.993,-15.238,-28.523,-6.252,4.298,-39.463,9.768,-32.821,-3.516,-23.443,-16.020,-3.516,4.298
'[04:45:07.605 07/11/2076]',-12.503,10.940,2.344,-19.145,-13.675,0.781,-10.549,5.079,-5.079,-10.549,-40.244,-25.788,-28.132,0.000,1.954,-54.701,12.503,-39.463,-1.563,-28.523,-8.987,0.000,1.954
'[04:45:07.609 07/11/2076]',-3.907,5.079,2.344,-25.006,-7.424,1.563,-10.159,-5.470,-1.563,-7.033,-19.145,-12.112,-10.549,-12.894,2.735,-19.536,21.490,-31.648,-1.563,-10.940,-12.894,-12.894,2.735
'[04:45:07.613 07/11/2076]',2.735,1.563,1.172,-31.258,-1.172,5.861,-14.457,-15.238,0.781,-8.596,-7.424,-11.331,-1.172,-22.662,3.516,-6.252,21.880,-29.695,-0.391,1.563,-21.099,-21.099,3.516
'[04:45:07.617 07/11/2076]',2.735,2.735,-1.563,-34.774,0.000,6.642,-15.629,-21.880,3.126,-10.159,-28.913,-7.033,-5.861,-12.894,0.391,-23.834,15.629,-37.118,2.344,-5.861,-17.973,-9.377,0.391
'[04:45:07.621 07/11/2076]',3.516,0.391,-2.735,-38.291,0.391,3.907,-16.410,-24.225,4.298,-12.894,-42.198,-1.563,-8.596,-7.814,-0.781,-34.383,9.768,-35.556,3.516,-9.768,-17.582,-2.344,-0.781
'[04:45:07.625 07/11/2076]',2.344,-1.563,-1.563,-43.761,-0.781,1.563,-16.020,-28.523,1.172,-14.457,-21.099,-26.569,-7.424,-11.331,-0.391,-41.416,1.563,-23.443,2.344,1.563,-19.536,-10.940,-0.391
'[04:45:07.629 07/11/2076]',0.391,-1.172,-0.391,-46.886,-0.781,-2.735,-14.847,-29.304,3.516,-18.755,-8.987,-39.853,-5.470,-8.987,-2.735,-46.496,-9.377,-18.755,1.172,1.563,-14.457,-10.159,-2.735
'[04:45:07.633 07/11/2076]',2.344,-6.252,0.391,-41.807,3.907,-6.642,-18.364,-23.053,5.861,-23.443,-19.145,-8.205,-0.781,-11.722,-5.470,-27.741,-14.457,-16.801,0.391,0.391,-9.768,-5.861,-5.470
'[04:45:07.637 07/11/2076]',2.344,-5.079,-1.172,-37.118,7.424,-10.549,-19.927,-18.364,7.424,-26.569,-23.443,-1.954,1.563,-12.112,-6.252,-28.132,-19.927,-13.675,1.954,0.000,-5.470,-3.126,-6.252
'[04:45:07.641 07/11/2076]',0.391,-1.954,-1.954,-33.993,8.205,-14.457,-17.973,-13.675,8.596,-29.695,-21.880,-19.536,-1.172,-5.861,-5.861,-49.231,-25.397,-12.894,2.735,-5.470,0.391,2.344,-5.861
'[04:45:07.645 07/11/2076]',3.516,-1.954,-1.172,-32.039,10.549,-16.801,-16.410,-7.814,6.642,-30.867,-18.364,-1.563,0.391,-5.470,-5.079,-35.556,-24.615,-12.503,1.954,-5.861,4.298,4.298,-5.079
'[04:45:07.648 07/11/2076]',7.424,-4.689,-0.391,-31.648,9.377,-16.410,-16.410,-6.252,3.126,-30.476,-6.642,14.847,5.079,-10.940,-1.563,-11.722,-24.225,-11.722,1.172,3.907,0.000,-1.563,-1.563
'[04:45:07.652 07/11/2076]',8.596,-5.470,-3.126,-31.258,8.596,-17.973,-19.145,-3.126,1.563,-31.258,-7.033,-7.033,3.126,-6.642,-3.516,-36.728,-30.085,-17.973,3.907,4.298,0.391,-1.172,-3.516
'[04:45:07.656 07/11/2076]',7.033,-8.596,-7.033,-28.523,7.814,-23.443,-23.053,1.563,2.735,-33.211,-23.443,-21.490,-1.954,0.391,-7.814,-66.422,-32.821,-25.006,7.814,0.391,7.033,3.516,-7.814
'[04:45:07.660 07/11/2076]',5.079,-15.238,-8.205,-23.053,3.516,-27.350,-26.178,7.424,1.172,-34.383,-21.490,15.238,5.079,-6.252,-10.159,-28.132,-28.913,-21.099,8.987,8.596,12.112,-2.344,-10.159
'[04:45:07.664 07/11/2076]',0.391,-19.145,-9.768,-16.020,-1.172,-34.383,-26.178,16.020,-1.954,-37.118,-25.397,39.072,7.424,-9.768,-14.847,-7.424,-28.913,-25.397,10.549,6.252,23.053,-2.735,-14.847
'[04:45:07.668 07/11/2076]',-5.470,-14.847,-7.424,-23.443,-3.516,-33.211,-23.443,7.814,0.000,-38.681,-31.648,-4.298,0.391,-1.172,-18.755,-55.873,-29.304,-35.556,8.205,-1.954,33.602,2.344,-18.755
'[04:45:07.672 07/11/2076]',-7.814,-12.503,-6.642,-28.913,-2.344,-30.476,-22.271,0.391,0.781,-38.291,-38.681,-23.834,-3.126,1.172,-20.708,-76.972,-24.225,-45.324,7.424,-6.642,35.946,4.298,-20.708
'[04:45:07.676 07/11/2076]',-1.172,-16.410,-6.252,-26.960,1.563,-27.741,-23.053,-1.954,-1.172,-33.602,-16.801,-13.675,9.377,-21.490,-17.973,-35.165,-14.457,-40.244,7.033,12.894,18.364,-12.503,-17.973
'[04:45:07.680 07/11/2076]',3.907,-19.536,-6.252,-26.960,6.252,-25.788,-24.225,-4.689,2.735,-30.085,-4.298,-23.443,16.801,-32.821,-17.192,-21.490,-11.331,-41.416,7.033,23.443,10.940,-21.880,-17.192
'[04:45:07.684 07/11/2076]',1.563,-18.755,-9.377,-22.662,7.033,-28.913,-29.304,0.391,8.596,-29.695,-33.602,-7.424,12.503,-28.913,-21.490,-24.225,-13.675,-53.529,10.159,14.066,11.331,-13.675,-21.490
'[04:45:07.688 07/11/2076]',-1.563,-18.755,-10.940,-17.973,5.861,-34.774,-32.430,9.377,11.722,-30.476,-56.264,6.642,9.768,-30.085,-25.788,-21.880,-17.192,-56.264,11.722,10.159,11.331,-8.596,-25.788
'[04:45:07.691 07/11/2076]',-3.907,-19.536,-5.079,-20.317,2.735,-35.165,-30.476,12.112,11.722,-32.821,-40.244,-27.350,9.377,-34.774,-27.350,-35.556,-23.053,-51.184,5.861,16.020,11.722,-17.192,-27.350
'[04:45:07.695 07/11/2076]',-7.033,-16.410,-0.391,-22.662,0.391,-32.039,-27.741,11.331,12.503,-36.337,-32.821,-40.244,8.987,-38.681,-27.350,-38.681,-27.350,-51.966,1.172,15.629,11.722,-20.317,-27.350
'[04:45:07.699 07/11/2076]',-8.205,-19.927,0.391,-17.582,-1.563,-31.648,-27.350,14.847,10.159,-36.728,-39.463,-10.159,10.940,-48.059,-28.523,-10.549,-32.821,-46.886,0.391,18.755,8.596,-24.225,-28.523
'[04:45:07.703 07/11/2076]',-8.987,-23.834,1.954,-10.940,-3.907,-30.476,-26.960,18.755,8.987,-38.681,-41.416,-12.894,8.987,-50.403,-29.304,-12.894,-36.337,-42.589,-1.172,21.099,7.814,-26.178,-29.304
'[04:45:07.707 07/11/2076]',-11.331,-21.099,-0.781,-7.424,-3.907,-31.648,-22.662,17.973,8.205,-39.072,-48.840,-32.430,0.391,-46.105,-30.085,-36.337,-38.681,-41.807,1.563,13.284,10.940,-23.834,-30.085
'[04:45:07.711 07/11/2076]',-7.814,-21.490,-4.689,-0.391,-1.563,-32.430,-21.490,19.145,5.079,-40.244,-48.059,-4.689,0.391,-49.231,-29.304,-8.987,-37.509,-37.118,5.470,13.675,6.642,-24.615,-29.304
'[04:45:07.715 07/11/2076]',-5.079,-24.615,-7.814,5.861,-2.735,-31.648,-21.880,24.225,-1.954,-42.979,-29.304,18.364,4.298,-58.999,-28.523,26.960,-35.946,-30.476,8.596,21.490,1.954,-33.211,-28.523
'[04:45:07.719 07/11/2076]',-6.252,-20.317,-10.549,4.689,-5.079,-27.741,-20.708,21.490,-6.642,-44.151,-26.569,-8.205,0.000,-54.701,-28.132,-1.954,-37.900,-32.430,11.331,15.629,4.689,-32.821,-28.132
'[04:45:07.723 07/11/2076]',-10.940,-16.020,-11.331,5.079,-9.768,-24.615,-18.755,18.755,-8.987,-44.542,-34.383,-18.755,-6.252,-46.496,-28.132,-26.569,-37.509,-32.430,12.112,5.079,11.331,-26.569,-28.132
'[04:45:07.727 07/11/2076]',-12.503,-20.317,-10.940,11.331,-17.582,-23.053,-14.457,23.443,-16.020,-41.026,-16.801,30.085,4.298,-59.780,-25.397,35.946,-28.523,-16.410,11.722,16.410,11.722,-38.681,-25.397
'[04:45:07.730 07/11/2076]',-16.801,-19.536,-10.159,9.768,-20.708,-21.490,-11.331,17.973,-16.801,-42.198,-18.364,28.913,2.735,-59.389,-25.397,33.993,-27.741,-15.238,10.940,16.020,13.284,-38.291,-25.397
'[04:45:07.734 07/11/2076]',-23.053,-15.238,-8.987,3.516,-22.271,-20.317,-7.424,7.033,-13.675,-41.026,-35.165,-4.689,-11.331,-45.324,-25.788,-12.503,-28.132,-28.523,9.768,2.735,16.801,-25.788,-25.788
'[04:45:07.738 07/11/2076]',-23.053,-14.066,-12.894,1.172,-20.317,-17.582,-10.549,1.563,-9.768,-41.416,-46.886,-13.675,-18.364,-41.416,-26.569,-25.788,-28.132,-32.430,13.675,0.781,9.377,-20.708,-26.569
'[04:45:07.742 07/11/2076]',-16.801,-18.364,-12.503,-0.391,-16.410,-16.410,-11.331,-3.516,-10.940,-37.900,-24.225,-22.271,-12.503,-51.966,-22.271,-8.205,-21.880,-25.006,13.284,17.192,-1.563,-32.430,-22.271
'[04:45:07.746 07/11/2076]',-11.722,-19.927,-10.549,-7.814,-10.940,-14.457,-12.894,-10.549,-8.596,-34.383,-9.377,-33.602,-7.033,-58.608,-16.410,-3.126,-15.629,-29.304,11.331,23.443,-7.424,-37.118,-16.410
'[04:45:07.750 07/11/2076]',-10.940,-20.317,-12.503,-5.079,-9.768,-12.894,-16.801,-9.377,-3.907,-31.648,-30.867,-5.079,-7.424,-55.873,-12.894,3.516,-13.675,-34.774,13.284,15.238,-5.079,-27.741,-12.894
'[04:45:07.754 07/11/2076]',-13.284,-19.536,-12.112,-5.079,-7.424,-14.066,-16.801,-11.722,-1.172,-26.569,-46.496,5.470,-8.205,-52.747,-9.377,1.563,-8.596,-38.681,12.894,11.722,-0.781,-22.662,-9.377
'[04:45:07.758 07/11/2076]',-15.629,-17.973,-9.377,-9.768,-6.252,-12.894,-14.066,-19.145,1.172,-22.662,-33.602,-26.960,-8.987,-50.403,-3.516,-17.973,-3.907,-40.635,10.159,11.331,0.391,-22.662,-3.516
'[04:45:07.762 07/11/2076]',-15.629,-16.020,-8.205,-10.549,-3.907,-9.768,-13.675,-22.271,2.735,-17.973,-27.350,-28.523,-9.377,-48.449,0.391,-14.847,-1.172,-41.416,8.987,9.768,1.563,-23.053,0.391
'[04:45:07.766 07/11/2076]',-14.847,-18.755,-9.768,-6.642,-3.126,-11.331,-13.284,-21.099,0.781,-15.629,-25.006,-6.252,-5.861,-50.794,2.344,7.814,0.391,-37.900,10.549,14.847,0.391,-25.397,2.344
'[04:45:07.770 07/11/2076]',-12.894,-18.755,-9.377,-9.377,-1.563,-10.159,-16.020,-21.880,1.954,-14.847,-21.880,-18.364,-5.861,-48.449,5.079,-3.907,1.563,-36.728,10.159,14.847,-0.391,-26.178,5.079
'[04:45:07.773 07/11/2076]',-11.722,-16.020,-11.722,-9.377,0.781,-8.205,-18.364,-22.662,5.079,-14.847,-28.523,-31.648,-8.596,-43.370,5.861,-25.006,-1.563,-33.602,12.503,11.331,-2.735,-22.271,5.861
'[04:45:07.777 07/11/2076]',-7.033,-18.364,-12.894,-2.735,2.735,-8.987,-17.192,-17.973,4.689,-15.238,-26.960,0.391,-3.516,-46.496,6.642,6.252,-1.954,-25.397,13.675,16.020,-4.298,-23.053,6.642
'[04:45:07.781 07/11/2076]',-7.424,-22.662,-10.159,4.689,0.391,-10.549,-13.284,-11.331,4.689,-16.410,-16.020,15.629,0.781,-49.231,6.642,28.913,-5.861,-14.847,10.940,21.099,-1.563,-23.834,6.642
'[04:45:07.785 07/11/2076]',-11.722,-19.536,-7.424,4.689,-2.735,-11.722,-7.424,-12.112,5.470,-15.238,-18.364,-21.099,-4.298,-34.774,2.735,-12.503,-13.284,-13.675,8.205,14.457,8.596,-14.066,2.735
'[04:45:07.789 07/11/2076]',-19.927,-18.364,-4.689,12.503,-8.596,-16.020,1.172,-6.252,5.079,-14.066,-22.271,-44.151,-8.987,-19.927,-0.781,-45.714,-16.801,-5.079,5.470,7.424,26.178,-4.298,-0.781
'[04:45:07.793 07/11/2076]',-20.708,-19.536,0.000,16.020,-14.847,-12.894,9.768,-5.079,4.689,-10.549,-7.814,-14.457,3.126,-21.490,0.391,-10.159,-10.549,9.768,0.781,16.020,31.648,-6.642,0.391
'[04:45:07.797 07/11/2076]',-17.192,-15.629,3.907,15.629,-13.675,-4.689,14.066,-6.642,7.814,-7.424,5.470,-2.344,14.066,-21.880,2.344,7.814,-3.907,19.145,-3.126,23.443,30.476,-10.549,2.344
'[04:45:07.801 07/11/2076]',-16.410,-8.987,2.344,19.927,-10.940,0.781,12.894,-5.079,12.503,-7.814,-11.331,-2.344,9.768,-9.768,3.126,-13.284,-3.516,8.596,-1.563,13.675,31.648,0.391,3.126
'[04:45:07.805 07/11/2076]',-14.066,-7.033,5.079,24.615,-8.596,3.516,14.066,0.000,14.847,-5.470,-25.397,7.424,7.033,-0.391,5.861,-20.708,-1.172,3.907,-4.298,8.596,30.085,10.159,5.861
'[04:45:07.809 07/11/2076]',-7.424,-7.424,7.814,27.350,-4.689,4.298,16.020,4.689,14.847,-1.954,2.735,-1.172,16.020,-8.596,10.940,-3.516,5.861,12.894,-7.033,23.053,21.490,-2.735,10.940
'[04:45:07.813 07/11/2076]',-2.344,-7.033,11.722,28.132,-0.391,3.516,19.145,8.205,16.020,0.000,17.973,-11.722,19.536,-8.987,14.457,-2.344,7.033,14.457,-10.940,25.397,21.490,-5.470,14.457
'[04:45:07.816 07/11/2076]',-1.172,-8.987,14.066,30.867,0.391,0.391,17.582,16.410,17.973,0.391,-0.781,18.755,20.708,-4.689,13.284,7.424,7.033,8.987,-13.284,18.364,24.225,1.172,13.284
'[04:45:07.820 07/11/2076]',0.391,-8.205,15.629,28.132,2.344,-1.172,16.020,17.973,20.708,0.391,-6.642,27.741,24.225,-3.907,12.894,8.987,8.596,10.940,-14.847,16.410,25.788,0.391,12.894
'[04:45:07.824 07/11/2076]',1.563,-7.424,16.020,23.053,4.689,-1.954,16.801,14.066,22.662,0.391,-1.563,0.391,20.708,1.563,14.457,-15.238,8.596,8.596,-15.238,13.284,23.443,0.391,14.457
'[04:45:07.828 07/11/2076]',0.391,-7.424,17.973,19.145,5.470,-3.126,17.192,10.549,23.834,0.781,0.391,7.814,21.490,4.689,16.410,-8.987,11.722,4.689,-17.192,9.768,21.880,2.344,16.410
'[04:45:07.832 07/11/2076]',2.344,-8.596,19.145,16.410,5.861,-2.344,20.708,5.470,22.662,2.735,10.549,25.397,27.741,-1.172,19.536,16.410,16.801,7.424,-18.364,15.238,16.410,-3.126,19.536
'[04:45:07.836 07/11/2076]',4.298,-6.642,17.582,11.722,5.861,0.391,23.443,-3.516,22.662,5.079,17.192,0.781,26.178,0.391,22.271,-2.735,18.755,9.377,-16.801,17.582,9.377,-4.298,22.271
'[04:45:07.840 07/11/2076]',2.344,-2.735,17.192,8.596,5.861,1.954,26.178,-8.596,25.006,6.252,4.298,-20.317,22.271,8.596,23.053,-37.509,19.536,8.987,-16.410,8.987,13.284,2.344,23.053
'[04:45:07.844 07/11/2076]',2.735,-1.954,17.192,12.112,2.735,2.735,29.695,-5.079,22.271,10.159,3.907,12.894,27.741,6.252,23.834,-7.424,24.615,18.755,-16.410,11.331,14.066,1.172,23.834
'[04:45:07.848 07/11/2076]',2.735,-1.954,17.973,12.112,-2.344,3.126,32.821,-2.735,19.927,12.894,11.331,25.006,33.993,3.907,23.053,7.424,22.662,28.132,-17.192,14.847,15.629,-0.781,23.053
'[04:45:07.852 07/11/2076]',-4.689,3.516,19.536,7.424,-7.814,0.391,34.774,-1.563,20.708,12.894,-10.549,-14.847,19.536,26.569,17.973,-56.264,12.112,18.755,-18.755,-6.642,29.304,14.066,17.973
'[04:45:07.855 07/11/2076]',-8.596,7.814,20.317,2.344,-12.503,0.781,37.509,-2.735,19.927,13.675,-12.503,-19.145,15.238,33.993,16.801,-64.078,10.159,23.443,-19.536,-12.894,33.211,16.410,16.801
'[04:45:07.859 07/11/2076]',-3.126,6.252,21.099,-1.563,-13.284,3.516,39.853,-7.033,16.020,15.238,13.284,-1.172,23.834,20.708,17.582,-18.755,12.112,40.635,-20.317,3.516,20.317,1.563,17.582
'[04:45:07.863 07/11/2076]',3.516,7.814,18.755,-5.470,-8.205,10.159,36.728,-12.894,16.020,12.503,29.304,1.563,28.913,8.596,17.973,4.298,12.894,46.886,-17.973,13.284,6.252,-7.033,17.973
'[04:45:07.867 07/11/2076]',2.344,12.503,17.192,-5.861,-7.033,16.410,33.211,-15.629,19.927,7.814,8.596,2.735,21.099,14.066,13.284,-7.814,11.722,37.118,-16.410,3.516,5.470,0.391,13.284
'[04:45:07.871 07/11/2076]',2.735,14.847,14.066,-3.516,-5.470,19.536,31.258,-16.410,23.053,5.079,-7.424,8.987,17.192,14.847,10.549,-12.112,12.112,31.648,-13.284,-2.344,4.298,5.861,10.549
'[04:45:07.875 07/11/2076]',4.298,15.629,12.503,-5.470,-1.954,18.364,32.039,-21.099,23.053,2.735,10.940,-16.410,19.536,7.814,8.987,-15.629,11.722,35.165,-11.722,3.516,1.172,-3.126,8.987
'[04:45:07.879 07/11/2076]',5.079,14.457,10.549,-7.424,-1.172,17.582,31.648,-24.225,22.662,0.781,21.880,-28.523,19.536,6.642,8.987,-16.801,10.159,32.821,-9.768,3.907,2.735,-6.642,8.987
'[04:45:07.883 07/11/2076]',7.033,9.768,5.079,-3.907,-1.563,12.894,28.132,-21.099,20.317,-0.781,11.722,3.907,19.536,3.126,7.033,5.079,9.768,30.085,-4.298,6.252,0.000,-6.252,7.033
'[04:45:07.887 07/11/2076]',5.470,5.079,0.391,-0.391,-3.126,7.814,25.788,-19.145,15.629,-3.126,10.159,8.205,17.973,1.563,5.470,6.252,10.159,32.430,0.391,8.596,-1.954,-6.642,5.470
'[04:45:07.891 07/11/2076]',1.172,2.735,-1.563,0.781,-7.424,3.907,23.053,-16.410,13.284,-7.424,13.675,-11.722,12.112,4.689,4.298,-13.284,7.814,31.258,2.344,6.252,2.344,-6.252,4.298
'[04:45:07.895 07/11/2076]',-1.172,0.391,-3.907,4.689,-10.940,0.391,22.662,-11.722,9.377,-9.768,16.410,2.735,9.768,2.735,3.126,2.344,6.642,29.304,4.689,8.596,1.954,-7.033,3.126
'[04:45:07.898 07/11/2076]',-1.954,-5.079,-5.470,8.205,-12.894,-2.735,22.662,-10.159,3.126,-12.503,30.085,16.410,11.331,-4.298,4.689,25.788,2.735,31.258,6.252,17.582,-0.781,-14.066,4.689
'[04:45:07.902 07/11/2076]',-4.298,-7.033,-9.768,8.596,-14.847,-8.205,19.927,-9.377,-1.954,-13.284,30.867,-7.814,3.516,-1.172,5.470,0.000,-6.252,25.397,10.549,15.629,0.391,-12.503,5.470
'[04:45:07.906 07/11/2076]',-10.159,-7.814,-12.503,10.940,-17.192,-14.066,19.927,-7.424,-5.861,-10.549,16.020,-22.271,-7.814,7.033,5.470,-27.350,-10.549,19.927,13.284,10.940,3.126,-5.079,5.470
'[04:45:07.910 07/11/2076]',-10.549,-12.894,-12.503,17.192,-19.145,-17.582,19.927,-1.563,-12.894,-3.516,19.145,16.410,-4.298,1.172,7.033,14.457,-5.470,26.178,13.284,15.629,3.516,-7.424,7.033
'[04:45:07.914 07/11/2076]',-14.066,-16.020,-10.940,25.397,-21.490,-21.099,19.145,7.814,-20.708,1.563,17.192,46.496,-5.079,1.172,8.205,40.635,-3.907,25.006,11.722,10.159,11.331,-4.689,8.205
'[04:45:07.918 07/11/2076]',-21.099,-8.987,-8.596,19.536,-25.788,-17.582,19.145,4.689,-23.053,6.642,13.284,7.424,-16.410,14.847,5.470,0.000,-5.079,18.364,9.377,-0.781,18.364,1.172,5.470
'[04:45:07.922 07/11/2076]',-23.443,-4.689,-8.596,12.503,-27.350,-13.284,16.410,1.172,-25.397,9.377,5.470,-7.814,-22.271,21.880,1.954,-20.317,-6.642,14.847,9.377,-8.596,19.536,5.079,1.954
'[04:45:07.926 07/11/2076]',-13.675,-7.814,-10.159,6.642,-23.443,-6.642,8.987,-3.126,-30.867,7.814,30.476,0.781,-12.503,2.735,0.000,18.364,-5.079,25.788,10.940,11.331,0.781,-11.331,0.000
'[04:45:07.930 07/11/2076]',-7.033,-8.205,-10.940,-4.298,-20.708,-3.126,3.126,-10.940,-30.867,5.470,47.277,-10.549,-6.642,-4.689,-3.126,25.397,-5.861,26.960,11.722,21.490,-9.377,-21.880,-3.126
'[04:45:07.934 07/11/2076]',-5.079,-8.205,-17.192,-11.722,-20.317,-1.954,-5.861,-13.284,-32.430,3.516,19.145,1.172,-10.940,1.954,-13.675,14.847,-10.159,17.192,17.973,13.284,-10.940,-11.331,-13.675
'[04:45:07.938 07/11/2076]',-1.954,-11.722,-20.708,-17.973,-20.708,-3.907,-12.112,-14.847,-34.774,3.126,0.781,10.940,-14.457,7.424,-20.317,7.033,-11.722,16.020,21.490,10.159,-12.894,-4.689,-20.317
'[04:45:07.941 07/11/2076]',0.000,-12.112,-22.271,-26.178,-21.880,-5.079,-11.722,-21.099,-39.072,4.689,21.099,-25.397,-13.284,7.424,-21.490,-11.331,-12.112,20.708,23.053,14.847,-12.112,-12.112,-21.490
'[04:45:07.945 07/11/2076]',0.391,-12.894,-23.053,-32.821,-23.053,-5.470,-10.940,-28.523,-40.244,6.252,29.304,-42.979,-12.894,10.940,-22.662,-23.053,-13.284,19.927,23.834,15.629,-10.940,-12.503,-22.662
'[04:45:07.949 07/11/2076]',1.563,-16.410,-24.615,-33.211,-23.053,-6.252,-12.503,-29.304,-42.198,6.252,22.271,-17.582,-9.377,7.424,-23.443,-4.689,-13.284,20.708,25.397,18.364,-11.331,-12.894,-23.443
'[04:45:07.953 07/11/2076]',-0.391,-17.192,-24.615,-34.383,-23.834,-7.814,-13.284,-31.258,-40.635,6.642,19.536,-24.615,-8.205,6.252,-22.271,-14.457,-14.847,19.536,25.397,20.317,-11.331,-12.503,-22.271
'[04:45:07.957 07/11/2076]',-2.735,-14.847,-25.397,-36.337,-22.271,-8.987,-13.675,-33.993,-35.556,6.252,10.549,-46.105,-10.940,13.675,-25.397,-41.807,-15.629,14.457,26.178,16.801,-7.814,-6.642,-25.397
'[04:45:07.961 07/11/2076]',-0.781,-16.020,-25.006,-34.383,-20.317,-8.205,-17.192,-29.695,-31.648,7.033,4.298,-21.490,-6.252,11.722,-27.350,-19.536,-16.410,14.847,25.788,19.927,-10.940,-3.516,-27.350
'[04:45:07.965 07/11/2076]',0.781,-19.536,-23.443,-29.695,-20.708,-10.159,-17.192,-22.271,-30.867,5.470,13.284,-0.781,0.000,3.907,-26.960,10.940,-19.536,16.801,24.225,26.178,-11.331,-8.205,-26.960
'[04:45:07.969 07/11/2076]',0.000,-18.755,-20.317,-27.350,-19.536,-13.675,-14.066,-18.755,-26.960,3.907,10.159,-30.867,-4.689,10.940,-28.523,-21.490,-23.834,8.596,21.099,21.880,-5.079,-3.907,-28.523
'[04:45:07.973 07/11/2076]',-1.954,-15.238,-17.192,-26.178,-19.145,-15.238,-12.503,-13.284,-23.053,3.126,-4.689,-42.589,-9.768,21.490,-30.085,-49.231,-26.178,1.563,17.973,11.722,2.344,3.516,-30.085
'[04:45:07.977 07/11/2076]',-1.563,-19.536,-11.722,-16.801,-21.490,-19.536,-8.987,0.391,-26.569,4.689,8.205,3.907,0.000,11.722,-25.397,3.907,-19.536,10.940,12.503,17.582,5.470,-4.298,-25.397
'[04:45:07.980 07/11/2076]',-0.391,-16.020,-7.033,-15.629,-18.364,-19.145,-5.079,1.954,-25.006,8.205,15.629,8.987,4.689,14.066,-21.490,11.331,-16.020,12.503,7.814,18.364,7.424,-5.861,-21.490
'[04:45:07.984 07/11/2076]',-3.126,-7.814,-6.252,-15.238,-16.801,-15.238,-6.252,4.298,-19.145,10.549,0.000,-12.894,-2.344,30.085,-20.708,-28.523,-15.629,1.563,7.033,5.470,9.377,8.205,-20.708
'[04:45:07.988 07/11/2076]',-5.079,-3.516,-7.033,-10.549,-14.457,-12.894,-7.424,7.814,-16.801,14.457,-7.814,-13.284,-5.861,35.556,-16.801,-36.337,-14.457,1.172,7.814,0.781,4.689,16.020,-16.801
'[04:45:07.992 07/11/2076]',1.954,-3.907,-4.689,-5.470,-7.814,-9.768,-4.298,9.768,-16.020,20.708,18.364,-12.894,3.907,26.178,-10.549,-8.987,-3.126,10.940,5.470,15.238,-4.689,3.907,-10.549
'[04:45:07.996 07/11/2076]',5.861,-2.344,-1.954,-3.516,-3.126,-5.470,-4.689,11.331,-11.722,23.834,33.993,-18.364,10.549,23.053,-7.814,1.172,4.689,8.596,2.735,20.317,-7.424,1.563,-7.814
'[04:45:08.000 07/11/2076]',5.861,-1.172,-1.954,1.954,-0.781,-2.735,-6.642,16.020,-5.861,24.225,11.331,10.940,10.940,26.569,-7.814,9.768,7.814,0.391,2.735,11.722,-3.516,11.331,-7.814
'[04:45:08.004 07/11/2076]',6.252,0.391,-1.954,3.516,0.781,0.781,-9.377,16.410,0.000,24.615,0.391,21.099,13.675,28.913,-6.642,10.549,14.457,-4.689,2.735,6.252,0.391,15.238,-6.642
'[04:45:08.008 07/11/2076]',7.424,2.344,-0.781,1.172,2.735,4.689,-9.768,11.722,4.689,21.490,13.284,-13.675,11.722,30.085,-3.516,-10.940,16.410,-8.205,1.563,5.861,1.563,14.847,-3.516
'[04:45:08.012 07/11/2076]',5.861,7.033,0.000,0.000,2.735,7.814,-9.377,10.159,8.987,17.582,18.755,-18.755,10.549,30.476,-0.391,-12.894,16.020,-11.722,0.781,3.126,1.172,16.410,-0.391
'[04:45:08.016 07/11/2076]',6.642,6.252,0.391,2.735,1.563,10.940,-9.377,12.112,8.205,16.020,19.927,3.126,14.066,24.615,1.563,8.596,16.020,-10.159,0.391,4.689,-0.391,14.066,1.563
'[04:45:08.020 07/11/2076]',9.377,7.814,1.954,1.172,3.516,13.675,-9.377,11.722,8.987,11.722,21.099,-10.159,9.768,25.397,1.954,-4.689,15.238,-11.722,-1.172,3.907,-3.126,13.284,1.954
'[04:45:08.023 07/11/2076]',8.205,11.722,0.781,0.000,3.516,16.801,-10.549,10.159,9.768,7.814,9.768,-25.006,4.689,26.960,-0.781,-27.741,13.675,-15.629,0.000,0.391,-2.344,15.629,-0.781
'[04:45:08.027 07/11/2076]',9.377,8.987,-2.344,1.172,3.126,16.410,-13.284,10.549,5.470,6.252,7.424,5.861,7.033,18.755,-2.735,2.344,16.801,-14.847,3.126,3.907,-4.298,8.987,-2.735
'[04:45:08.031 07/11/2076]',12.112,5.079,-5.470,0.000,2.344,12.112,-14.457,10.549,0.000,2.735,17.192,21.880,7.814,12.112,-5.470,28.132,17.973,-15.629,6.252,8.987,-6.642,1.954,-5.470
'[04:45:08.035 07/11/2076]',6.642,6.252,-8.205,-8.205,-0.391,5.470,-15.238,6.252,-3.126,1.172,12.112,-15.238,-0.391,21.490,-9.768,-15.238,12.503,-25.397,8.987,0.391,0.391,5.470,-9.768
'[04:45:08.039 07/11/2076]',1.563,6.252,-12.112,-9.377,-7.033,-5.861,-12.112,10.940,-9.768,3.126,4.298,-35.165,-7.424,32.039,-15.238,-46.105,9.768,-27.741,12.894,-6.642,10.159,8.596,-15.238
'[04:45:08.043 07/11/2076]',5.470,2.735,-11.331,-13.284,-10.940,-8.596,-10.549,13.284,-14.457,3.126,11.722,-2.344,1.563,23.053,-17.973,-7.814,12.894,-22.271,12.112,0.391,9.377,0.000,-17.973
'[04:45:08.047 07/11/2076]',10.159,3.126,-11.722,-19.536,-13.675,-5.861,-10.549,11.722,-16.410,1.954,18.755,2.735,10.940,12.112,-20.708,5.470,14.457,-23.053,12.503,9.768,4.689,-9.768,-20.708
'[04:45:08.051 07/11/2076]',8.596,4.689,-16.410,-23.443,-17.582,-2.735,-17.192,11.331,-16.801,-1.563,-6.252,-5.861,3.907,14.066,-30.085,-21.099,8.596,-38.681,17.192,3.907,2.344,-2.735,-30.085
'[04:45:08.055 07/11/2076]',5.079,5.861,-19.536,-26.569,-22.662,-2.735,-20.317,10.549,-17.973,-3.907,-30.476,-1.954,0.000,12.503,-34.774,-32.430,6.252,-46.496,20.317,-0.391,2.344,-0.781,-34.774
'[04:45:08.059 07/11/2076]',7.424,1.563,-19.927,-31.258,-23.834,-3.516,-18.755,4.689,-25.006,-1.954,-7.814,-17.192,4.689,-0.781,-34.383,-21.490,7.814,-37.118,20.708,13.284,-2.735,-15.238,-34.383
'[04:45:08.063 07/11/2076]',5.079,0.391,-18.755,-33.602,-25.788,-5.079,-18.364,2.735,-30.085,0.391,4.689,-31.648,5.861,-3.907,-34.774,-23.443,7.033,-36.728,19.536,18.364,-3.126,-19.145,-34.774
'[04:45:08.066 07/11/2076]',1.563,-0.781,-19.145,-29.695,-28.132,-7.033,-18.364,5.470,-34.383,3.516,-15.629,-0.781,3.126,-0.391,-35.946,-13.284,7.033,-35.946,19.927,11.722,0.781,-12.894,-35.946
'[04:45:08.070 07/11/2076]',3.516,-1.563,-16.801,-28.132,-27.741,-3.907,-16.801,5.470,-36.337,7.033,-20.317,8.596,2.735,1.563,-32.821,-11.331,12.503,-30.476,17.582,9.768,1.172,-10.940,-32.821
'[04:45:08.074 07/11/2076]',3.516,1.954,-15.629,-28.523,-27.741,0.781,-14.457,3.516,-36.337,11.331,-10.940,-21.490,0.000,7.033,-32.821,-31.648,17.582,-28.132,16.410,7.033,0.391,-8.205,-32.821
'[04:45:08.078 07/11/2076]',2.344,4.298,-11.331,-28.132,-28.523,6.252,-10.940,0.781,-35.946,17.973,-9.768,-15.238,0.391,10.159,-31.258,-22.662,25.006,-26.178,12.112,3.126,2.735,-5.861,-31.258
'[04:45:08.082 07/11/2076]',6.642,3.907,-7.814,-26.569,-25.788,12.894,-8.987,-2.344,-35.556,24.225,-1.172,1.954,8.205,3.907,-28.913,6.252,32.821,-20.317,8.596,7.814,0.781,-11.722,-28.913
'[04:45:08.086 07/11/2076]',8.205,5.861,-7.424,-28.913,-23.053,19.927,-8.596,-9.377,-34.774,28.913,3.516,-21.880,10.549,1.954,-28.523,-8.205,39.072,-21.880,8.205,9.768,-1.172,-14.066,-28.523
'[04:45:08.090 07/11/2076]',4.689,8.987,-7.033,-30.085,-22.271,23.443,-10.940,-14.066,-32.430,28.913,-12.894,-40.635,3.516,7.033,-30.476,-37.509,39.853,-28.132,7.814,3.907,0.391,-8.987,-30.476
'[04:45:08.094 07/11/2076]',5.470,5.470,-7.814,-24.225,-22.271,26.569,-12.503,-11.331,-34.774,28.132,-14.847,-3.516,5.470,-1.954,-30.085,0.781,42.979,-23.053,8.596,8.205,-1.172,-13.675,-30.085
'[04:45:08.098 07/11/2076]',3.516,2.735,-6.252,-22.271,-23.834,24.615,-12.112,-9.768,-38.681,25.006,-6.252,9.377,5.079,-10.159,-29.304,24.225,41.416,-20.317,7.033,11.331,-2.735,-19.145,-29.304
'[04:45:08.102 07/11/2076]',-7.424,4.689,-8.205,-19.536,-29.695,17.973,-11.722,-5.861,-40.635,22.662,-27.741,-29.304,-16.410,8.205,-32.430,-33.602,29.695,-32.039,8.987,-8.987,10.940,-4.689,-32.430
'[04:45:08.105 07/11/2076]',-12.894,5.079,-4.689,-17.582,-33.602,14.847,-5.861,-5.470,-40.635,25.006,-28.523,-35.556,-21.880,15.238,-30.867,-41.807,24.615,-24.225,5.470,-13.284,16.020,-0.391,-30.867
'[04:45:08.109 07/11/2076]',-9.768,1.172,-3.516,-15.238,-34.383,14.066,-1.563,-6.252,-43.370,27.741,-3.126,-12.112,-10.549,0.391,-25.006,4.689,27.350,-5.470,4.298,1.563,5.470,-12.503,-25.006
'[04:45:08.113 07/11/2076]',-6.252,-1.172,-4.689,-12.894,-31.648,15.238,-2.735,-6.642,-42.979,28.132,9.768,-5.470,-5.470,-8.205,-20.708,25.397,24.225,2.344,5.470,14.066,-6.642,-17.192,-20.708
'[04:45:08.117 07/11/2076]',-9.768,-0.391,-6.252,-8.987,-31.648,14.457,-2.344,-5.861,-38.291,26.960,-14.847,3.907,-12.112,0.781,-22.662,11.331,16.801,-4.689,7.033,4.689,-5.079,-3.516,-22.662
'[04:45:08.121 07/11/2076]',-12.112,-1.563,-5.470,-5.470,-29.695,10.549,-2.735,-3.907,-36.728,26.569,-29.695,11.722,-15.238,3.516,-21.880,5.861,8.596,-3.907,6.252,1.172,-4.298,4.689,-21.880
'[04:45:08.125 07/11/2076]',-10.940,-5.079,-1.954,-3.907,-26.178,7.033,0.391,-3.907,-36.337,27.350,-8.596,-13.675,-14.066,0.781,-18.364,0.391,3.126,3.516,2.735,12.112,-4.298,-2.344,-18.364
'[04:45:08.129 07/11/2076]',-11.331,-5.079,2.735,-1.563,-24.225,4.689,7.033,-3.516,-32.821,25.788,5.470,-26.960,-11.722,3.516,-15.629,-3.516,-0.391,7.424,-1.954,12.112,3.126,-0.391,-15.629
'[04:45:08.133 07/11/2076]',-9.768,-5.470,4.689,1.954,-19.536,4.689,7.033,-1.172,-28.913,26.569,-3.907,5.079,-5.079,1.563,-13.675,17.192,0.391,12.112,-3.907,10.940,6.642,4.298,-13.675
'[04:45:08.137 07/11/2076]',-7.814,-4.298,5.861,5.861,-15.238,4.298,8.205,1.563,-25.006,27.350,-7.424,12.112,-1.172,1.563,-10.549,17.582,1.563,17.582,-5.079,9.377,6.642,8.205,-10.549
'[04:45:08.141 07/11/2076]',-12.112,1.954,7.424,8.205,-14.847,6.642,11.331,1.954,-17.973,26.960,-7.033,-6.252,-2.344,8.987,-7.424,-3.516,4.689,17.582,-6.642,1.172,14.066,14.847,-7.424
'[04:45:08.145 07/11/2076]',-13.284,4.689,10.159,11.722,-13.284,10.159,13.284,3.516,-11.722,30.085,-8.596,9.768,1.563,11.722,-3.907,10.549,8.987,19.927,-9.377,-1.172,18.364,19.536,-3.907
'[04:45:08.148 07/11/2076]',-13.284,3.907,14.457,15.629,-10.940,12.894,13.675,5.079,-7.814,30.867,3.907,21.099,7.033,7.424,1.954,32.039,10.159,23.834,-13.675,6.642,18.364,14.457,1.954
'[04:45:08.152 07/11/2076]',-16.020,3.126,16.801,19.536,-10.940,14.847,16.020,3.516,-2.735,29.695,4.689,-6.642,3.126,13.675,5.079,3.516,11.331,16.410,-16.020,5.079,22.271,17.582,5.079
'[04:45:08.156 07/11/2076]',-20.317,4.689,16.801,21.880,-9.377,15.238,14.847,2.344,0.391,32.039,-10.549,-23.443,-5.079,23.443,6.642,-25.397,14.847,8.205,-16.020,-1.172,27.741,25.397,6.642
'[04:45:08.160 07/11/2076]',-17.973,0.781,18.364,25.397,-4.689,14.066,14.066,3.126,-1.172,36.337,-7.033,13.284,-1.172,17.973,11.722,11.722,25.397,12.503,-17.582,5.470,25.788,21.099,11.722
'[04:45:08.164 07/11/2076]',-16.801,-2.735,18.755,32.039,-3.126,12.894,12.503,8.987,-4.689,37.118,-7.814,43.761,-1.563,18.755,16.410,34.774,31.648,4.298,-17.973,0.391,29.695,23.053,16.410
'[04:45:08.168 07/11/2076]',-21.099,3.516,19.145,27.350,-4.689,16.801,12.112,4.298,-2.735,35.946,-11.722,8.596,-12.503,32.821,18.755,-9.377,31.648,-7.033,-18.364,-10.159,34.383,30.085,18.755
'[04:45:08.172 07/11/2076]',-19.536,7.814,15.238,25.006,-1.563,19.927,8.205,1.954,0.391,31.648,-18.364,-3.126,-17.973,38.681,19.927,-30.867,29.695,-12.112,-14.457,-16.801,31.258,35.556,19.927
'[04:45:08.176 07/11/2076]',-13.675,3.516,11.331,30.085,0.000,20.708,4.298,6.642,-0.781,26.569,8.205,11.722,-5.470,18.364,24.615,8.596,28.913,-3.516,-10.549,0.391,14.457,19.536,24.615
'[04:45:08.180 07/11/2076]',-10.940,3.907,8.205,27.741,0.000,21.099,2.735,4.689,1.172,21.880,26.960,4.689,1.172,9.768,25.397,18.755,24.225,1.563,-7.424,10.159,4.689,10.940,25.397
'[04:45:08.184 07/11/2076]',-11.722,5.079,1.954,25.788,0.000,15.629,-1.172,6.642,3.126,18.755,1.172,19.927,-1.954,16.020,19.927,9.377,14.847,-4.689,-1.172,0.391,3.907,21.099,19.927
'[04:45:08.188 07/11/2076]',-10.940,2.735,-1.563,25.397,0.391,7.424,-1.954,9.377,4.298,16.020,-14.457,30.476,-1.954,17.192,16.801,4.689,9.377,-6.252,2.344,-3.126,3.516,25.788,16.801
'[04:45:08.191 07/11/2076]',-9.768,3.126,-0.391,15.629,0.000,1.954,0.391,6.642,2.735,12.112,3.907,-1.563,-1.563,16.020,14.457,-10.940,3.516,-5.861,1.172,1.563,4.689,16.801,14.457
'[04:45:08.195 07/11/2076]',-8.205,3.516,0.000,8.987,0.391,-1.954,1.172,5.079,1.954,7.814,9.377,-14.457,-1.563,14.847,8.987,-17.192,-3.126,-13.284,0.781,2.344,3.516,14.457,8.987
'[04:45:08.199 07/11/2076]',-2.735,3.126,-2.344,10.159,2.735,-3.516,-0.781,10.159,1.172,3.516,0.000,16.020,4.298,6.642,3.126,5.861,-5.470,-17.973,3.126,2.344,0.781,10.940,3.126
'[04:45:08.203 07/11/2076]',0.391,4.689,-2.735,7.424,2.344,-2.735,-3.907,13.675,0.000,0.781,-2.735,13.284,5.470,5.079,0.000,0.781,-5.470,-21.099,3.516,1.563,-1.954,8.987,0.000
'[04:45:08.207 07/11/2076]',0.000,7.814,0.000,4.298,2.344,-0.391,-3.516,12.894,1.172,1.172,-11.722,-7.033,1.563,14.457,-5.470,-26.569,-4.689,-22.662,0.781,-3.907,-1.172,14.457,-5.470
'[04:45:08.211 07/11/2076]',3.126,10.159,0.391,3.907,1.954,5.079,-3.126,13.284,2.344,3.516,-14.847,15.238,5.470,15.238,-7.424,-5.861,2.344,-18.364,0.391,-5.861,-4.689,16.020,-7.424
'[04:45:08.215 07/11/2076]',7.033,10.549,3.516,6.252,1.954,9.768,-3.516,18.364,0.781,6.642,0.000,33.602,11.722,11.722,-6.252,24.615,8.596,-14.457,-2.735,-1.563,-8.596,12.894,-6.252
'[04:45:08.219 07/11/2076]',7.033,14.457,7.033,4.298,3.516,14.066,-1.172,17.192,0.391,11.331,-0.781,0.781,4.689,21.099,-6.642,-5.470,8.987,-17.192,-6.252,-8.596,-6.642,16.410,-6.642
'[04:45:08.223 07/11/2076]',8.596,17.582,7.814,5.861,6.642,16.801,0.781,15.238,1.563,16.801,-14.066,-10.940,-1.954,29.304,-7.033,-25.788,14.457,-21.099,-7.033,-19.536,-1.563,22.271,-7.033
'[04:45:08.227 07/11/2076]',14.066,11.722,8.205,14.847,9.377,18.364,1.954,18.755,-1.954,24.225,-1.563,36.337,8.205,14.066,-2.735,36.728,28.913,-11.722,-7.424,-12.503,-0.781,9.768,-2.735
'[04:45:08.230 07/11/2076]',17.192,9.768,7.424,14.066,13.675,21.490,1.563,11.331,0.391,25.006,1.172,35.556,9.377,11.722,-0.391,41.807,36.337,-12.503,-6.642,-10.940,-1.172,5.470,-0.391
'[04:45:08.234 07/11/2076]',14.847,11.331,3.907,7.814,15.629,24.225,-1.563,-0.391,4.298,23.053,-17.192,8.596,0.000,20.317,-4.298,3.126,37.900,-30.867,-3.126,-23.053,0.391,15.629,-4.298
'[04:45:08.238 07/11/2076]',14.847,11.331,0.000,3.907,16.801,27.741,-8.205,-6.642,8.987,18.364,-28.132,-1.563,-3.907,20.317,-6.642,-10.549,39.853,-42.589,0.781,-25.788,-7.814,21.490,-6.642
'[04:45:08.242 07/11/2076]',16.801,8.205,0.391,0.391,17.973,28.523,-9.377,-11.331,10.549,16.020,-1.172,-10.159,3.516,3.907,-1.954,10.159,45.714,-36.728,0.391,-8.205,-24.615,7.424,-1.954
'[04:45:08.246 07/11/2076]',20.317,8.596,3.907,-5.861,19.927,31.258,-8.596,-16.020,14.847,14.457,15.629,-22.662,9.377,-4.689,-1.172,20.317,48.840,-36.337,-3.126,-2.344,-35.165,3.126,-1.172
'[04:45:08.250 07/11/2076]',19.536,9.377,3.516,-4.298,19.145,32.039,-8.987,-13.284,20.317,14.066,-8.205,7.033,7.814,-4.298,-2.344,33.602,47.668,-37.900,-2.735,-8.987,-38.291,8.987,-2.344
'[04:45:08.254 07/11/2076]',18.364,9.768,2.344,-0.781,18.364,28.523,-8.205,-8.596,23.443,11.331,-19.536,19.536,6.252,-4.689,-3.516,37.509,46.105,-33.211,-1.563,-12.503,-39.463,10.940,-3.516
'[04:45:08.258 07/11/2076]',16.410,9.768,1.172,-3.126,18.364,24.225,-5.861,-11.722,24.225,9.377,-7.814,-16.801,3.126,-2.735,-3.907,14.066,40.244,-29.695,-0.391,-12.503,-37.118,9.377,-3.907
'[04:45:08.262 07/11/2076]',13.675,7.033,-2.735,-1.954,18.364,16.410,-6.642,-12.112,22.662,5.861,-4.298,-21.099,-0.391,-2.735,-6.642,14.066,31.258,-31.258,3.516,-14.847,-33.993,10.549,-6.642
'[04:45:08.266 07/11/2076]',10.159,0.000,-7.033,0.781,16.801,5.861,-7.033,-11.722,19.145,-0.391,-1.563,-5.079,-0.391,-10.159,-7.033,31.258,20.317,-27.350,7.814,-10.549,-32.430,7.033,-7.033
'[04:45:08.270 07/11/2076]',4.298,-3.516,-8.987,0.000,15.238,-1.172,-6.252,-15.238,16.020,-3.907,1.954,-23.053,-3.126,-14.066,-7.033,16.020,8.205,-21.880,9.768,-8.987,-28.523,6.252,-7.033
'[04:45:08.273 07/11/2076]',-0.781,-2.344,-11.722,-1.954,13.284,-5.470,-5.470,-19.536,15.629,-8.205,-8.596,-37.900,-10.940,-12.112,-8.987,-6.642,0.000,-19.145,12.503,-14.457,-23.834,9.768,-8.987
'[04:45:08.277 07/11/2076]',-3.907,-5.079,-11.722,0.781,9.377,-9.768,-5.079,-14.457,11.722,-8.987,-9.377,-0.781,-9.768,-20.708,-6.252,29.695,-3.907,-9.377,12.503,-10.549,-24.225,5.470,-6.252
'[04:45:08.281 07/11/2076]',-6.642,-7.814,-8.596,3.907,3.907,-12.503,-2.344,-8.205,7.814,-8.205,0.000,17.973,-8.205,-26.960,-3.126,56.264,-6.252,-4.689,9.377,-5.861,-21.880,0.391,-3.126
'[04:45:08.285 07/11/2076]',-12.503,-4.298,-7.033,2.735,-2.344,-13.675,1.954,-5.861,8.596,-7.814,-6.252,-16.410,-18.364,-14.066,-0.781,11.722,-11.331,-10.940,7.814,-14.847,-9.768,7.814,-0.781
'[04:45:08.289 07/11/2076]',-20.317,-1.172,-8.205,5.861,-9.377,-19.145,6.642,-1.172,9.377,-7.033,-17.973,-34.774,-28.523,-0.391,0.000,-20.317,-16.801,-10.159,8.987,-24.615,1.954,16.410,0.000
'[04:45:08.293 07/11/2076]',-19.536,-2.344,-6.252,6.252,-10.940,-16.801,11.331,-3.516,8.205,-4.298,-3.516,-9.768,-16.801,-8.205,2.344,15.238,-12.894,2.344,7.033,-12.894,3.516,10.159,2.344
'[04:45:08.297 07/11/2076]',-18.364,-2.735,-8.596,6.642,-10.940,-12.894,9.768,-8.205,9.377,-5.861,7.814,-3.907,-9.377,-14.847,3.907,28.523,-12.894,6.642,9.377,-5.861,2.344,7.814,3.907
'[04:45:08.301 07/11/2076]',-23.053,0.781,-14.066,8.596,-9.768,-8.987,3.516,-11.722,12.112,-7.424,-12.112,-12.503,-17.973,-4.689,0.781,2.344,-17.192,-7.424,14.847,-14.066,3.516,20.317,0.781
'[04:45:08.305 07/11/2076]',-25.397,0.391,-14.847,10.159,-7.033,-8.596,-0.781,-11.331,11.331,-3.516,-27.741,-8.987,-22.271,0.391,0.391,-8.205,-16.410,-16.801,15.629,-19.536,6.252,29.304,0.391
'[04:45:08.309 07/11/2076]',-23.053,-2.735,-13.675,10.940,-5.079,-7.424,-1.563,-12.503,7.033,0.781,-0.391,-26.178,-16.020,-5.861,4.689,-1.563,-5.861,-14.066,14.457,-3.516,2.344,18.364,4.689
'[04:45:08.313 07/11/2076]',-24.225,-1.954,-9.768,8.987,-5.470,-7.033,-0.391,-12.503,7.033,4.298,12.894,-41.026,-13.675,-2.735,7.033,-6.252,-1.172,-19.145,10.549,1.172,3.907,16.801,7.033
'[04:45:08.316 07/11/2076]',-27.741,-2.735,-8.596,10.940,-8.205,-8.987,0.391,-9.768,5.861,6.642,-7.033,-9.768,-12.894,2.735,5.079,1.563,1.172,-20.708,9.377,-2.735,10.940,22.271,5.079
'[04:45:08.320 07/11/2076]',-27.741,-4.298,-8.205,9.768,-10.159,-7.424,0.391,-11.331,4.298,5.470,-12.503,-0.391,-11.331,3.126,2.735,3.516,3.907,-14.847,8.987,-0.781,13.675,22.271,2.735
'[04:45:08.324 07/11/2076]',-30.476,-2.735,-9.377,7.814,-13.284,-7.033,1.563,-15.238,2.735,1.563,-8.205,-28.132,-18.364,5.861,0.000,-17.973,1.563,-13.284,10.159,0.000,14.847,21.490,0.000
'[04:45:08.328 07/11/2076]',-30.867,-3.516,-8.987,7.424,-15.238,-7.814,4.689,-17.973,1.172,-0.781,-8.987,-18.755,-21.099,5.861,-1.172,-10.549,-2.344,-9.768,9.768,-1.954,19.145,19.536,-1.172
'[04:45:08.332 07/11/2076]',-28.132,-8.596,-6.642,5.079,-15.629,-10.159,6.252,-18.755,-3.907,-4.689,1.172,-0.391,-18.364,-1.954,-1.563,13.675,-6.642,-5.079,7.424,6.252,17.582,11.331,-1.563
'[04:45:08.336 07/11/2076]',-25.788,-8.596,-6.642,-2.344,-16.410,-12.503,6.252,-21.490,-6.252,-9.768,10.549,-22.271,-19.536,-2.735,-0.781,-5.079,-16.020,-2.735,7.424,12.503,13.284,4.689,-0.781
'[04:45:08.340 07/11/2076]',-26.178,-8.596,-5.861,-7.033,-17.582,-18.755,6.252,-18.364,-8.205,-14.847,-0.781,-34.383,-24.225,5.079,-4.298,-35.556,-27.350,-1.172,6.642,8.205,14.847,6.252,-4.298
'[04:45:08.344 07/11/2076]',-24.615,-10.549,-6.642,-6.642,-19.145,-26.569,6.642,-9.377,-14.847,-19.927,1.563,6.252,-16.801,-3.126,-7.033,0.000,-32.821,7.814,7.424,13.675,11.722,-0.781,-7.033
'[04:45:08.348 07/11/2076]',-24.615,-14.066,-8.987,-5.079,-21.880,-33.993,3.516,-1.563,-23.053,-25.397,11.331,25.397,-14.066,-9.768,-10.549,22.271,-41.416,13.284,9.768,18.755,9.768,-9.377,-10.549
'[04:45:08.352 07/11/2076]',-34.774,-11.722,-10.940,-5.079,-28.132,-44.151,2.344,6.252,-29.695,-29.304,-12.503,-8.205,-30.476,6.642,-16.801,-39.463,-55.482,0.391,11.722,1.563,23.053,0.391,-16.801
'[04:45:08.355 07/11/2076]',-39.853,-11.331,-12.503,-4.298,-32.039,-48.840,0.391,11.331,-33.211,-31.258,-17.582,-10.159,-32.039,10.940,-20.317,-50.794,-60.171,-2.735,13.284,-2.344,29.695,1.954,-20.317
'[04:45:08.359 07/11/2076]',-30.085,-17.973,-10.159,-5.470,-27.741,-50.794,-2.735,14.847,-38.681,-28.913,6.252,10.940,-18.755,-2.735,-17.973,-10.159,-57.436,5.861,10.940,17.582,21.099,-12.894,-17.973
'[04:45:08.363 07/11/2076]',-18.755,-21.490,-10.159,-6.252,-20.317,-44.933,-8.987,16.801,-37.509,-26.960,20.708,20.317,-9.377,-9.377,-16.020,11.722,-55.092,7.424,10.940,30.085,10.159,-19.927,-16.020
'[04:45:08.367 07/11/2076]',-13.675,-17.582,-12.112,-6.252,-14.457,-39.072,-14.847,17.973,-32.821,-23.053,-0.391,30.085,-10.549,-0.391,-18.755,3.126,-51.966,-4.689,12.894,18.364,8.987,-9.377,-18.755
'[04:45:08.371 07/11/2076]',-7.814,-15.629,-13.284,-3.516,-8.596,-33.993,-16.801,18.364,-28.523,-18.364,-16.020,39.072,-9.768,2.344,-18.364,1.563,-44.933,-7.424,14.066,12.112,6.252,-3.126,-18.364
'[04:45:08.375 07/11/2076]',-1.954,-13.284,-11.722,-2.735,-5.079,-26.178,-14.847,14.847,-26.960,-11.722,3.907,14.457,-7.033,-1.172,-14.457,1.563,-33.602,-1.172,12.503,17.582,1.172,-12.112,-14.457
'[04:45:08.379 07/11/2076]',-1.172,-8.596,-10.940,-1.954,-3.126,-19.927,-10.159,9.377,-23.834,-7.033,10.549,3.126,-3.907,-3.907,-11.331,2.344,-24.225,-2.344,11.722,14.457,4.689,-15.629,-11.331
'[04:45:08.383 07/11/2076]',-0.391,-9.377,-10.940,6.642,0.000,-16.020,-9.377,10.940,-18.755,-3.516,-3.516,35.556,0.391,-9.377,-8.205,26.569,-14.066,-3.126,11.722,14.066,3.126,-14.066,-8.205
'[04:45:08.387 07/11/2076]',2.735,-10.159,-9.768,11.331,7.033,-10.549,-10.940,8.205,-12.503,-0.781,-11.331,40.244,1.954,-13.284,-5.079,32.039,-4.689,-4.298,10.549,14.066,1.563,-14.066,-5.079
'[04:45:08.391 07/11/2076]',0.000,-7.814,-10.549,13.284,12.503,-7.424,-11.331,1.563,-6.252,1.954,-15.629,18.755,-2.344,-10.159,-1.954,13.675,3.516,-12.894,11.331,6.252,4.689,-11.722,-1.954
'[04:45:08.395 07/11/2076]',0.391,-10.159,-9.377,14.066,19.145,-4.298,-14.847,-3.907,-2.344,3.907,-18.755,30.476,-2.735,-12.894,-1.172,30.867,11.722,-19.536,10.159,4.689,3.516,-11.722,-1.172
'[04:45:08.398 07/11/2076]',5.861,-12.112,-6.252,10.549,25.397,0.000,-17.973,-9.377,0.781,0.391,-7.424,39.463,0.391,-20.317,-0.781,55.482,15.238,-23.053,7.033,9.377,-4.689,-17.582,-0.781
'[04:45:08.402 07/11/2076]',6.252,-9.768,-5.079,3.907,27.741,0.000,-19.927,-12.503,-0.781,-3.516,-7.814,12.503,-7.033,-19.536,-3.126,30.085,8.596,-29.304,5.861,5.079,-7.814,-20.708,-3.126
'[04:45:08.406 07/11/2076]',3.516,-8.205,-6.252,2.735,26.178,-5.470,-18.755,-9.768,-1.172,-14.066,-21.099,-0.781,-17.582,-15.629,-6.642,2.735,-1.563,-31.258,7.033,-3.907,-7.033,-19.927,-6.642
'[04:45:08.410 07/11/2076]',5.079,-8.596,-3.907,3.126,23.053,-9.377,-15.238,-1.563,-4.298,-21.490,-17.973,40.244,-12.503,-28.132,-6.252,42.979,-5.079,-18.364,4.689,1.172,-12.112,-30.476,-6.252
'[04:45:08.414 07/11/2076]',5.079,-11.331,-2.735,6.252,16.801,-16.410,-10.549,8.596,-11.722,-30.476,-17.582,71.893,-13.284,-37.118,-6.642,68.767,-12.894,-13.284,3.516,-1.563,-10.159,-35.556,-6.642
'[04:45:08.418 07/11/2076]',-1.563,-4.689,-0.391,-1.172,10.549,-19.145,-4.689,4.689,-11.722,-36.728,-23.834,33.602,-24.615,-25.788,-7.814,19.927,-21.490,-17.582,1.172,-14.066,-3.126,-28.913,-7.814
'[04:45:08.422 07/11/2076]',-4.689,-0.781,-0.781,-7.814,7.814,-18.364,-3.907,0.391,-10.159,-39.463,-32.039,17.192,-30.085,-19.927,-10.549,-3.907,-26.569,-15.629,1.563,-19.536,-2.735,-23.053,-10.549
'[04:45:08.426 07/11/2076]',0.000,-5.079,-0.781,-6.252,7.424,-16.410,-3.907,0.391,-14.847,-39.853,-4.689,28.913,-19.536,-35.165,-8.596,33.602,-27.350,-0.781,1.563,-0.781,-16.801,-33.993,-8.596
'[04:45:08.430 07/11/2076]',0.781,-5.470,0.391,-7.033,7.814,-14.457,-3.126,-1.563,-15.629,-37.900,16.020,19.536,-13.284,-39.853,-7.424,41.807,-31.648,7.814,0.391,8.596,-20.708,-39.072,-7.424
'[04:45:08.434 07/11/2076]',-1.563,-5.861,-1.172,-1.954,5.861,-16.020,-5.861,5.861,-12.894,-36.728,-8.987,39.463,-15.238,-30.867,-10.549,36.728,-38.291,3.516,1.954,1.172,-16.020,-26.569,-10.549
'[04:45:08.438 07/11/2076]',0.000,-7.033,-2.344,3.126,4.298,-16.801,-7.424,13.675,-11.331,-33.211,-23.834,52.357,-14.066,-27.350,-10.940,34.383,-38.291,1.563,3.126,-1.563,-12.894,-17.973,-10.940
'[04:45:08.441 07/11/2076]',0.781,-5.470,0.391,0.781,2.344,-16.020,-3.126,13.675,-11.331,-24.615,-3.126,15.629,-13.284,-24.615,-5.861,18.364,-33.993,1.563,0.391,2.735,-10.159,-21.880,-5.861
'[04:45:08.445 07/11/2076]',2.735,-1.172,1.172,-1.563,2.735,-12.112,-1.563,11.722,-6.642,-15.629,1.954,0.000,-9.377,-18.755,-3.516,10.549,-26.960,-5.079,-0.391,1.172,-9.377,-17.973,-3.516
'[04:45:08.449 07/11/2076]',7.814,-1.563,1.563,0.391,6.642,-7.033,-3.126,11.722,-5.861,-5.861,-5.861,23.834,-4.689,-19.536,-1.954,31.648,-17.973,-6.252,-0.781,1.563,-11.331,-15.238,-1.954
'[04:45:08.453 07/11/2076]',10.159,0.391,3.516,0.391,10.549,-2.344,-1.563,7.033,-3.516,2.344,-7.424,15.238,-3.516,-16.801,1.172,26.569,-10.549,-3.516,-2.735,0.391,-11.722,-14.457,1.172
'[04:45:08.457 07/11/2076]',10.159,3.516,4.298,-0.391,15.238,3.516,-3.126,1.954,1.954,9.377,-16.410,-5.079,-7.814,-6.252,1.172,3.516,-4.689,-3.907,-3.516,-7.424,-10.159,-7.033,1.172
'[04:45:08.461 07/11/2076]',14.847,3.516,3.907,-0.781,23.443,8.987,-5.470,-5.470,8.205,14.847,-20.317,16.410,-4.298,-6.252,2.735,27.741,2.735,-0.781,-3.126,-7.814,-12.112,-4.689,2.735
'[04:45:08.465 07/11/2076]',14.847,0.391,3.907,0.000,24.225,12.894,-7.424,-10.159,8.205,18.755,-7.424,32.039,-0.391,-12.894,5.861,59.389,10.940,0.391,-3.126,-3.516,-14.847,-10.159,5.861
