'Time and date','FP1-F7','F7-T7','T7-P7','P7-O1','FP1-F3','F3-C3','C3-P3','P3-O1','FP2-F4','F4-C4','C4-P4','P4-O2','FP2-F8','F8-T8','T8-P8','P8-O2','FZ-CZ','CZ-PZ','P7-T7','T7-FT9','FT9-FT10','FT10-T8','T8-P8'
'hh:mm:ss.mmm dd/mm/yyyy','uV','uV','uV','uV','uV','uV','uV','uV','uV','uV','uV','uV','uV','uV','uV','uV','uV','uV','uV','uV','uV','uV','uV'
'[18:43:40.000 06/11/2076]',-104.322,-56.654,-0.391,21.099,-39.463,-48.059,32.430,-85.177,22.662,1.954,-8.596,82.051,48.840,-160.586,-30.867,240.684,-19.145,-30.085,1.172,2.344,-10.549,21.490,-30.867
'[18:43:40.004 06/11/2076]',0.391,0.391,0.391,0.391,0.391,0.391,0.391,0.391,0.391,0.391,0.391,0.391,0.391,0.391,0.391,0.391,0.391,0.391,0.391,0.391,0.391,0.391,0.391
'[18:43:40.008 06/11/2076]',0.391,0.391,0.391,0.391,0.391,0.391,0.391,0.391,0.391,0.391,0.391,0.391,0.391,0.391,0.391,0.391,0.391,0.391,0.391,0.391,0.391,0.391,0.391
'[18:43:40.012 06/11/2076]',0.391,0.000,0.391,0.391,0.391,0.391,1.172,-0.781,0.391,0.781,0.391,1.563,1.563,0.000,0.391,1.954,0.391,0.781,0.391,1.563,0.391,-0.391,0.391
'[18:43:40.016 06/11/2076]',0.391,0.391,0.781,0.000,0.391,0.000,0.391,0.781,0.391,0.391,0.391,1.954,0.781,-1.172,0.781,2.344,0.391,0.000,0.000,-0.391,0.391,0.391,0.781
'[18:43:40.020 06/11/2076]',0.000,1.563,0.391,0.000,0.000,-0.391,-3.907,6.642,0.781,-1.954,-0.781,-5.079,-4.298,3.126,1.172,-7.424,0.000,-2.344,0.391,-4.689,0.391,3.907,1.172
'[18:43:40.023 06/11/2076]',-1.172,1.563,-0.781,0.391,0.000,0.391,-4.298,4.298,-1.172,-1.172,-0.781,-12.503,-7.424,6.642,0.000,-15.238,0.391,-0.391,1.563,-3.516,1.172,3.516,0.000
'[18:43:40.027 06/11/2076]',0.391,0.000,-0.391,0.391,1.172,0.781,4.298,-6.642,-5.861,3.907,1.172,0.391,-1.172,0.391,-1.563,2.735,1.172,3.516,1.172,3.907,0.391,-0.781,-1.563
'[18:43:40.031 06/11/2076]',2.735,-0.781,2.344,-0.391,2.735,0.391,7.033,-6.642,-1.563,4.298,1.954,19.145,6.642,-6.642,0.000,23.834,0.781,1.172,-1.563,4.298,-1.563,-2.344,0.000
'[18:43:40.035 06/11/2076]',1.954,0.781,2.344,0.391,1.954,0.391,-5.079,8.987,8.987,-3.516,-0.781,3.126,1.954,1.954,2.735,0.391,-1.563,-4.689,-1.563,-3.907,0.391,2.344,2.735
'[18:43:40.039 06/11/2076]',-1.563,6.642,-1.172,-0.781,1.172,-3.907,-15.238,21.490,5.470,-9.377,-3.516,-32.821,-16.410,12.503,5.470,-42.979,-2.735,-7.424,1.954,-17.582,1.954,8.205,5.470
'[18:43:40.043 06/11/2076]',-5.861,16.410,-0.391,-7.033,1.563,-14.066,-27.350,42.589,-14.457,-14.457,-7.814,-58.217,-55.092,21.880,8.205,-72.283,-3.907,-20.317,1.172,-48.840,-1.172,29.304,8.205
'[18:43:40.047 06/11/2076]',-11.331,18.755,-3.516,-5.079,-1.563,-5.470,-44.933,51.184,-26.569,-16.801,-12.503,-88.303,-87.912,56.264,-3.907,-110.574,-5.861,-25.788,4.298,-57.045,1.954,49.621,-3.907
'[18:43:40.051 06/11/2076]',-7.814,23.443,-6.252,-9.377,14.066,-10.940,-35.165,31.648,-47.277,-6.642,-9.768,-88.694,-95.336,48.059,-1.954,-103.541,-3.126,-22.662,7.033,-57.045,0.391,40.635,-1.954
'[18:43:40.055 06/11/2076]',4.689,21.099,1.172,-9.768,26.569,-8.596,-24.615,25.006,-52.357,1.954,-4.298,-62.906,-97.680,53.529,-3.126,-69.939,-5.470,-21.099,-0.391,-54.310,-8.596,44.542,-3.126
'[18:43:40.059 06/11/2076]',14.847,20.708,2.344,-7.033,39.463,-3.516,-37.118,32.039,-3.126,-10.940,-5.470,-50.794,-71.893,63.687,0.391,-63.687,-14.847,-24.225,-1.563,-46.886,-9.768,35.556,0.391
'[18:43:40.063 06/11/2076]',16.410,28.132,-1.563,-4.689,50.794,-13.284,-37.900,39.463,13.675,-20.708,-5.470,-65.641,-62.125,60.952,9.768,-87.131,-23.834,-20.317,2.344,-48.449,-7.424,25.397,9.768
'[18:43:40.066 06/11/2076]',10.159,28.913,-2.344,-7.424,45.714,-22.271,-35.165,40.635,8.987,-21.490,-1.954,-75.409,-53.919,57.045,5.861,-100.415,-30.867,-12.894,3.126,-51.966,-5.079,30.476,5.861
'[18:43:40.070 06/11/2076]',-1.172,26.569,0.000,-10.549,33.211,-21.490,-36.728,39.463,2.344,-24.615,-3.126,-56.264,-54.310,47.668,8.596,-85.568,-36.337,-11.722,0.781,-46.886,-1.172,26.569,8.596
'[18:43:40.074 06/11/2076]',-12.894,30.867,1.954,-13.675,19.927,-21.880,-27.741,35.946,-5.079,-25.006,-1.954,-38.681,-43.761,32.821,10.940,-73.065,-36.728,-8.596,-1.172,-43.761,0.391,25.788,10.940
'[18:43:40.078 06/11/2076]',-4.689,25.006,0.391,-16.801,18.364,-26.178,-23.443,34.383,-9.768,-22.271,2.344,-55.092,-26.569,11.331,19.536,-90.256,-37.118,-3.907,0.391,-44.151,-7.033,22.271,19.536
'[18:43:40.082 06/11/2076]',-5.079,31.648,0.391,-17.192,12.112,-17.973,-23.834,37.900,10.940,-41.026,3.126,-61.734,-69.939,51.184,27.741,-98.462,-38.291,-3.126,0.391,-47.277,-14.847,24.225,27.741
'[18:43:40.086 06/11/2076]',-1.172,45.324,1.563,-18.755,17.582,-13.675,-13.675,35.946,16.801,-40.635,5.861,-35.165,-50.012,37.509,31.258,-71.502,-35.165,-2.735,-0.781,-50.012,-20.317,21.099,31.258
'[18:43:40.090 06/11/2076]',7.424,45.324,7.424,-19.536,30.476,-14.457,-5.470,30.867,16.410,-37.900,5.861,-17.582,-54.701,47.277,26.960,-53.529,-33.993,-0.781,-6.642,-52.357,-12.894,18.364,26.960
'[18:43:40.094 06/11/2076]',-3.516,52.357,12.503,-23.443,18.364,-5.079,-13.284,37.900,10.549,-46.496,7.814,-29.304,-80.879,72.283,19.145,-68.376,-33.993,-3.516,-11.722,-57.827,-13.675,24.615,19.145
'[18:43:40.098 06/11/2076]',-3.126,56.264,4.298,-24.615,14.066,-1.172,-20.708,41.807,-24.225,-39.072,12.112,-31.258,-92.601,58.608,23.443,-73.065,-31.258,-1.563,-3.516,-59.389,-17.582,16.020,23.443
'[18:43:40.102 06/11/2076]',5.079,57.436,-9.377,-23.443,11.722,1.172,-13.284,29.304,-38.291,-31.258,12.894,-25.788,-85.177,37.509,22.662,-58.608,-25.006,5.470,10.159,-47.277,-30.476,2.344,22.662
'[18:43:40.105 06/11/2076]',-1.563,60.562,-20.708,-21.490,-3.126,2.735,-9.768,25.788,-35.946,-34.383,12.894,-28.132,-75.800,51.575,0.391,-62.906,-19.536,2.735,21.490,-52.357,-22.271,19.927,0.391
'[18:43:40.109 06/11/2076]',-0.781,66.422,-28.132,-20.317,0.391,5.079,-19.536,29.695,-52.747,-28.132,4.298,-26.178,-89.866,44.151,9.768,-67.985,-12.112,-5.861,28.913,-61.343,-10.940,12.503,9.768
'[18:43:40.113 06/11/2076]',11.722,72.283,-6.252,-20.317,21.099,8.596,-13.675,39.072,-34.774,-11.722,-3.907,-19.536,-60.171,57.827,6.252,-76.581,-0.781,-10.159,7.033,-73.846,14.457,27.741,6.252
'[18:43:40.117 06/11/2076]',7.424,53.919,-1.172,-16.410,17.582,2.735,-10.159,33.211,-25.006,-9.377,-14.066,-16.410,-42.589,79.316,-24.225,-78.926,-1.954,-13.675,1.954,-66.422,36.337,39.853,-24.225
'[18:43:40.121 06/11/2076]',17.192,49.621,-3.907,-23.834,27.741,3.907,-22.271,28.523,-33.211,-10.159,-9.377,-30.476,-39.463,55.873,-14.847,-85.958,-8.987,-16.801,4.689,-52.747,16.410,21.099,-14.847
'[18:43:40.125 06/11/2076]',19.536,50.012,-14.066,-17.973,28.132,2.344,-25.006,31.648,-43.370,-10.549,-3.126,-17.973,-31.258,35.556,-8.987,-71.111,-12.503,-12.894,14.847,-50.403,13.675,4.689,-8.987
'[18:43:40.129 06/11/2076]',7.814,46.105,-30.867,-14.847,8.596,0.391,-25.006,23.834,-26.960,-26.178,-2.344,-25.397,-23.443,23.834,-12.503,-69.939,-15.238,-8.205,31.648,-34.774,3.516,-7.033,-12.503
'[18:43:40.133 06/11/2076]',4.689,52.747,-22.662,-16.801,0.391,1.563,-21.490,37.509,-26.569,-35.556,0.391,-36.337,-34.774,9.768,0.781,-76.190,-14.066,-6.252,23.443,-38.681,-5.470,-17.582,0.781
'[18:43:40.137 06/11/2076]',3.126,50.794,-15.238,-11.722,-2.735,3.516,-19.927,44.933,-30.867,-32.821,-3.907,-19.536,-34.383,1.954,5.079,-60.171,-12.503,-8.205,16.020,-33.211,0.000,-20.317,5.079
'[18:43:40.141 06/11/2076]',-10.549,40.244,-15.238,-12.503,-25.397,5.861,-15.238,34.774,-12.112,-44.151,-12.894,-7.814,-42.198,32.039,-22.662,-45.324,-13.675,-14.457,16.020,-21.490,3.516,-2.344,-22.662
'[18:43:40.145 06/11/2076]',13.675,26.178,-0.781,-17.973,-17.192,13.675,-14.847,39.072,-1.563,-40.244,-13.675,-32.039,-22.662,31.648,-31.648,-66.422,-15.629,-21.099,1.563,-16.020,3.907,3.516,-31.648
'[18:43:40.148 06/11/2076]',5.470,29.695,-3.516,-18.364,-20.317,15.629,-22.662,40.244,-23.053,-36.337,-13.675,-49.621,-29.695,20.317,-35.165,-79.707,-16.020,-26.178,4.298,-20.708,13.675,-2.735,-35.165
'[18:43:40.152 06/11/2076]',24.225,9.768,-8.205,-8.205,1.563,15.238,-25.397,25.006,-17.973,-41.416,-13.675,-34.774,-17.192,38.291,-67.595,-63.297,-13.284,-25.006,8.987,-1.954,24.615,24.615,-67.595
'[18:43:40.156 06/11/2076]',30.867,8.987,16.410,-15.629,14.847,10.549,-15.238,30.867,-46.496,-20.708,-14.066,-25.788,-19.145,0.391,-35.556,-55.092,-6.642,-22.271,-15.629,-8.987,39.463,-1.172,-35.556
'[18:43:40.160 06/11/2076]',0.391,26.569,16.801,-9.768,2.344,0.781,-20.317,50.012,-89.866,-16.801,-14.847,-39.463,-69.158,0.391,-16.801,-77.363,-0.781,-25.397,-16.020,-24.225,48.449,-8.987,-16.801
'[18:43:40.164 06/11/2076]',-19.145,12.894,11.722,0.391,-13.284,-9.768,-30.867,59.780,-28.523,-33.993,-24.615,-42.589,-51.575,41.026,-28.132,-92.991,3.516,-28.913,-10.940,-25.788,64.860,9.768,-28.132
'[18:43:40.168 06/11/2076]',-12.894,16.801,11.722,-7.424,-12.112,-11.331,-15.629,47.668,28.523,-41.416,-27.350,-33.993,-6.642,20.317,-16.020,-72.674,5.470,-29.304,-10.940,-25.006,60.562,-7.424,-16.020
'[18:43:40.172 06/11/2076]',-9.768,15.629,17.192,-6.642,0.781,-4.689,-18.364,38.291,58.999,-46.496,-18.364,-45.714,12.894,19.927,-11.331,-75.018,8.596,-34.383,-16.410,-16.801,59.389,-8.987,-11.331
'[18:43:40.176 06/11/2076]',-2.344,23.053,5.861,-7.424,19.145,-3.126,-32.430,35.946,78.926,-52.357,-20.317,-36.728,22.271,28.132,-21.099,-60.952,6.642,-37.900,-5.079,-11.331,46.105,-1.954,-21.099
'[18:43:40.180 06/11/2076]',1.172,26.960,12.894,-17.973,25.006,5.079,-30.476,22.271,50.794,-37.900,-14.847,-30.085,28.523,0.781,-12.112,-50.794,7.424,-32.430,-12.112,-1.172,28.913,-3.516,-12.112
'[18:43:40.184 06/11/2076]',-13.284,28.523,23.053,-18.364,19.145,11.331,-30.085,19.145,1.563,-16.410,-5.861,-38.681,3.516,-19.536,8.987,-55.092,12.503,-25.788,-22.271,1.563,28.132,-24.225,8.987
'[18:43:40.188 06/11/2076]',-14.457,29.304,23.834,-22.271,23.834,7.814,-32.821,17.192,-16.801,-12.112,-6.642,-39.853,-19.145,-9.377,6.642,-56.264,11.722,-25.788,-23.053,-5.079,35.946,-27.350,6.642
'[18:43:40.191 06/11/2076]',-4.298,24.615,20.317,-21.490,28.913,5.861,-26.569,11.722,1.563,-18.364,-7.424,-30.085,11.722,-23.443,2.344,-46.886,7.424,-26.178,-19.536,-7.424,35.946,-19.536,2.344
'[18:43:40.195 06/11/2076]',-3.907,22.662,19.145,-20.317,28.132,6.252,-22.271,4.298,-1.563,-15.238,-2.735,-47.277,7.033,-15.238,-1.954,-58.999,1.954,-22.662,-18.364,-5.079,38.681,-19.927,-1.954
'[18:43:40.199 06/11/2076]',-15.238,28.523,11.331,-17.192,18.364,5.470,-21.880,4.689,0.391,-28.132,-3.907,-64.860,-17.582,14.066,-17.192,-77.363,-1.954,-23.053,-10.549,-18.364,51.184,-5.470,-17.192
'[18:43:40.203 06/11/2076]',-25.788,29.304,4.298,-12.894,0.391,9.768,-17.582,1.563,-6.642,-22.271,-4.689,-45.714,-12.112,2.735,-14.847,-57.045,-5.861,-16.801,-3.516,-16.410,42.589,-1.172,-14.847
'[18:43:40.207 06/11/2076]',-23.834,14.457,14.457,-8.987,12.112,14.847,-19.536,-12.894,-27.741,-10.549,-1.563,-32.039,-26.569,-13.675,1.954,-35.946,-3.907,-9.377,-13.675,1.172,37.509,-10.940,1.954
'[18:43:40.211 06/11/2076]',-23.053,17.582,28.913,-14.066,20.708,14.066,-18.755,-7.814,-32.821,-8.596,4.298,-46.886,-56.654,9.377,11.722,-51.184,-1.563,-5.079,-28.132,-8.987,44.542,-15.238,11.722
'[18:43:40.215 06/11/2076]',-28.913,18.364,38.681,-7.814,16.020,14.066,-21.099,9.768,-18.364,-9.377,6.252,-41.807,-51.575,16.410,14.847,-44.542,-2.344,-2.344,-37.900,-17.973,37.509,-9.768,14.847
'[18:43:40.219 06/11/2076]',-27.350,19.145,36.337,-1.563,19.536,12.503,-10.940,5.079,-10.159,-5.079,9.768,-14.457,-26.569,7.424,12.503,-14.847,0.000,1.563,-35.556,-12.112,34.774,-12.503,12.503
'[18:43:40.223 06/11/2076]',-48.059,31.258,35.165,0.000,-4.689,17.973,1.563,2.735,18.755,-17.582,8.596,-10.549,-5.861,9.768,0.781,-6.252,4.298,2.344,-34.383,-18.755,41.416,-10.159,0.781
'[18:43:40.227 06/11/2076]',-59.780,27.350,25.397,10.159,-30.085,12.112,-2.735,24.225,24.225,-32.430,-2.735,-21.099,-22.271,37.900,-21.490,-26.960,4.689,-5.470,-24.615,-32.821,52.357,10.940,-21.490
'[18:43:40.230 06/11/2076]',-48.449,25.397,14.066,10.549,-24.225,7.814,2.344,16.410,0.000,-26.178,-4.298,-17.192,-40.244,28.913,-12.112,-25.788,5.079,0.391,-13.284,-34.383,53.138,5.079,-12.112
'[18:43:40.234 06/11/2076]',-23.443,26.960,14.066,7.424,1.172,7.814,15.629,0.391,-17.192,-23.053,0.391,-24.615,-46.496,8.596,-8.987,-19.145,3.516,14.847,-13.284,-28.523,43.370,-0.781,-8.987
'[18:43:40.238 06/11/2076]',-5.079,18.364,14.847,9.768,7.033,9.377,15.238,6.252,-54.310,-12.894,4.298,-27.350,-67.595,16.020,-25.397,-14.066,-3.907,21.099,-14.066,-36.337,41.807,9.377,-25.397
'[18:43:40.242 06/11/2076]',2.344,26.960,15.238,7.424,11.331,15.238,14.066,12.112,-85.568,9.377,12.503,-12.503,-59.389,-14.847,2.344,-4.298,-9.377,27.741,-14.457,-42.589,38.681,-12.112,2.344
'[18:43:40.246 06/11/2076]',17.973,41.026,20.317,8.987,49.231,18.755,8.987,12.112,-37.509,10.940,15.238,-14.457,0.000,-32.430,7.814,-0.781,-8.596,35.556,-19.536,-27.350,27.741,-27.350,7.814
'[18:43:40.250 06/11/2076]',8.596,44.151,12.894,15.629,37.118,25.006,6.252,14.066,15.238,-16.410,8.987,-28.132,-13.284,8.987,-0.391,-15.629,-8.596,35.165,-12.112,-23.443,24.615,-19.145,-0.391
'[18:43:40.254 06/11/2076]',1.563,46.496,9.377,17.192,32.430,24.225,4.689,13.675,20.317,-20.317,10.940,-23.834,-10.549,10.940,2.735,-16.801,-5.079,33.211,-8.596,-16.020,23.443,-21.880,2.735
'[18:43:40.258 06/11/2076]',-3.907,46.496,6.252,15.629,30.867,23.834,5.079,4.298,23.834,-21.490,12.894,-12.112,-7.814,15.629,0.000,-3.516,-2.344,38.291,-5.470,-5.470,23.053,-24.225,0.000
'[18:43:40.262 06/11/2076]',-21.490,43.370,-2.344,19.536,-5.079,30.476,7.814,5.470,12.503,-29.304,14.847,-27.350,-28.132,25.397,-7.033,-19.927,-4.298,42.979,3.126,-7.424,19.145,-16.020,-7.033
'[18:43:40.266 06/11/2076]',-24.615,37.900,0.391,14.457,-12.894,25.788,4.689,10.549,-35.165,-11.722,19.145,-37.118,-37.118,21.880,-13.675,-35.946,-5.861,44.933,0.391,-14.457,30.867,-8.987,-13.675
'[18:43:40.270 06/11/2076]',-9.768,41.807,11.331,14.066,-1.172,28.132,11.331,18.364,-44.933,-0.391,18.755,-15.238,-35.165,24.615,-12.894,-17.582,-3.126,48.059,-10.549,-12.503,31.258,-5.470,-12.894
'[18:43:40.273 06/11/2076]',-1.563,35.165,9.768,16.410,-1.172,30.867,14.457,16.410,-26.178,-8.596,16.801,-3.516,-28.132,38.681,-32.039,-1.563,-3.126,45.324,-8.987,-5.861,17.192,15.629,-32.039
'[18:43:40.277 06/11/2076]',-8.987,36.728,-2.344,21.099,-8.987,20.317,8.987,25.788,-62.906,-7.033,16.410,-19.145,-46.105,36.728,-41.807,-21.490,-2.735,37.509,3.126,-14.457,26.569,17.973,-41.807
'[18:43:40.281 06/11/2076]',-10.159,36.337,3.516,21.099,-25.006,23.443,10.549,42.589,-87.912,4.689,12.894,-17.192,-43.370,18.364,-33.602,-29.304,-0.391,38.681,-2.735,-30.476,37.900,8.987,-33.602
'[18:43:40.285 06/11/2076]',-29.695,21.880,-3.126,16.410,-41.026,7.424,13.284,25.397,-66.032,1.954,6.642,-3.516,-8.596,3.516,-41.416,-14.847,-2.735,42.589,3.907,-22.662,43.761,-2.344,-41.416
'[18:43:40.289 06/11/2076]',-30.085,22.271,-9.768,18.364,-46.105,1.172,19.145,26.569,-67.204,6.252,-1.954,4.298,10.159,-31.258,-27.741,-9.377,-5.079,44.542,10.549,-23.053,57.045,-38.291,-27.741
'[18:43:40.293 06/11/2076]',-20.708,24.225,13.675,7.033,-28.913,1.563,17.582,33.993,-41.416,16.410,-9.768,-8.987,20.317,-22.271,-11.722,-30.476,1.954,42.589,-12.894,-20.708,53.138,-33.602,-11.722
'[18:43:40.297 06/11/2076]',-4.298,25.006,10.940,8.205,-12.503,8.596,16.410,28.132,0.391,-7.033,-13.675,-10.159,-22.662,47.277,-32.039,-23.443,8.596,44.542,-10.159,-7.424,44.542,-16.020,-32.039
'[18:43:40.301 06/11/2076]',14.457,25.397,3.126,15.238,-1.563,16.020,21.490,22.662,3.516,-17.973,-6.252,-12.894,-25.006,50.403,-44.542,-14.457,11.331,46.496,-2.344,10.549,20.708,-4.689,-44.542
'[18:43:40.305 06/11/2076]',22.662,14.457,3.907,16.801,-3.907,20.317,23.834,19.145,-2.344,-15.238,1.954,-23.443,-22.662,57.827,-57.045,-16.801,16.801,44.542,-3.126,16.020,19.145,7.424,-57.045
'[18:43:40.309 06/11/2076]',21.880,4.689,-4.689,18.755,-23.443,30.867,19.927,13.284,-32.430,-12.112,7.424,-9.768,-36.337,70.330,-75.409,-5.470,17.973,45.324,5.470,11.722,36.728,15.238,-75.409
'[18:43:40.313 06/11/2076]',15.629,8.205,-9.377,12.503,-28.913,23.443,24.615,8.596,-27.741,-9.377,11.722,-10.549,-10.159,34.774,-54.310,-6.252,21.490,45.714,10.159,15.629,29.304,-7.424,-54.310
'[18:43:40.316 06/11/2076]',11.331,13.675,5.079,12.894,-11.331,16.020,22.271,16.801,-32.039,7.033,16.801,-18.364,8.987,17.973,-35.946,-17.192,28.132,50.012,-4.298,19.927,29.304,-16.801,-35.946
'[18:43:40.320 06/11/2076]',12.503,23.834,1.954,17.192,-2.344,19.927,19.927,19.536,-45.324,16.410,17.973,-5.861,0.000,24.225,-35.556,-5.079,32.039,53.529,-1.172,18.364,35.556,-17.973,-35.556
'[18:43:40.324 06/11/2076]',7.814,27.741,5.470,16.020,-5.861,20.317,22.662,21.099,-52.747,16.410,22.271,12.112,4.298,17.582,-38.681,15.238,32.821,60.171,-4.689,26.178,21.099,-8.205,-38.681
'[18:43:40.328 06/11/2076]',-3.516,22.662,5.470,23.834,-26.178,22.271,22.662,30.476,-73.846,25.397,28.132,-5.470,-2.344,10.940,-31.258,-3.126,32.821,67.204,-4.689,22.271,17.582,-9.768,-31.258
'[18:43:40.332 06/11/2076]',-11.722,18.755,-6.252,28.132,-53.138,33.211,18.755,30.085,-80.488,28.913,26.178,-23.053,-8.987,3.516,-24.615,-17.582,31.648,71.111,7.033,12.503,23.443,-20.317,-24.615
'[18:43:40.336 06/11/2076]',-20.708,18.364,0.781,22.662,-74.628,45.714,24.615,25.006,-57.827,24.225,28.132,-1.954,1.172,3.516,-12.894,0.391,37.118,72.674,0.000,16.410,10.940,-20.317,-12.894
'[18:43:40.340 06/11/2076]',-8.205,10.940,1.172,25.397,-55.873,40.635,28.523,16.020,-22.662,12.112,23.834,8.596,10.940,11.331,-18.364,18.755,39.072,66.422,-0.391,28.913,2.735,-19.927,-18.364
'[18:43:40.344 06/11/2076]',-3.126,9.768,6.252,30.085,-40.244,33.211,21.099,29.304,-16.410,6.642,15.629,-6.252,-8.205,33.211,-19.536,-4.689,40.244,51.184,-5.470,21.099,9.377,-7.814,-19.536
'[18:43:40.348 06/11/2076]',-3.516,16.801,11.722,19.536,-41.026,33.211,19.927,32.821,-26.960,7.033,11.331,-5.470,-20.708,52.357,-31.648,-13.675,43.370,42.979,-10.940,8.987,24.225,5.470,-31.648
'[18:43:40.352 06/11/2076]',-6.252,6.642,6.642,26.960,-47.277,29.304,27.350,23.834,-36.337,11.722,3.516,14.066,-16.410,51.184,-42.979,1.954,42.979,41.416,-5.861,4.298,38.681,21.490,-42.979
'[18:43:40.355 06/11/2076]',-34.774,8.987,9.377,24.615,-71.502,26.569,28.913,25.397,-73.065,22.271,3.126,-2.344,-38.681,23.834,-17.582,-16.801,42.979,36.337,-8.596,-14.066,57.436,1.563,-17.582
'[18:43:40.359 06/11/2076]',-36.337,18.755,14.066,16.020,-78.144,51.184,13.675,25.788,-58.217,28.523,6.252,-7.424,-21.099,8.596,7.814,-25.788,47.277,32.430,-13.284,-22.662,60.171,-10.940,7.814
'[18:43:40.363 06/11/2076]',-28.523,17.582,9.377,14.847,-60.171,57.827,2.344,14.457,-24.615,22.271,8.205,-0.391,11.722,-8.205,14.457,-12.112,42.979,28.132,-8.596,-0.781,28.523,-8.596,14.457
'[18:43:40.367 06/11/2076]',-6.642,8.596,9.377,16.020,-30.085,48.449,0.781,8.596,-15.629,20.317,8.596,-15.238,16.410,-9.768,13.284,-21.880,39.072,20.708,-8.596,5.861,25.006,-13.284,13.284
'[18:43:40.371 06/11/2076]',16.020,20.317,13.284,14.847,12.503,43.761,-0.781,9.768,-8.596,20.708,9.377,-14.847,13.284,10.940,7.033,-24.615,36.337,12.894,-12.503,0.391,30.085,-3.516,7.033
'[18:43:40.375 06/11/2076]',27.741,20.708,3.907,10.549,33.602,30.867,-2.344,2.344,-16.801,21.099,7.814,-2.344,21.880,20.317,-16.801,-15.629,32.821,6.252,-3.126,-2.344,26.178,19.145,-16.801
'[18:43:40.379 06/11/2076]',18.364,11.331,7.033,9.377,23.834,23.834,0.000,-0.781,-34.383,19.536,3.516,-14.457,1.172,11.722,-11.722,-27.350,29.304,5.470,-6.252,-8.987,43.761,5.079,-11.722
'[18:43:40.383 06/11/2076]',-6.252,10.549,9.768,11.331,5.079,23.834,-2.735,0.000,-48.449,20.708,-0.391,-30.476,-23.834,15.629,-8.596,-42.589,32.039,0.391,-8.987,-11.331,51.575,-0.391,-8.596
'[18:43:40.387 06/11/2076]',-23.834,9.377,14.457,6.252,-12.503,30.476,-6.642,-3.907,-53.138,21.099,-6.252,-12.894,-27.741,9.768,-10.940,-22.271,32.430,-5.470,-13.675,-8.596,39.853,7.033,-10.940
'[18:43:40.391 06/11/2076]',-21.490,3.126,4.689,8.987,-17.973,30.476,-3.126,-13.284,-48.840,20.708,-16.410,2.344,-17.192,-10.159,-12.112,-2.344,30.085,-10.159,-3.907,0.391,36.728,-2.344,-12.112
'[18:43:40.395 06/11/2076]',-24.225,12.112,10.549,9.377,-17.582,35.556,-1.563,-7.424,-44.542,19.927,-21.880,-19.536,-26.178,-5.470,-7.814,-25.788,30.476,-16.410,-9.768,-5.470,43.761,-6.642,-7.814
'[18:43:40.398 06/11/2076]',-17.582,21.099,8.205,4.298,-1.172,30.085,-4.689,-5.470,-34.774,13.675,-26.569,-30.476,-25.397,-4.689,-9.377,-38.681,28.913,-20.317,-7.424,-10.549,33.602,3.126,-9.377
'[18:43:40.402 06/11/2076]',0.391,14.847,-1.172,7.424,12.112,18.755,0.781,-10.549,12.112,3.516,-33.602,-10.940,19.927,-26.178,-6.642,-15.238,23.834,-19.536,1.954,-4.298,31.258,-12.894,-6.642
'[18:43:40.406 06/11/2076]',-4.689,-0.781,1.954,11.722,13.284,13.284,1.563,-19.145,33.993,-3.907,-38.291,-8.987,26.569,-18.364,-16.801,-8.596,19.536,-25.397,-1.172,4.689,35.165,-5.861,-16.801
'[18:43:40.410 06/11/2076]',-27.350,-1.172,-0.781,13.675,-2.735,5.079,-8.205,-9.377,20.708,-3.516,-39.853,-19.927,7.814,-2.735,-21.099,-26.569,17.973,-40.635,1.563,-3.516,33.211,8.205,-21.099
'[18:43:40.414 06/11/2076]',-17.582,-4.298,-8.987,19.145,2.735,-5.861,-10.549,1.954,5.079,0.781,-49.231,-12.112,-4.689,12.112,-30.085,-32.821,16.020,-44.542,9.768,-19.536,44.151,17.973,-30.085
'[18:43:40.418 06/11/2076]',-18.364,1.563,-10.940,14.847,-2.735,0.391,3.907,-13.675,-8.205,4.689,-39.072,-15.629,5.470,5.079,-33.602,-35.165,15.629,-39.853,11.722,-20.708,53.529,15.629,-33.602
'[18:43:40.422 06/11/2076]',-23.834,3.126,-11.331,11.331,-16.020,9.377,5.470,-19.536,-25.006,12.112,-34.774,-28.523,-3.516,-23.053,-5.861,-44.151,18.755,-40.635,12.112,-24.615,56.264,-6.642,-5.861
'[18:43:40.426 06/11/2076]',0.391,1.172,-11.722,0.391,-6.642,19.145,-1.563,-20.317,-16.020,1.563,-31.648,-19.536,-13.284,-8.987,-9.768,-33.211,14.457,-37.900,12.503,-21.490,48.840,-10.159,-9.768
'[18:43:40.430 06/11/2076]',2.735,-7.033,-4.298,1.172,-15.629,27.741,-0.391,-20.708,-0.391,-3.516,-26.178,-13.675,-3.126,-6.642,-10.159,-25.006,12.112,-30.476,5.079,-10.940,41.026,-8.596,-10.159
'[18:43:40.434 06/11/2076]',-7.424,-7.033,1.954,5.079,-14.847,31.258,-6.642,-17.192,-4.298,-2.344,-21.490,-20.708,-10.940,7.424,-15.238,-30.085,10.549,-29.695,-1.172,0.391,33.602,1.172,-15.238
'[18:43:40.438 06/11/2076]',17.192,1.172,-7.033,5.470,26.178,16.801,-16.020,-10.159,-16.020,0.391,-21.490,-14.066,-21.490,23.834,-28.913,-25.397,7.033,-33.993,7.814,-5.470,30.476,14.847,-28.913
'[18:43:40.441 06/11/2076]',26.569,-1.172,-3.907,3.907,47.668,3.907,-14.847,-11.331,0.391,-2.344,-22.662,-2.344,3.907,9.768,-28.132,-13.284,2.735,-37.118,4.689,-1.172,28.132,14.066,-28.132
'[18:43:40.445 06/11/2076]',25.006,2.735,-16.020,1.563,47.668,-7.033,-12.503,-14.066,10.159,-2.735,-21.490,-19.536,19.536,-5.079,-21.099,-27.350,2.735,-36.728,16.801,1.563,14.847,7.033,-21.099
'[18:43:40.449 06/11/2076]',21.880,1.172,-31.258,-0.781,28.523,-14.847,-8.596,-13.284,4.689,-2.344,-25.397,-35.165,19.536,-12.894,-25.006,-40.635,-0.781,-36.728,32.039,-3.126,16.410,-2.735,-25.006
'[18:43:40.453 06/11/2076]',14.457,-20.708,-13.284,-10.940,1.563,-3.516,-12.112,-18.364,17.582,-7.814,-28.523,-12.894,36.728,-15.629,-30.867,-22.662,-3.516,-35.556,14.066,10.549,16.410,-0.781,-30.867
'[18:43:40.457 06/11/2076]',-3.516,-8.987,-31.648,-8.205,-25.006,-7.033,-5.470,-15.629,21.099,-10.549,-24.615,0.391,50.403,-19.536,-35.946,-8.987,-5.079,-30.476,32.430,4.689,5.861,-1.563,-35.946
'[18:43:40.461 06/11/2076]',-5.861,-12.112,-29.304,-6.642,-22.271,0.781,-25.397,-8.205,-3.907,-1.172,-19.145,-19.536,23.443,0.000,-32.821,-35.946,-5.470,-35.946,30.085,13.284,3.126,3.126,-32.821
'[18:43:40.465 06/11/2076]',-3.516,-7.033,-19.145,-12.503,-11.331,3.516,-39.072,3.126,-10.549,-3.907,-19.536,-20.708,-1.954,7.424,-15.238,-46.105,-2.344,-41.416,19.927,7.033,5.861,-3.516,-15.238
'[18:43:40.469 06/11/2076]',8.205,1.954,-26.178,-7.033,3.907,-0.391,-30.476,3.516,-19.927,-7.033,-17.582,-2.735,-16.020,15.629,-18.364,-30.867,2.735,-39.072,26.960,7.814,-4.689,7.033,-18.364
'[18:43:40.473 06/11/2076]',19.145,-0.781,-30.085,-3.126,8.205,-5.079,-22.662,3.907,-16.410,-4.689,-14.847,-1.563,-10.940,11.331,-6.252,-33.211,4.298,-38.291,30.867,3.516,0.391,-0.391,-6.252
'[18:43:40.477 06/11/2076]',12.503,-1.563,-28.913,0.391,-10.159,-5.861,-25.788,25.006,-22.662,0.391,-23.834,0.000,-8.987,0.391,7.424,-45.714,3.126,-41.416,29.695,-16.410,16.020,-7.814,7.424
'[18:43:40.480 06/11/2076]',11.722,-5.470,-33.602,-0.781,-15.629,-11.722,-22.662,21.099,-11.722,1.172,-19.927,0.391,13.284,4.689,-3.126,-46.886,3.126,-35.946,34.383,-18.755,20.708,1.954,-3.126
'[18:43:40.484 06/11/2076]',20.708,-13.284,-35.946,-0.781,-14.457,-9.768,-15.629,10.549,2.344,5.861,-12.112,-7.814,30.085,16.410,-15.629,-42.589,1.563,-30.085,36.728,-5.079,8.205,11.331,-15.629
'[18:43:40.488 06/11/2076]',27.350,-26.178,-31.258,-1.563,-8.596,-4.298,-28.523,8.987,-2.344,8.987,-10.940,-7.033,25.788,1.563,-5.079,-35.165,-1.172,-34.774,32.039,12.112,-7.424,-0.781,-5.079
'[18:43:40.492 06/11/2076]',43.370,-23.053,-27.741,-7.814,17.192,-6.252,-33.211,5.861,12.894,0.000,-10.940,3.126,26.569,23.834,-18.755,-26.960,0.391,-35.556,28.523,20.708,-16.801,12.112,-18.755
'[18:43:40.496 06/11/2076]',51.184,-14.457,-23.443,-5.470,31.648,-6.642,-28.132,9.768,25.006,-5.079,-8.987,5.470,31.258,22.271,-8.987,-28.523,1.954,-29.695,24.225,21.880,-20.708,6.252,-8.987
'[18:43:40.500 06/11/2076]',37.509,-12.894,-32.821,-0.391,12.503,-3.126,-30.867,12.112,13.675,-6.252,-7.033,-0.781,23.053,16.410,-4.689,-35.165,2.735,-28.132,33.602,21.490,-30.476,2.344,-4.689
'[18:43:40.504 06/11/2076]',36.728,-2.344,-24.225,0.391,11.722,4.298,-24.225,17.192,0.781,0.781,-1.563,6.252,16.410,28.913,-9.377,-29.304,7.424,-24.225,25.006,8.596,-10.549,9.768,-9.377
'[18:43:40.508 06/11/2076]',44.933,-3.126,-31.258,6.642,11.722,10.159,-18.364,12.503,-3.516,1.563,1.954,17.582,14.847,17.192,-2.344,-10.159,8.205,-22.271,32.039,6.252,-10.159,6.642,-2.344
'[18:43:40.512 06/11/2076]',35.165,-18.755,-26.569,8.987,-1.172,10.940,-19.927,8.205,-16.801,-2.735,3.907,2.735,-13.284,29.304,-8.987,-19.145,8.596,-24.225,27.350,13.675,-10.549,14.066,-8.987
'[18:43:40.516 06/11/2076]',19.536,-10.940,-13.284,7.424,5.470,0.391,-19.145,16.020,-1.954,-4.689,4.689,-1.563,-8.205,27.741,6.642,-30.085,7.033,-25.397,14.066,7.033,-3.516,4.689,6.642
'[18:43:40.520 06/11/2076]',5.079,-3.516,-10.159,13.284,7.424,-5.470,-14.066,16.801,11.722,-14.066,5.861,21.099,12.894,12.503,9.768,-10.549,5.861,-25.006,10.940,10.159,0.000,-1.563,9.768
'[18:43:40.523 06/11/2076]',-7.424,-2.735,-1.172,10.159,1.563,-0.781,-8.987,6.642,8.596,-11.331,10.549,31.258,20.708,11.331,6.252,0.391,5.861,-22.662,1.954,21.099,-10.159,5.861,6.252
'[18:43:40.527 06/11/2076]',-12.894,0.781,-0.781,17.582,-9.377,2.344,-12.503,24.615,-5.470,-4.689,17.973,17.582,23.834,17.973,2.735,-19.927,3.126,-23.443,1.563,16.020,-6.642,12.503,2.735
'[18:43:40.531 06/11/2076]',-3.126,-7.424,6.252,24.615,-11.331,13.284,-18.755,37.118,-25.788,-1.172,16.410,14.457,0.391,18.755,12.894,-28.913,3.907,-21.880,-5.470,12.894,5.079,8.205,12.894
'[18:43:40.535 06/11/2076]',3.126,-15.238,10.159,21.490,-1.954,5.470,-8.596,25.006,-22.271,-4.689,9.377,21.490,-19.927,17.582,18.364,-13.284,3.907,-15.629,-9.377,20.708,5.079,0.000,18.364
'[18:43:40.539 06/11/2076]',1.563,-18.755,10.549,28.523,0.391,-18.364,1.954,38.681,-5.079,-8.596,0.000,26.960,-18.755,32.039,7.033,-8.596,-1.172,-14.457,-9.768,9.768,15.629,3.907,7.033
'[18:43:40.543 06/11/2076]',-8.987,-6.252,12.894,22.271,5.079,-30.085,-1.172,47.668,-2.344,-10.549,-3.516,14.847,-23.834,39.463,5.861,-23.834,-0.391,-18.755,-12.112,-8.205,32.430,2.735,5.861
'[18:43:40.547 06/11/2076]',-14.457,-4.298,1.954,16.020,-0.391,-26.960,-6.642,34.383,-6.252,-12.112,-2.344,14.847,-19.927,29.695,0.391,-17.192,-1.954,-16.801,-1.172,-2.344,12.894,6.252,0.391
'[18:43:40.551 06/11/2076]',-15.629,4.298,-8.596,17.973,0.391,-32.039,1.563,28.523,13.284,-6.252,8.205,8.596,20.708,16.410,-3.907,-9.377,-6.252,-12.503,9.377,-2.735,-0.781,8.205,-3.907
'[18:43:40.555 06/11/2076]',-10.159,-3.126,9.377,21.490,3.126,-9.377,-7.814,32.039,8.596,-6.252,19.536,3.126,14.847,14.847,8.987,-13.284,-6.642,-14.847,-8.596,2.735,-1.172,9.377,8.987
'[18:43:40.559 06/11/2076]',-16.801,-3.907,12.112,21.880,-4.298,1.172,-12.503,28.913,0.391,-9.377,23.443,13.675,-5.861,16.801,21.099,-4.298,-7.814,-12.503,-11.331,13.284,-10.159,7.033,21.099
'[18:43:40.563 06/11/2076]',-10.159,8.205,16.020,18.755,11.722,-6.252,-1.954,30.476,-6.252,-7.814,25.397,14.066,-26.569,25.006,31.648,-5.861,-8.987,-7.424,-15.238,13.284,-17.973,5.470,31.648
'[18:43:40.566 06/11/2076]',-1.172,13.284,10.159,21.880,23.053,-5.861,-6.642,33.602,-33.993,0.781,26.569,3.126,-44.542,43.370,16.801,-19.536,-10.159,-8.205,-9.377,4.689,-7.424,17.582,16.801
'[18:43:40.570 06/11/2076]',-5.079,7.814,9.377,19.145,32.039,-11.722,-14.066,26.178,-60.562,8.205,26.178,15.238,-62.906,32.039,25.397,-6.252,-9.768,-10.940,-8.596,12.503,-10.549,9.377,25.397
'[18:43:40.574 06/11/2076]',-8.987,6.642,14.066,10.549,32.039,-16.410,-7.033,15.238,-44.933,7.814,25.788,30.867,-48.059,22.662,29.695,14.847,-12.894,-7.424,-13.284,13.284,-14.847,7.033,29.695
'[18:43:40.578 06/11/2076]',-30.085,5.079,25.788,22.662,11.722,-11.722,-5.079,30.085,-4.689,1.563,29.695,8.987,-19.927,34.774,23.053,-1.954,-10.940,-3.516,-25.006,1.563,-0.391,19.145,23.053
'[18:43:40.582 06/11/2076]',-33.602,3.126,33.602,18.755,5.861,-6.252,-10.549,35.165,21.490,-12.894,30.085,-3.907,-17.192,28.523,38.291,-14.457,-10.159,1.172,-32.821,1.172,1.172,2.735,38.291
'[18:43:40.586 06/11/2076]',-14.066,1.563,34.774,19.927,17.582,0.781,-5.861,29.304,25.006,-9.377,26.569,16.410,-8.205,13.284,43.761,9.768,-11.331,13.284,-33.993,6.642,-5.470,-2.735,43.761
'[18:43:40.590 06/11/2076]',-11.722,7.814,22.271,26.178,15.238,1.172,0.781,27.741,15.238,-5.470,25.006,30.085,-3.907,18.364,22.662,28.523,-10.549,18.364,-21.490,0.000,-9.768,11.331,22.662
'[18:43:40.594 06/11/2076]',-5.079,5.079,14.847,21.099,16.801,-4.298,-8.987,33.211,-43.370,7.033,21.099,18.364,-38.681,7.424,23.834,10.940,-13.284,11.722,-14.066,-6.252,-12.112,6.252,23.834
'[18:43:40.598 06/11/2076]',10.940,10.549,5.470,19.927,21.880,-3.907,-7.814,39.072,-83.614,19.927,13.675,21.880,-78.926,10.940,36.728,3.516,-9.377,8.987,-4.689,-24.225,-14.457,10.159,36.728
'[18:43:40.602 06/11/2076]',-7.424,2.735,8.596,22.271,-1.563,-11.331,5.470,34.774,-71.893,21.099,8.596,32.430,-66.813,37.509,7.424,13.284,-2.344,7.814,-7.814,-28.913,-3.126,38.291,7.424
'[18:43:40.605 06/11/2076]',-14.457,-5.861,8.205,19.536,-11.722,-12.112,5.470,27.350,-62.125,25.397,8.205,16.801,-62.515,15.629,32.821,3.126,2.344,2.735,-7.424,-27.741,0.781,14.457,32.821
'[18:43:40.609 06/11/2076]',5.079,-3.907,20.317,4.298,15.238,-3.126,-9.768,23.443,-8.987,28.523,1.172,17.192,-32.039,18.364,46.105,5.470,1.954,1.563,-19.536,-23.443,-5.861,2.735,46.105
'[18:43:40.613 06/11/2076]',8.596,-11.331,24.615,2.344,18.755,2.344,-17.192,20.317,32.430,24.615,0.000,28.523,-2.344,19.927,43.370,24.615,1.954,5.861,-23.834,-8.987,-23.834,-1.172,43.370
'[18:43:40.617 06/11/2076]',9.377,-4.298,16.801,-0.391,12.112,4.298,-12.503,17.582,38.291,19.927,0.391,23.053,-3.126,22.662,37.118,25.397,-1.563,10.159,-16.020,-10.549,-37.509,-3.907,37.118
'[18:43:40.621 06/11/2076]',13.284,12.112,13.675,-15.238,2.735,16.801,-9.377,14.847,37.118,11.331,0.391,27.350,-14.066,39.463,25.006,26.178,0.781,11.722,-12.894,-22.662,-48.059,10.549,25.006
'[18:43:40.625 06/11/2076]',22.662,8.987,7.033,-8.596,-19.145,26.178,1.954,21.490,25.397,-0.391,3.907,45.324,-17.582,40.635,14.457,37.118,7.814,14.457,-6.252,-25.006,-51.966,18.364,14.457
'[18:43:40.629 06/11/2076]',6.642,12.503,-3.516,-1.563,-52.357,38.291,5.079,21.490,-21.490,-5.470,11.331,36.337,-42.198,34.383,3.516,24.225,9.768,16.801,4.298,-28.523,-46.496,25.397,3.516
'[18:43:40.633 06/11/2076]',10.549,16.410,-5.079,-3.516,-34.383,29.695,1.172,21.490,-57.436,-5.079,14.066,22.662,-56.654,8.596,13.675,7.814,12.112,14.847,5.861,-19.145,-44.933,8.987,13.675
'[18:43:40.637 06/11/2076]',32.430,1.172,-1.172,-2.735,-3.907,19.536,-9.768,22.662,-50.403,-1.172,16.020,40.635,-20.317,-23.834,26.178,22.271,9.377,9.768,1.954,-2.344,-50.794,-8.596,26.178
'[18:43:40.641 06/11/2076]',41.026,-4.689,8.205,-5.861,16.020,1.954,-4.689,25.006,-78.144,3.516,19.145,60.562,-35.165,-21.099,21.880,39.463,4.689,8.987,-7.424,2.344,-51.184,-10.549,21.880
'[18:43:40.645 06/11/2076]',51.184,5.079,13.284,-14.066,44.542,-13.284,-4.298,29.304,-33.211,-9.377,19.927,39.072,-22.662,6.252,19.145,12.503,4.689,6.642,-12.503,-5.861,-50.794,-5.079,19.145
'[18:43:40.648 06/11/2076]',60.171,5.861,13.284,-16.410,58.217,-13.284,-12.503,31.648,24.615,-27.350,21.490,30.476,4.689,26.178,18.364,0.781,4.689,7.033,-12.503,-10.549,-46.105,-6.252,18.364
'[18:43:40.652 06/11/2076]',60.171,-1.172,11.722,-15.629,52.357,-17.582,-3.516,23.053,44.151,-33.602,23.053,48.449,17.973,30.085,8.596,25.006,4.298,14.457,-10.940,-0.781,-50.012,-5.470,8.596
'[18:43:40.656 06/11/2076]',58.217,-5.079,7.424,-8.596,48.840,-13.284,-1.954,19.145,34.383,-25.397,21.099,48.059,14.847,39.072,-5.470,30.085,6.252,17.973,-6.642,2.344,-38.291,3.516,-5.470
'[18:43:40.660 06/11/2076]',41.807,-3.126,2.344,-8.987,10.940,0.391,-7.424,26.960,13.284,-19.536,17.582,32.039,4.298,32.821,-6.252,12.503,6.642,13.675,-1.563,-2.344,-24.615,2.735,-6.252
'[18:43:40.664 06/11/2076]',21.490,-7.424,-0.391,-7.424,-23.443,-0.781,-4.298,35.556,-18.364,-10.549,8.596,28.913,-15.629,26.960,-3.126,0.000,8.987,14.066,1.172,-12.503,-9.377,4.689,-3.126
'[18:43:40.668 06/11/2076]',7.033,-8.596,4.298,-4.689,-52.747,8.205,11.722,31.258,-66.813,2.344,11.331,25.788,-45.324,34.774,-19.145,2.735,12.503,20.708,-3.516,-10.549,-0.391,21.099,-19.145
'[18:43:40.672 06/11/2076]',-0.391,2.344,-8.596,-9.768,-67.595,14.847,15.629,19.536,-26.178,-2.735,12.894,10.940,-3.907,9.768,-8.596,-1.563,12.894,18.755,9.377,-16.410,1.563,3.126,-8.596
'[18:43:40.676 06/11/2076]',3.126,-5.470,-11.722,-10.159,-47.668,8.205,-1.563,15.238,27.350,-15.238,14.066,17.973,31.648,-1.954,8.596,6.252,7.033,16.410,12.503,0.000,-11.722,-9.377,8.596
'[18:43:40.680 06/11/2076]',25.006,0.391,-11.331,-14.847,-9.768,-4.689,1.563,11.722,40.635,-11.331,17.973,18.364,37.509,7.033,3.126,17.192,1.172,23.443,12.112,8.205,-29.304,-7.424,3.126
'[18:43:40.684 06/11/2076]',48.059,-9.377,-0.781,-7.424,19.145,-4.689,1.172,14.066,33.602,-6.252,23.443,6.252,33.602,10.159,4.298,8.205,-4.689,28.523,1.563,21.490,-23.834,-9.768,4.298
'[18:43:40.688 06/11/2076]',56.264,-11.331,5.470,-10.549,26.569,1.172,-1.172,12.894,14.066,0.781,29.304,9.377,24.225,20.708,6.252,2.735,-8.596,31.648,-4.689,21.880,-14.847,-1.563,6.252
'[18:43:40.691 06/11/2076]',36.337,-6.642,12.894,-2.735,3.516,3.126,11.331,21.490,-37.509,18.755,32.821,22.662,-6.252,24.225,4.298,13.675,-7.033,40.244,-12.112,15.629,-12.503,6.252,4.298
'[18:43:40.695 06/11/2076]',31.648,-8.205,17.192,4.298,-13.284,17.973,16.020,24.225,-66.422,27.741,37.900,7.033,-23.834,24.615,10.549,-3.516,-2.735,45.714,-16.410,13.675,-1.563,3.907,10.549
'[18:43:40.699 06/11/2076]',14.457,-1.954,16.410,9.377,-25.006,17.973,13.675,32.821,-28.132,24.615,37.509,-1.954,8.205,25.006,20.708,-22.271,-0.781,45.324,-15.629,2.735,8.987,0.391,20.708
'[18:43:40.703 06/11/2076]',0.391,17.192,16.801,7.424,-22.662,8.987,21.099,36.337,4.298,6.642,32.430,21.490,16.410,35.556,12.894,0.781,-3.907,45.714,-16.020,-0.391,3.126,6.642,12.894
'[18:43:40.707 06/11/2076]',12.503,24.225,18.755,7.814,8.987,0.391,25.788,30.476,27.350,0.781,28.913,32.430,29.695,37.509,4.298,18.755,-9.377,44.151,-17.973,7.424,3.126,8.205,4.298
'[18:43:40.711 06/11/2076]',18.755,32.039,16.410,6.252,30.085,-5.861,17.582,33.602,35.165,-11.722,28.523,10.940,19.145,46.105,0.391,-1.954,-15.238,38.681,-15.629,5.079,7.424,6.642,0.391
'[18:43:40.715 06/11/2076]',12.503,46.886,2.735,2.344,26.960,-7.814,13.675,34.383,25.788,-13.284,22.662,5.861,2.344,54.701,-9.377,-5.079,-17.582,36.337,-1.954,-3.907,-5.079,20.317,-9.377
'[18:43:40.719 06/11/2076]',-3.907,32.821,21.490,14.847,5.470,4.689,17.973,37.900,23.053,-4.298,20.708,18.364,14.066,36.728,-3.126,10.159,-10.159,38.291,-20.708,3.126,4.298,14.457,-3.126
'[18:43:40.723 06/11/2076]',-22.662,24.225,19.927,16.020,-23.443,8.596,24.225,29.304,12.503,2.344,16.020,11.331,20.708,3.516,14.066,5.079,-3.516,32.821,-19.145,2.735,13.675,-5.470,14.066
'[18:43:40.727 06/11/2076]',-47.668,26.569,21.490,24.225,-57.827,10.159,18.755,54.701,-22.271,16.410,3.907,2.735,-6.252,3.516,21.099,-17.192,0.000,23.834,-20.708,-19.536,29.695,0.391,21.099
'[18:43:40.730 06/11/2076]',-39.463,17.582,33.993,19.145,-55.482,10.549,25.788,51.966,-37.509,19.536,0.781,7.033,-23.053,19.927,8.987,-15.629,3.907,23.053,-33.211,-16.410,37.509,14.066,8.987
'[18:43:40.734 06/11/2076]',-17.192,20.317,21.490,11.722,-29.304,6.642,31.648,29.304,-37.118,16.020,1.172,-4.689,-27.350,21.880,-1.563,-16.410,1.563,23.443,-20.708,-7.033,30.476,10.549,-1.563
'[18:43:40.738 06/11/2076]',9.377,23.053,23.053,12.112,14.457,3.126,21.490,30.085,-39.072,6.252,0.781,-6.642,-47.668,27.741,-10.159,-7.033,-4.298,16.801,-22.271,-0.781,14.457,12.894,-10.159
'[18:43:40.742 06/11/2076]',19.145,19.927,23.834,8.596,21.880,4.689,16.410,30.867,19.927,-0.781,1.563,10.549,2.344,41.026,-16.801,5.861,-6.642,14.457,-23.053,1.954,7.424,22.271,-16.801
'[18:43:40.746 06/11/2076]',0.391,21.880,21.099,10.549,9.768,3.516,14.457,26.960,44.542,-7.033,3.907,12.503,36.728,19.145,-12.894,10.549,-5.470,13.284,-20.317,8.596,4.689,5.470,-12.894
'[18:43:40.750 06/11/2076]',-5.079,28.132,13.284,14.066,3.907,5.861,11.331,30.476,8.987,5.470,6.252,6.252,20.317,10.549,-3.907,1.172,-1.563,12.894,-12.503,3.126,-2.344,2.735,-3.907
'[18:43:40.754 06/11/2076]',4.298,32.039,5.470,16.410,13.675,3.126,11.331,31.648,-7.814,11.722,6.642,18.364,10.159,18.755,-7.814,7.814,2.344,10.549,-4.689,-7.033,1.954,9.768,-7.814
'[18:43:40.758 06/11/2076]',25.788,28.132,5.079,11.722,32.430,2.344,17.192,20.708,-24.615,10.549,11.331,29.695,5.079,23.053,-23.834,22.662,6.252,10.159,-4.298,-1.172,-3.516,22.662,-23.834
'[18:43:40.762 06/11/2076]',28.913,19.536,13.675,10.159,24.225,11.331,15.238,23.053,-30.085,2.735,11.331,13.675,-16.801,14.847,-5.079,4.689,7.424,9.377,-12.894,-2.344,0.391,3.907,-5.079
'[18:43:40.766 06/11/2076]',31.258,14.457,19.536,10.549,13.675,22.271,10.159,32.430,19.536,0.391,7.424,0.781,12.112,33.602,-5.470,-10.549,10.940,5.861,-18.755,-6.642,3.907,6.642,-5.470
'[18:43:40.770 06/11/2076]',12.503,20.317,25.397,0.391,-5.470,22.662,19.927,23.443,38.291,5.079,7.033,20.708,36.337,44.933,-20.317,11.331,15.629,8.987,-24.615,-4.689,3.907,16.801,-20.317
'[18:43:40.773 06/11/2076]',10.159,16.020,27.741,1.563,11.331,19.927,13.284,12.503,25.006,8.205,10.549,26.569,35.556,18.755,-4.298,21.099,19.145,7.033,-26.960,8.987,0.391,0.781,-4.298
'[18:43:40.777 06/11/2076]',22.271,22.271,14.066,2.344,28.913,15.629,1.563,16.020,15.629,10.549,10.549,13.284,23.053,31.258,-3.126,0.781,18.364,0.000,-13.284,-0.781,-2.735,7.814,-3.126
'[18:43:40.781 06/11/2076]',20.708,32.039,9.768,1.563,36.728,10.940,-5.079,24.615,17.192,7.033,7.033,14.457,10.549,40.244,-3.516,-0.781,19.145,-2.344,-8.987,-17.192,-1.954,14.847,-3.516
'[18:43:40.785 06/11/2076]',33.211,14.066,12.894,-2.735,39.853,9.768,-1.172,10.159,6.642,7.033,7.033,24.615,6.642,13.284,13.675,10.549,19.536,-3.126,-12.112,-9.377,-0.391,-7.814,13.675
'[18:43:40.789 06/11/2076]',19.145,17.973,6.642,-5.470,2.344,16.410,4.298,16.410,9.377,8.596,-0.391,34.383,9.377,19.145,10.159,13.284,19.145,-6.252,-5.861,-32.039,10.159,-5.861,10.159
'[18:43:40.793 06/11/2076]',-21.880,26.178,5.861,-10.940,-22.271,9.768,-7.033,20.317,0.781,12.112,-3.907,20.708,-4.298,26.178,14.457,-6.642,18.755,-10.549,-5.079,-37.900,12.112,-3.516,14.457
'[18:43:40.797 06/11/2076]',-10.940,23.443,6.642,-19.927,2.344,4.689,-12.112,4.298,-41.026,17.582,-5.470,12.503,-26.178,-0.391,17.582,-7.033,16.801,-8.596,-5.861,-18.755,2.344,-16.801,17.582
'[18:43:40.801 06/11/2076]',-21.490,19.536,3.907,-16.020,-5.079,7.033,-12.894,-2.735,-36.728,12.894,-3.126,0.781,-14.457,-14.457,14.847,-10.549,7.033,-8.205,-3.126,-3.126,-9.377,-17.192,14.847
'[18:43:40.805 06/11/2076]',-17.192,28.523,-5.861,-10.549,4.298,10.549,-19.536,-0.781,1.172,6.252,-5.079,-5.470,1.954,-5.861,14.066,-13.284,4.298,-14.066,6.642,-8.596,-17.973,-9.377,14.066
'[18:43:40.809 06/11/2076]',32.039,21.099,-2.344,-11.331,41.807,14.457,-17.582,1.954,18.364,-1.172,-8.987,7.424,8.987,-9.377,12.112,4.298,0.781,-18.364,3.126,-1.954,-27.741,-10.940,12.112
'[18:43:40.813 06/11/2076]',55.873,13.284,1.954,-11.331,59.389,14.066,-14.457,1.563,38.681,-5.470,-7.814,4.298,25.006,-12.503,15.238,1.172,-2.735,-20.708,-1.172,-0.781,-26.178,-12.894,15.238
'[18:43:40.816 06/11/2076]',51.184,26.960,-15.238,-10.159,61.734,0.391,-16.410,8.987,43.370,-12.112,-10.159,-1.172,9.377,-2.735,23.053,-10.549,-2.735,-25.788,16.020,-14.847,-29.304,-17.582,23.053
'[18:43:40.820 06/11/2076]',70.720,17.192,-11.331,-9.377,93.773,-9.377,-25.788,8.987,22.271,-12.503,-9.768,11.331,-7.033,7.814,6.642,3.126,-4.298,-31.258,12.112,-3.516,-26.569,-9.768,6.642
'[18:43:40.824 06/11/2076]',75.018,5.470,-4.689,-10.549,98.462,-13.675,-21.880,4.298,9.377,-7.814,-8.205,25.397,-0.781,4.298,-5.079,20.317,-6.642,-30.085,5.470,8.205,-23.834,-4.689,-5.079
'[18:43:40.828 06/11/2076]',51.184,-3.516,-15.629,-4.298,62.125,-17.192,-24.615,8.596,35.556,-13.675,-8.205,3.907,19.536,13.675,-10.549,-5.079,-8.987,-34.774,16.410,11.722,-29.695,1.563,-10.549
'[18:43:40.832 06/11/2076]',37.900,-11.722,-8.205,-2.344,31.258,-10.940,-23.053,18.755,44.933,-14.457,-6.642,-7.033,28.913,32.821,-23.443,-21.880,-8.205,-32.039,8.987,6.252,-26.569,24.225,-23.443
'[18:43:40.836 06/11/2076]',33.211,-28.132,-14.457,-3.516,-3.516,-2.344,-9.768,3.907,43.761,-19.927,-5.079,3.516,40.244,-8.205,-6.252,-3.126,-9.377,-24.615,15.238,15.238,-26.569,-2.735,-6.252
'[18:43:40.840 06/11/2076]',4.298,-21.880,-14.847,-4.689,-23.053,-6.642,-0.391,-6.642,42.979,-22.662,-2.735,9.377,37.118,-26.178,9.377,4.689,-10.159,-18.364,15.629,15.238,-30.476,-14.066,9.377
'[18:43:40.844 06/11/2076]',-0.391,-5.079,-21.099,7.424,-10.549,-12.894,-6.252,10.549,14.457,-12.503,-3.516,-2.735,-1.172,-23.053,35.165,-15.238,-8.205,-19.927,21.880,0.391,-23.053,-23.443,35.165
'[18:43:40.848 06/11/2076]',23.834,-3.907,-12.112,6.252,25.006,-13.675,-8.205,12.112,1.954,-7.814,-2.735,-3.126,-25.006,-7.814,39.072,-19.536,-6.252,-14.457,12.894,-0.391,-11.722,-20.317,39.072
'[18:43:40.852 06/11/2076]',24.615,0.000,-8.596,21.490,36.337,-21.099,8.205,13.284,1.172,-0.781,-2.344,11.722,-26.178,21.490,23.443,-8.987,-3.516,-5.861,9.377,6.642,-8.596,5.470,23.443
'[18:43:40.855 06/11/2076]',11.331,1.563,-11.331,22.662,23.053,-23.443,12.894,12.112,15.238,1.563,0.000,-4.298,-18.364,42.198,16.801,-28.913,-1.172,-7.424,12.112,3.516,-0.781,19.927,16.801
'[18:43:40.859 06/11/2076]',5.861,-10.159,-4.689,6.252,5.861,-16.020,6.642,1.563,19.145,-0.781,1.954,-10.940,-7.033,44.542,5.079,-34.383,-2.735,-6.252,5.470,8.205,1.172,28.913,5.079
'[18:43:40.863 06/11/2076]',5.470,-15.629,-14.066,11.331,-0.391,-14.847,5.470,-1.954,1.172,-4.689,10.549,-4.298,0.391,41.807,-14.847,-24.225,-2.735,-1.563,14.847,16.020,-5.079,42.589,-14.847
'[18:43:40.867 06/11/2076]',1.172,-28.913,-15.238,11.331,-3.516,-12.894,-1.172,-12.112,2.344,1.954,12.894,-16.410,15.238,-7.814,19.145,-25.006,-1.172,-3.126,16.020,25.397,-14.847,2.735,19.145
'[18:43:40.871 06/11/2076]',14.847,-35.165,3.516,15.629,19.536,-7.033,-10.549,-1.172,10.549,7.033,17.582,-12.112,21.099,-19.145,35.165,-12.894,3.907,-0.781,-2.735,23.053,-10.940,-10.940,35.165
'[18:43:40.875 06/11/2076]',16.801,-29.304,-3.126,22.662,21.490,0.781,-9.377,-5.470,23.443,3.516,19.145,5.470,20.317,-2.735,28.913,6.252,7.814,-0.391,3.907,30.867,-8.987,-10.159,28.913
'[18:43:40.879 06/11/2076]',6.252,-17.973,-7.424,25.006,7.424,8.596,-0.391,-9.377,8.987,11.331,21.880,-5.470,-6.252,17.973,28.132,-1.954,15.238,2.735,8.205,30.867,-13.284,-8.987,28.132
'[18:43:40.883 06/11/2076]',8.987,-8.987,-23.053,23.834,5.470,8.205,0.781,-13.675,-5.861,19.927,25.397,-22.271,-18.755,34.774,21.099,-19.536,22.662,3.907,23.834,22.271,-12.894,-1.563,21.099
'[18:43:40.887 06/11/2076]',3.907,-12.894,-30.476,15.629,-10.549,10.549,3.126,-26.178,-26.569,27.741,25.397,-5.861,-14.847,21.490,18.755,-5.079,25.006,3.516,31.258,23.053,-8.596,-6.642,18.755
'[18:43:40.891 06/11/2076]',5.861,-7.814,-19.145,11.331,-6.252,3.126,14.066,-20.708,-84.396,44.542,30.476,10.159,-41.416,12.112,19.927,11.722,32.039,8.205,19.927,16.801,-18.755,0.781,19.927
'[18:43:40.895 06/11/2076]',3.907,-7.033,-13.284,8.987,-8.205,1.172,10.159,-9.768,-37.118,34.774,30.476,-13.675,-14.457,28.523,8.987,-8.205,35.946,8.596,14.066,2.735,-14.457,10.159,8.987
'[18:43:40.898 06/11/2076]',7.033,-12.503,-5.079,4.298,-3.516,3.516,3.516,-8.596,12.503,20.317,26.178,-24.615,12.894,36.728,3.516,-17.973,33.993,7.033,5.861,6.642,-4.298,8.596,3.516
'[18:43:40.902 06/11/2076]',21.099,-13.284,8.987,4.298,15.629,14.457,4.689,-12.894,34.774,17.582,22.271,-7.814,23.443,45.714,-5.861,4.298,34.383,10.159,-8.205,21.880,-11.722,19.145,-5.861
'[18:43:40.906 06/11/2076]',27.350,-8.205,-3.126,6.642,20.708,13.284,10.159,-20.708,50.794,19.145,17.973,-10.549,42.979,77.363,-44.933,2.344,35.946,3.516,3.907,23.834,-9.377,50.794,-44.933
'[18:43:40.910 06/11/2076]',21.099,-18.755,-10.159,12.894,1.954,16.410,0.391,-12.503,13.675,35.946,15.238,-21.099,30.085,26.569,6.252,-19.536,36.337,-7.033,10.940,21.880,0.391,1.954,6.252
'[18:43:40.914 06/11/2076]',3.907,-8.596,16.020,10.159,-17.192,17.582,6.642,15.629,-50.012,64.860,11.331,-18.364,-17.582,27.350,29.695,-30.867,41.807,-1.954,-15.238,3.516,6.252,-2.735,29.695
'[18:43:40.918 06/11/2076]',-0.781,3.126,10.549,8.205,-22.662,12.112,24.615,7.424,-63.687,71.502,19.145,-15.238,-31.648,48.449,21.099,-26.569,49.621,4.298,-9.768,0.000,1.563,8.596,21.099
'[18:43:40.922 06/11/2076]',2.735,0.781,4.298,4.689,-32.039,16.020,28.132,1.954,-39.463,67.985,24.615,-23.443,-26.569,54.701,32.821,-31.258,54.310,6.252,-3.516,-4.689,0.000,0.391,32.821
'[18:43:40.926 06/11/2076]',15.238,0.391,15.238,1.954,-14.457,23.053,19.536,5.470,-20.317,55.482,23.834,-8.205,-24.615,70.720,20.708,-15.238,53.529,6.252,-14.457,3.907,-13.675,20.317,20.708
'[18:43:40.930 06/11/2076]',27.741,10.549,5.079,-1.172,-1.172,28.913,19.536,-4.298,35.946,42.979,20.317,-6.252,11.722,75.800,15.238,-8.987,56.654,5.079,-4.298,12.894,-30.085,20.708,15.238
'[18:43:40.934 06/11/2076]',27.350,25.788,-5.470,-0.391,3.516,26.178,20.708,-3.126,57.827,36.337,16.801,-16.020,23.443,71.893,17.582,-16.801,59.780,2.344,6.252,9.377,-33.993,14.066,17.582
'[18:43:40.938 06/11/2076]',28.132,27.350,3.516,-0.781,3.126,32.821,19.145,3.907,57.827,38.291,11.722,-7.814,30.085,63.687,22.271,-14.066,60.562,-1.563,-2.735,12.112,-27.741,10.159,22.271
'[18:43:40.941 06/11/2076]',30.476,28.523,3.907,-2.735,2.735,37.509,21.880,-1.954,51.966,45.714,12.503,5.861,35.165,61.734,20.317,-0.391,65.641,-0.781,-3.126,14.066,-32.430,17.192,20.317
'[18:43:40.945 06/11/2076]',26.569,32.821,1.172,-7.424,-1.954,35.946,27.350,-8.596,12.894,52.357,20.708,-2.735,9.768,73.065,19.536,-17.973,68.767,4.298,-0.391,7.033,-26.178,30.867,19.536
'[18:43:40.949 06/11/2076]',26.960,21.880,16.801,-0.781,-8.596,42.198,25.397,7.424,-13.675,57.436,26.960,-8.987,-3.907,81.661,12.894,-28.913,69.158,9.377,-16.020,8.987,-28.132,49.621,12.894
'[18:43:40.953 06/11/2076]',14.457,12.894,23.443,2.344,-30.867,51.966,26.178,8.205,-32.430,63.297,27.350,14.066,-6.252,60.562,23.443,-5.861,70.720,12.503,-22.662,9.768,-23.443,38.681,23.443
'[18:43:40.957 06/11/2076]',27.350,15.629,17.192,4.689,-15.629,46.496,32.039,3.516,-49.621,58.217,25.397,26.569,-16.801,39.463,30.867,7.814,68.376,17.192,-16.410,9.377,-18.364,24.615,30.867
'[18:43:40.961 06/11/2076]',43.761,23.443,14.457,7.033,11.722,37.509,26.569,13.284,9.377,49.231,23.053,3.516,17.973,36.337,45.324,-12.503,60.952,16.020,-13.675,5.079,-17.973,8.596,45.324
'[18:43:40.965 06/11/2076]',49.621,10.549,12.503,12.894,17.192,39.072,10.159,19.536,36.337,41.026,19.145,-4.298,17.192,47.668,51.966,-23.834,51.184,19.145,-11.722,1.954,-11.331,4.689,51.966
'[18:43:40.969 06/11/2076]',40.635,11.722,19.536,14.847,20.708,31.258,18.364,16.020,45.714,37.509,19.536,12.503,23.443,59.780,43.370,-9.768,48.840,29.304,-18.755,4.689,-6.642,17.973,43.370
'[18:43:40.973 06/11/2076]',11.331,8.987,36.728,17.582,3.516,30.085,25.006,15.629,65.250,36.337,23.443,11.331,35.165,80.098,36.728,-13.675,49.231,33.993,-35.946,12.503,2.735,30.085,36.728
'[18:43:40.977 06/11/2076]',-13.675,10.159,48.840,28.132,-30.476,37.509,19.145,47.668,40.244,38.681,18.755,8.987,5.470,94.164,39.072,-31.648,50.794,31.258,-48.059,-2.735,17.582,40.635,39.072
'[18:43:40.980 06/11/2076]',-11.722,12.112,48.449,24.225,-40.635,44.542,28.913,40.635,22.662,34.383,17.973,26.569,7.424,89.084,22.662,-16.410,51.966,31.648,-47.668,-9.377,27.350,57.827,22.662
'[18:43:40.984 06/11/2076]',5.079,17.192,50.012,22.271,-16.801,46.886,39.463,25.788,22.662,39.072,25.006,14.847,20.317,54.310,42.979,-14.847,50.403,34.383,-49.231,-3.907,27.350,28.523,42.979
'[18:43:40.988 06/11/2076]',37.900,10.159,34.774,24.615,7.424,47.668,32.430,21.099,16.410,33.211,24.615,10.159,8.987,38.291,47.668,-8.596,33.211,30.085,-33.993,-3.126,17.582,14.847,47.668
'[18:43:40.992 06/11/2076]',22.662,8.205,25.397,22.271,-5.079,39.072,27.741,17.192,-10.549,28.132,24.225,23.053,-7.424,30.867,37.509,4.298,23.834,28.913,-24.615,-3.907,14.847,17.192,37.509
'[18:43:40.996 06/11/2076]',5.470,-0.781,37.118,23.834,-3.907,38.291,19.145,12.894,23.443,18.364,23.443,16.020,13.675,30.867,36.728,1.563,23.053,29.304,-36.337,17.582,12.112,9.377,36.728
'[18:43:41.000 06/11/2076]',1.563,1.172,24.615,24.615,-1.954,30.085,14.066,11.722,15.629,8.205,19.145,1.172,-1.954,30.085,30.085,-12.112,19.145,28.523,-23.834,23.053,4.689,9.768,30.085
'[18:43:41.004 06/11/2076]',-7.033,6.642,31.258,17.973,-10.940,30.085,12.894,17.582,33.602,3.126,15.629,9.377,12.112,20.708,32.430,-2.735,17.973,28.132,-30.476,20.317,0.391,10.549,32.430
'[18:43:41.008 06/11/2076]',19.145,1.954,28.132,14.457,22.662,26.960,10.940,3.907,54.701,4.298,14.847,16.801,30.867,9.768,35.556,16.020,16.801,25.788,-27.350,28.523,-11.331,5.861,35.556
'[18:43:41.012 06/11/2076]',43.370,4.298,26.569,11.331,54.310,14.847,12.894,4.689,47.277,11.722,16.020,-4.689,23.834,7.033,38.291,1.563,9.768,25.788,-25.788,20.317,-12.112,0.000,38.291
'[18:43:41.016 06/11/2076]',34.774,8.596,33.993,8.596,53.138,8.596,9.768,15.629,32.039,19.536,15.629,-12.503,7.814,16.020,39.463,-7.033,7.033,25.788,-33.211,5.470,-5.470,2.344,39.463
'[18:43:41.020 06/11/2076]',3.907,7.814,30.867,17.192,17.192,15.629,14.847,12.894,20.708,26.960,16.020,7.814,1.172,28.913,28.523,13.675,10.940,27.741,-30.085,4.298,-3.907,16.410,28.523
'[18:43:41.023 06/11/2076]',15.238,12.112,38.291,11.331,29.695,20.708,23.053,4.298,32.039,25.788,15.238,14.457,12.894,24.615,20.708,30.085,10.159,30.476,-37.509,2.735,-5.861,17.973,20.708
'[18:43:41.027 06/11/2076]',9.377,16.410,41.026,12.894,28.132,19.536,15.629,17.192,36.728,13.284,12.894,1.563,7.814,37.509,14.457,5.861,5.470,23.443,-40.244,-7.424,2.735,33.602,14.457
'[18:43:41.031 06/11/2076]',6.642,14.457,29.304,15.238,19.145,21.099,7.033,19.145,19.145,7.424,5.470,-0.391,-7.814,32.430,11.331,-3.126,2.344,16.020,-28.523,-16.020,16.020,31.648,11.331
'[18:43:41.035 06/11/2076]',17.192,7.814,39.072,8.596,35.165,16.801,11.722,8.987,34.774,4.298,1.563,4.689,23.834,-1.172,17.192,6.642,0.391,12.112,-38.291,-9.377,26.960,9.768,17.192
'[18:43:41.039 06/11/2076]',4.298,7.033,46.886,16.020,41.026,3.516,13.675,16.020,35.946,0.781,-4.298,12.894,23.834,-5.470,20.317,7.424,0.391,3.516,-46.105,-12.503,52.747,1.954,20.317
'[18:43:41.043 06/11/2076]',-2.344,9.377,38.681,13.675,32.821,4.689,2.735,18.364,13.284,7.814,-7.814,6.252,5.079,-2.735,24.615,-6.252,4.298,-0.781,-37.900,-18.364,56.264,-2.344,24.615
'[18:43:41.047 06/11/2076]',1.563,17.192,52.747,-0.781,31.258,16.410,12.112,9.768,31.258,5.861,2.735,2.344,8.596,7.033,32.430,-5.079,8.596,5.861,-51.966,-18.755,31.258,7.424,32.430
'[18:43:41.051 06/11/2076]',8.596,23.834,43.761,1.172,42.979,19.927,13.675,0.391,44.542,4.689,10.940,-0.781,13.675,13.284,32.039,1.172,5.079,13.675,-42.979,-12.112,1.563,14.066,32.039
'[18:43:41.055 06/11/2076]',15.238,21.490,33.993,-3.126,44.933,19.536,8.205,-5.470,32.821,1.954,13.675,-7.424,0.391,11.331,32.821,-1.954,0.781,13.284,-33.211,-8.205,-11.722,8.596,32.821
'[18:43:41.059 06/11/2076]',19.145,15.629,33.993,-10.549,45.714,17.192,5.079,-9.377,28.132,-4.689,12.503,0.391,-9.768,9.768,26.178,10.159,-3.516,10.940,-33.211,-2.344,-16.801,3.516,26.178
'[18:43:41.063 06/11/2076]',7.033,18.755,31.258,-13.675,34.774,10.159,8.205,-10.940,14.847,-6.642,9.768,-8.205,-16.020,12.503,11.722,1.563,-8.205,12.112,-30.476,-3.126,-8.596,1.954,11.722
'[18:43:41.066 06/11/2076]',9.768,20.317,30.476,-18.364,37.118,1.954,8.596,-5.470,-15.629,-1.954,3.907,-23.834,-34.383,11.722,4.298,-18.755,-10.940,9.377,-29.695,-8.596,-4.689,3.126,4.298
'[18:43:41.070 06/11/2076]',26.960,17.192,33.211,-25.788,40.635,5.079,10.940,-4.298,3.907,-5.079,3.907,-11.331,-8.987,15.629,-5.079,-9.768,-12.503,9.768,-32.430,-11.331,-6.642,13.675,-5.079
'[18:43:41.074 06/11/2076]',19.927,22.271,30.085,-25.788,26.178,3.907,22.662,-5.470,30.085,-5.470,5.861,3.516,21.880,22.271,-15.238,5.861,-15.238,12.112,-29.304,-15.238,-14.066,27.741,-15.238
'[18:43:41.078 06/11/2076]',21.490,18.755,14.457,-20.708,23.053,-3.126,16.020,-0.391,18.364,-5.861,4.298,-19.145,6.642,5.470,2.735,-17.582,-17.973,7.814,-13.675,-16.020,-25.006,9.768,2.735
'[18:43:41.082 06/11/2076]',23.834,12.503,10.549,-23.053,28.523,-10.159,4.689,1.172,3.907,-4.689,-0.781,-34.774,-10.940,-1.563,8.987,-33.602,-21.880,2.735,-9.768,-14.847,-20.317,-2.344,8.987
'[18:43:41.086 06/11/2076]',12.503,7.033,7.814,-23.834,21.099,-12.503,5.861,-10.159,-15.238,-4.298,-1.172,-19.927,-18.364,-10.940,-0.391,-11.722,-23.053,2.735,-7.033,0.391,-25.788,-6.642,-0.391
'[18:43:41.090 06/11/2076]',7.814,6.252,7.424,-27.741,21.880,-16.020,7.424,-19.145,-52.747,2.344,-1.954,-13.284,-28.913,-33.211,-4.689,0.781,-27.350,0.781,-6.642,4.298,-32.039,-9.768,-4.689
'[18:43:41.094 06/11/2076]',25.006,0.000,22.662,-21.880,32.821,-11.331,0.391,4.298,-29.695,-4.689,-3.907,-16.801,-14.066,-34.774,4.689,-11.722,-31.648,-1.954,-21.880,-4.298,-26.569,-9.377,4.689
'[18:43:41.098 06/11/2076]',34.774,-8.596,24.225,-21.490,27.741,-11.722,3.516,9.768,9.768,-14.066,-7.814,-10.940,8.987,-22.271,2.735,-12.894,-34.774,0.391,-23.443,-12.112,-19.927,-2.344,2.735
'[18:43:41.102 06/11/2076]',57.045,-12.503,13.675,-9.377,50.012,-26.960,18.755,6.252,47.277,-30.476,-17.192,0.000,17.973,-10.940,-4.689,-3.126,-38.291,3.516,-12.894,-17.192,-14.066,1.563,-4.689
'[18:43:41.105 06/11/2076]',59.780,-14.847,6.642,-7.033,49.621,-29.304,15.238,8.205,66.813,-39.072,-21.099,-12.503,17.192,-3.516,1.172,-21.490,-42.589,3.126,-5.861,-21.880,-9.377,-3.516,1.172
'[18:43:41.109 06/11/2076]',36.337,-7.814,-5.079,-15.629,37.509,-33.602,3.907,-0.781,57.436,-41.416,-23.053,-18.364,0.781,-0.391,3.516,-31.258,-46.886,-0.781,5.861,-14.457,-9.768,-10.159,3.516
'[18:43:41.113 06/11/2076]',22.662,2.344,-19.536,-15.629,27.350,-27.741,-0.391,-9.377,35.946,-44.542,-19.536,-10.549,-11.331,-2.344,-10.549,-14.847,-51.184,0.391,20.317,-3.516,-29.695,-7.033,-10.549
'[18:43:41.117 06/11/2076]',-5.470,1.172,-20.317,-13.675,5.079,-21.880,-8.987,-12.112,11.722,-40.635,-14.066,-18.364,-21.099,-1.954,-16.801,-20.708,-54.310,0.000,21.099,7.033,-33.211,-2.344,-16.801
'[18:43:41.121 06/11/2076]',3.126,-7.033,-19.536,-21.099,9.377,-20.708,-17.192,-16.410,-4.689,-38.681,-8.987,-16.020,-23.834,-10.549,-16.410,-17.582,-58.217,-4.298,20.317,11.331,-35.946,-0.781,-16.410
'[18:43:41.125 06/11/2076]',23.053,-17.973,-18.364,-20.708,21.490,-23.053,-12.112,-20.708,-6.642,-37.118,-9.768,3.126,-12.112,-5.079,-35.165,1.563,-61.343,-3.126,19.145,11.331,-30.867,12.894,-35.165
'[18:43:41.129 06/11/2076]',17.192,-12.894,-19.536,-19.145,27.741,-28.913,-10.940,-23.834,-20.317,-33.993,-10.159,-9.377,-19.145,-13.675,-31.258,-9.768,-59.780,-1.563,20.317,9.768,-25.788,5.861,-31.258
'[18:43:41.133 06/11/2076]',10.940,-12.894,-16.410,-25.006,23.443,-26.960,-17.192,-23.834,-42.198,-22.662,-10.549,-27.350,-27.350,-42.979,-5.470,-26.960,-55.873,-0.391,17.192,5.079,-22.662,-20.708,-5.470
'[18:43:41.137 06/11/2076]',5.861,-4.298,-21.490,-22.271,22.271,-22.271,-14.847,-29.695,-50.012,-11.331,-12.112,-11.331,-22.271,-50.012,-4.689,-7.814,-49.231,2.344,22.271,0.781,-18.364,-22.662,-4.689
'[18:43:41.141 06/11/2076]',-5.861,6.252,-39.463,-22.271,12.112,-18.755,-12.894,-42.589,-68.767,-5.861,-12.894,0.000,-27.741,-55.482,-12.503,8.205,-42.979,4.689,40.244,-1.954,-17.582,-25.397,-12.503
'[18:43:41.145 06/11/2076]',-23.053,-3.907,-37.900,-29.304,-14.066,-16.801,-21.880,-42.198,-74.237,-7.424,-10.159,-26.178,-33.602,-44.151,-20.317,-19.536,-39.853,3.516,38.681,-3.516,-8.987,-19.927,-20.317
'[18:43:41.148 06/11/2076]',-31.258,-17.192,-45.324,-38.291,-41.026,-10.159,-29.695,-51.966,-55.482,-6.252,-5.861,-38.291,-11.331,-38.681,-23.443,-31.648,-39.853,5.861,46.105,-3.126,-8.205,-15.629,-23.443
'[18:43:41.152 06/11/2076]',-38.681,-16.410,-50.012,-39.853,-53.529,-8.987,-22.271,-60.171,-16.020,-19.927,-3.126,-23.834,14.457,-31.258,-35.556,-11.722,-35.556,10.940,50.794,2.735,-14.066,-13.675,-35.556
'[18:43:41.156 06/11/2076]',-40.635,-30.867,-46.496,-38.291,-53.529,-14.066,-21.099,-67.985,-1.172,-21.099,-2.344,-25.006,23.053,-16.801,-46.105,-9.768,-28.523,9.377,47.277,11.722,-6.252,-10.159,-46.105
'[18:43:41.160 06/11/2076]',-5.079,-30.085,-47.277,-43.370,-11.722,-24.615,-28.913,-60.952,-12.894,-17.192,-6.642,-33.602,4.689,-7.424,-43.761,-25.006,-20.708,1.172,48.059,1.563,-4.689,-8.987,-43.761
'[18:43:41.164 06/11/2076]',22.271,-19.536,-41.026,-32.821,31.258,-33.602,-29.695,-40.635,-28.913,-16.410,-14.457,-32.430,-24.615,17.582,-51.575,-34.383,-11.722,0.391,41.807,-14.066,8.987,3.126,-51.575
'[18:43:41.168 06/11/2076]',24.225,-11.331,-45.714,-28.913,46.105,-40.244,-20.317,-46.886,-49.231,-8.987,-16.020,-24.225,-32.821,6.642,-51.184,-21.880,-4.689,0.391,46.496,-14.847,16.801,-9.377,-51.184
'[18:43:41.172 06/11/2076]',21.490,-12.894,-35.165,-36.728,38.291,-34.383,-16.801,-50.403,-78.926,2.344,-8.205,-34.383,-49.621,-6.252,-35.165,-26.569,0.000,-0.391,35.946,-14.847,11.722,-21.099,-35.165
'[18:43:41.176 06/11/2076]',7.814,-5.079,-32.430,-27.350,18.364,-14.847,-20.317,-39.853,-50.012,1.954,-1.172,-13.675,-16.801,-24.615,-12.894,-7.814,0.391,0.781,33.211,-7.033,-2.735,-30.085,-12.894
'[18:43:41.180 06/11/2076]',-10.159,0.000,-38.681,-24.615,-11.331,-7.814,-11.722,-42.979,-4.689,-8.987,1.954,-5.861,22.662,-33.211,-8.987,1.563,-0.391,3.126,39.463,-0.781,-11.722,-35.556,-8.987
'[18:43:41.184 06/11/2076]',1.172,-9.768,-39.853,-22.271,-15.629,-4.298,-6.642,-44.151,14.457,-14.066,5.079,-16.801,32.430,-26.569,-10.549,-6.642,-0.781,5.861,40.635,5.079,-20.708,-28.523,-10.549
'[18:43:41.188 06/11/2076]',30.476,-7.814,-30.476,-24.615,9.377,-1.172,-4.298,-37.509,10.549,-16.410,4.689,-7.424,26.178,-6.642,-25.006,-2.735,-3.126,9.768,31.258,3.516,-23.834,-3.126,-25.006
'[18:43:41.191 06/11/2076]',24.615,6.252,-27.350,-21.099,13.675,-7.424,6.642,-32.039,-8.987,-17.192,7.033,7.424,18.364,-16.410,-25.788,12.503,-2.735,15.629,28.132,-3.126,-21.490,-2.735,-25.788
'[18:43:41.195 06/11/2076]',-2.735,10.940,-33.602,-17.582,-8.596,-9.377,7.814,-33.211,-49.231,2.735,12.894,-12.503,-12.112,-5.470,-22.662,-4.689,-0.391,16.801,34.383,-4.298,-22.662,-5.861,-22.662
'[18:43:41.199 06/11/2076]',-19.536,12.112,-27.350,-17.582,-28.523,-3.126,3.126,-25.006,-88.694,11.331,14.457,-28.132,-42.979,14.066,-32.430,-28.132,0.000,17.582,28.132,-7.814,-19.145,6.642,-32.430
'[18:43:41.203 06/11/2076]',-41.026,7.033,-33.602,-7.424,-58.999,0.000,2.344,-19.145,-76.190,17.582,8.987,-6.252,-28.913,-9.377,-7.424,-8.987,1.954,15.238,34.383,-5.470,-16.801,-21.490,-7.424
'[18:43:41.207 06/11/2076]',-36.728,-5.079,-42.589,-8.596,-70.330,4.298,3.516,-32.039,-29.304,14.847,-0.391,-1.172,-6.642,-12.112,1.563,0.781,2.344,10.549,43.370,3.126,-21.099,-33.993,1.563
'[18:43:41.211 06/11/2076]',3.516,-25.788,-25.788,-13.284,-33.602,3.126,-7.814,-23.443,-3.126,5.470,-3.907,-23.834,-1.954,3.907,-4.689,-22.662,2.735,3.516,26.569,9.377,-18.755,-21.880,-4.689
'[18:43:41.215 06/11/2076]',19.145,-10.549,-30.085,-10.940,-5.079,-0.391,-14.457,-12.503,-3.516,4.298,-6.642,-29.304,-12.503,10.940,0.391,-34.383,3.516,1.954,30.867,0.781,-16.020,-17.582,0.391
'[18:43:41.219 06/11/2076]',15.629,-2.735,-31.258,-7.814,11.722,-10.940,-7.814,-18.755,10.159,9.377,-9.768,-19.536,5.470,9.768,-1.954,-23.053,6.252,1.172,32.039,5.470,-14.457,-12.894,-1.954
'[18:43:41.223 06/11/2076]',16.801,-0.391,-30.085,-9.377,24.615,-14.457,-7.424,-26.178,10.159,11.722,-9.377,-26.960,11.722,24.615,-16.020,-34.383,5.861,-1.954,30.867,7.424,-1.954,0.391,-16.020
'[18:43:41.227 06/11/2076]',22.271,10.940,-33.602,-10.549,29.695,-21.099,-14.066,-5.079,-21.880,13.675,-15.629,-35.556,-17.192,37.118,-15.629,-62.515,3.516,-8.987,34.383,-10.159,10.159,7.814,-15.629
'[18:43:41.230 06/11/2076]',17.582,7.033,-37.118,-9.377,11.722,-16.410,-8.987,-8.205,-28.132,19.536,-19.536,-19.145,-4.689,22.662,-11.722,-52.747,4.298,-7.424,37.900,-13.284,16.020,4.689,-11.722
'[18:43:41.234 06/11/2076]',17.192,-4.689,-30.867,-14.457,-5.079,-5.079,0.781,-24.615,-26.178,21.490,-9.377,-31.258,12.503,6.642,-15.629,-48.840,7.424,-1.563,31.648,-3.126,9.377,1.563,-15.629
'[18:43:41.238 06/11/2076]',20.708,-4.689,-34.383,-14.457,-10.940,-0.391,1.563,-23.053,-31.648,10.940,-4.689,-30.085,4.689,4.689,-27.350,-36.728,3.516,-3.126,35.165,-2.735,-5.079,10.159,-27.350
'[18:43:41.242 06/11/2076]',13.675,-1.172,-37.118,-10.159,-1.172,-1.563,-7.814,-25.006,13.284,-4.298,-4.298,-10.159,37.118,-11.722,-19.927,-11.331,4.689,-7.033,37.900,-5.861,-9.377,3.907,-19.927
'[18:43:41.246 06/11/2076]',23.834,-3.516,-37.509,-13.675,24.615,-7.033,-13.675,-34.383,40.635,-9.377,-1.563,-17.582,50.403,-10.159,-12.503,-15.629,1.172,-10.159,38.291,4.298,-23.443,-0.391,-12.503
'[18:43:41.250 06/11/2076]',22.662,-10.159,-30.476,-18.755,34.774,-15.629,-21.099,-34.383,31.648,-13.675,-2.735,-31.258,26.178,-1.172,-7.033,-34.774,-2.735,-12.503,31.258,5.079,-23.053,-1.954,-7.033
'[18:43:41.254 06/11/2076]',9.377,-19.536,-25.006,-23.834,21.099,-16.410,-25.788,-38.291,5.470,-5.861,-2.344,-17.582,13.284,-6.642,3.516,-30.085,-5.861,-15.629,25.788,5.470,-14.847,-6.642,3.516
'[18:43:41.258 06/11/2076]',0.391,-30.867,-19.145,-26.960,2.344,-9.768,-20.317,-48.840,-7.424,6.642,0.391,-5.861,14.457,-19.927,12.894,-13.284,-4.689,-11.331,19.927,12.112,-16.801,-16.410,12.894
'[18:43:41.262 06/11/2076]',-18.755,-37.900,-7.424,-30.476,-30.867,-1.563,-16.801,-46.105,-21.099,10.940,1.954,-29.304,1.563,-25.006,17.192,-30.085,-4.298,-8.205,8.205,11.722,-16.020,-21.880,17.192
'[18:43:41.266 06/11/2076]',-8.596,-25.788,-7.424,-25.788,-11.722,-2.735,-17.973,-35.946,-12.503,5.470,-1.563,-36.337,-9.377,-13.284,13.284,-35.556,-5.079,-5.079,8.205,4.298,-11.331,-17.582,13.284
'[18:43:41.270 06/11/2076]',25.397,-8.987,-12.894,-28.132,36.337,-13.284,-7.033,-41.416,-3.516,1.954,-3.126,-17.973,3.907,-16.801,-2.344,-7.033,-6.252,0.391,13.675,2.344,-16.410,-9.377,-2.344
'[18:43:41.273 06/11/2076]',25.788,-2.735,-13.675,-26.569,34.774,-9.377,2.344,-46.105,0.781,-2.344,-1.954,-11.722,11.331,-11.722,-21.880,6.642,-8.596,8.205,14.457,5.079,-21.099,2.344,-21.880
'[18:43:41.277 06/11/2076]',6.252,3.516,-21.099,-22.271,3.126,-2.735,0.000,-34.774,-12.112,-9.768,-1.954,-19.145,-6.642,10.159,-42.198,-5.861,-13.284,8.987,21.880,-4.689,-17.582,23.443,-42.198
'[18:43:41.281 06/11/2076]',7.814,5.079,-24.225,-20.708,3.907,-4.689,-1.954,-30.085,2.735,-10.549,-0.781,-15.238,20.708,-8.596,-26.178,-9.377,-11.722,10.549,25.006,-14.457,-10.549,13.675,-26.178
'[18:43:41.285 06/11/2076]',7.424,-5.861,-0.391,-12.894,-4.298,6.252,9.768,-24.615,-6.642,-1.563,4.689,-6.252,7.033,-8.596,-12.503,3.907,-6.252,21.880,1.172,-9.377,-3.907,0.781,-12.503
'[18:43:41.289 06/11/2076]',27.741,-17.582,15.238,-5.470,20.708,2.344,14.847,-18.364,-1.563,-0.391,2.735,2.344,-3.126,-12.112,10.159,7.424,-4.689,20.708,-14.457,-5.861,11.331,-19.145,10.159
'[18:43:41.293 06/11/2076]',46.886,-24.615,20.708,-6.642,44.542,-8.987,8.987,-8.205,-18.755,4.689,1.954,-2.735,-25.006,-12.894,26.960,-3.126,-1.563,18.755,-19.927,-3.907,13.675,-31.648,26.960
'[18:43:41.297 06/11/2076]',49.231,-14.847,16.801,-13.284,51.575,-8.987,11.331,-15.629,-33.211,7.814,5.470,-7.033,-41.416,-4.689,21.099,-1.172,0.391,22.271,-16.020,-5.470,10.549,-28.523,21.099
'[18:43:41.301 06/11/2076]',42.589,-11.722,3.516,-9.768,54.310,-13.675,6.252,-21.880,2.344,-0.391,5.079,-11.722,-9.768,-7.814,9.768,2.735,-5.861,19.145,-2.735,7.814,-8.987,-24.615,9.768
'[18:43:41.305 06/11/2076]',30.085,-12.112,-3.126,-7.814,42.589,-17.582,-0.781,-18.364,42.589,-8.987,5.079,-15.238,22.271,-8.987,11.722,-1.954,-12.112,9.377,3.907,11.722,-17.973,-21.099,11.722
'[18:43:41.309 06/11/2076]',21.099,-11.331,-5.079,-7.424,28.913,-11.722,-1.563,-18.755,58.999,-10.549,5.079,-3.907,29.304,-5.470,16.020,8.987,-12.503,5.470,5.861,13.284,-26.569,-15.238,16.020
'[18:43:41.313 06/11/2076]',6.252,-16.020,-6.252,-3.126,7.033,-11.722,0.000,-15.238,65.250,-11.331,3.907,-12.112,23.053,8.987,9.768,2.735,-12.112,4.298,7.033,16.020,-31.648,-8.205,9.768
'[18:43:41.316 06/11/2076]',-21.099,-21.880,-8.205,-1.563,-36.728,-7.424,-3.907,-5.861,42.979,-6.642,5.861,-27.741,7.814,15.238,8.987,-17.582,-9.768,4.298,8.987,13.675,-27.350,-3.907,8.987
'[18:43:41.320 06/11/2076]',-18.755,-25.397,-7.424,-10.159,-47.277,-0.391,-6.252,-9.377,-2.344,3.516,10.940,-16.020,-11.722,7.033,8.987,-7.424,-3.516,8.987,8.205,14.457,-28.132,0.391,8.987
'[18:43:41.324 06/11/2076]',1.563,-20.317,-9.377,-7.814,-17.973,-4.689,-3.516,-9.768,-23.053,9.768,14.847,-1.172,-6.252,1.954,-4.689,9.377,0.781,12.894,10.159,15.629,-26.569,10.159,-4.689
'[18:43:41.328 06/11/2076]',33.993,-19.145,-6.642,-7.424,13.284,0.000,-12.112,-2.344,-26.960,8.987,17.582,-18.755,3.516,-20.708,13.284,-13.284,2.735,7.814,7.424,13.675,-23.053,-2.344,13.284
'[18:43:41.332 06/11/2076]',50.012,-15.238,-12.112,-5.861,25.006,4.298,-18.755,3.126,-20.317,-0.391,14.066,-33.993,-12.112,-21.099,25.788,-32.821,5.470,1.172,12.894,11.331,-23.443,-8.596,25.788
'[18:43:41.336 06/11/2076]',50.794,-19.145,-13.284,-2.344,32.430,1.563,-14.066,-5.079,3.126,-12.112,7.033,-21.099,-13.675,-13.284,15.238,-10.549,5.861,-3.907,14.066,23.443,-21.490,-11.722,15.238
'[18:43:41.340 06/11/2076]',35.165,-16.020,-21.099,0.781,14.847,0.000,-7.424,-9.377,32.821,-19.536,0.781,-14.066,-5.861,-5.079,12.503,-0.781,3.516,-11.722,21.880,19.927,-18.755,-9.377,12.503
'[18:43:41.344 06/11/2076]',24.615,-24.615,-13.284,5.470,1.954,0.391,-18.364,6.252,45.324,-23.443,-3.516,-20.317,-14.457,15.238,10.549,-14.066,1.954,-23.053,14.066,17.582,-12.112,-2.735,10.549
'[18:43:41.348 06/11/2076]',39.463,-32.821,2.735,3.516,23.834,-7.814,-17.582,14.066,26.178,-16.020,-9.768,-14.847,-35.946,12.894,23.053,-15.238,3.126,-25.006,-1.954,16.410,-4.689,-5.470,23.053
'[18:43:41.352 06/11/2076]',35.556,-33.993,1.954,11.722,28.132,-18.755,-5.079,11.722,40.244,-1.954,-11.722,-3.907,-1.954,8.205,21.099,-5.079,5.861,-22.271,-1.172,8.596,9.377,-3.126,21.099
'[18:43:41.355 06/11/2076]',42.589,-37.900,-0.391,7.033,22.271,-10.940,-10.940,9.768,30.476,6.642,-11.722,-19.927,-1.954,8.596,23.834,-25.397,6.642,-24.615,1.172,3.126,9.377,-1.954,23.834
'[18:43:41.359 06/11/2076]',33.993,-29.304,0.391,-11.722,22.662,-12.112,-16.020,-0.781,22.271,7.814,-9.768,-27.350,-7.424,8.205,23.053,-30.867,4.689,-26.178,0.391,6.252,2.344,-3.516,23.053
'[18:43:41.363 06/11/2076]',7.814,-6.642,-12.894,-10.549,11.722,-11.331,-18.364,-4.298,26.178,1.563,-7.424,-23.053,-1.172,3.126,14.457,-19.927,-2.344,-21.099,13.675,8.596,-15.629,-1.954,14.457
'[18:43:41.367 06/11/2076]',13.284,-3.907,-19.145,-14.847,15.238,-4.689,-23.443,-12.112,28.913,-4.689,-6.252,-32.821,-10.159,10.159,10.940,-26.960,-7.814,-18.755,19.927,12.503,-30.867,1.563,10.940
'[18:43:41.371 06/11/2076]',16.801,4.298,-15.238,-18.364,29.304,-5.079,-26.960,-10.159,17.582,-1.954,-5.079,-26.569,-21.099,7.814,15.629,-18.755,-11.722,-17.582,16.020,12.503,-33.993,-2.735,15.629
'[18:43:41.375 06/11/2076]',10.549,0.000,-11.331,-10.940,29.304,-8.205,-24.225,-8.596,-5.079,7.814,-6.642,-9.377,-26.178,8.596,1.563,2.735,-14.066,-14.847,12.112,15.238,-30.867,4.689,1.563
'[18:43:41.379 06/11/2076]',18.755,-7.814,-12.112,-13.284,32.821,-8.987,-24.615,-14.457,-25.397,15.629,-7.424,-26.960,-33.993,21.490,-16.410,-14.847,-14.457,-15.629,12.894,14.066,-24.225,17.192,-16.410
'[18:43:41.383 06/11/2076]',25.788,-3.516,-7.814,-16.410,42.589,-10.159,-22.662,-11.722,-37.900,21.099,-8.205,-42.198,-39.072,8.205,-8.596,-27.741,-14.457,-16.801,8.596,3.516,-21.099,8.205,-8.596
'[18:43:41.387 06/11/2076]',10.159,0.781,-10.940,-19.145,24.615,-6.642,-16.801,-21.099,-33.602,8.205,-10.940,-25.397,-38.291,6.252,-21.099,-9.377,-14.457,-17.582,11.722,-1.563,-15.629,14.066,-21.099
'[18:43:41.391 06/11/2076]',-7.814,0.781,-16.020,-21.099,-7.033,2.735,-6.642,-34.383,14.847,-10.940,-14.847,-15.629,-9.377,-14.457,-0.391,-2.344,-13.675,-18.755,16.801,-3.907,-15.629,0.781,-0.391
'[18:43:41.395 06/11/2076]',-20.708,3.516,-23.443,-20.317,-23.053,10.159,-14.457,-34.383,53.529,-19.145,-15.238,-40.635,3.126,-18.755,19.145,-25.397,-13.284,-19.927,24.225,-18.755,-5.470,-16.410,19.145
'[18:43:41.398 06/11/2076]',-30.867,-1.954,-10.549,-23.053,-33.211,19.536,-18.755,-35.556,45.714,-14.066,-10.549,-53.529,-8.987,-8.205,19.927,-36.337,-12.894,-12.112,11.331,-17.192,1.172,-12.503,19.927
'[18:43:41.402 06/11/2076]',-23.053,-19.145,6.252,-13.675,-24.225,21.099,-10.940,-35.946,57.045,-7.033,-8.987,-42.589,8.596,-3.126,8.596,-16.020,-12.894,-0.391,-5.470,1.172,3.907,-8.205,8.596
'[18:43:41.406 06/11/2076]',-3.126,-25.006,8.987,-7.814,8.205,8.987,-5.079,-39.072,49.231,0.391,-5.470,-41.416,12.503,0.781,-2.344,-7.424,-20.317,7.033,-8.205,2.735,10.159,-3.516,-2.344
'[18:43:41.410 06/11/2076]',-2.344,-14.847,9.377,-2.344,17.973,1.954,-6.642,-23.053,4.298,8.205,-3.907,-39.853,-22.662,10.159,-3.516,-14.066,-22.662,8.987,-8.596,-7.814,12.894,4.298,-3.516
'[18:43:41.414 06/11/2076]',-37.509,-9.768,7.033,7.814,-19.927,-5.470,0.781,-7.814,20.708,4.298,-7.814,-34.774,-8.205,15.629,-2.344,-21.490,-23.443,13.284,-6.252,-18.755,25.006,4.689,-2.344
'[18:43:41.418 06/11/2076]',-30.476,-6.642,1.563,10.159,-17.582,1.954,11.722,-21.490,28.132,7.424,-5.470,-22.662,7.814,9.768,-1.563,-7.424,-17.973,21.490,-0.781,-20.317,26.960,-0.781,-1.563
'[18:43:41.422 06/11/2076]',-24.615,-3.126,3.126,8.205,-13.284,8.596,16.410,-28.913,12.503,12.112,3.907,-32.039,-6.252,21.880,-1.954,-14.847,-10.940,23.834,-2.344,-20.317,24.615,2.735,-1.954
'[18:43:41.426 06/11/2076]',-22.662,0.000,16.801,2.735,-7.424,18.364,15.238,-30.085,14.457,11.722,14.066,-14.457,4.298,19.927,-1.172,3.516,-7.033,30.476,-16.020,-9.377,7.814,5.470,-1.172
'[18:43:41.430 06/11/2076]',8.596,-6.642,17.973,4.298,22.271,20.708,19.536,-37.509,10.159,12.894,22.662,-9.768,12.112,17.582,-3.126,10.549,-6.252,36.728,-17.192,0.000,-0.781,9.377,-3.126
'[18:43:41.434 06/11/2076]',4.689,-4.298,12.894,7.814,17.973,17.973,19.927,-33.993,-23.053,21.880,33.602,-17.973,-8.987,17.192,5.470,0.391,-5.861,36.728,-12.112,-1.954,-9.768,13.675,5.470
'[18:43:41.438 06/11/2076]',3.516,-2.344,14.457,12.503,20.317,17.192,14.457,-25.006,-23.053,28.523,35.946,-10.159,-0.781,-1.954,30.867,3.516,-2.735,35.946,-13.675,-5.861,-5.079,-1.172,30.867
'[18:43:41.441 06/11/2076]',16.801,-3.516,8.205,13.675,22.271,25.006,16.801,-27.741,-10.549,29.695,32.039,0.781,4.689,-5.079,36.728,16.410,1.563,36.728,-7.424,-10.549,1.172,-6.252,36.728
'[18:43:41.445 06/11/2076]',16.020,3.126,12.112,14.847,15.238,35.946,19.927,-25.006,0.391,29.304,32.821,-19.536,-0.781,7.814,39.853,-2.344,8.205,39.853,-11.331,-9.768,1.563,-3.907,39.853
'[18:43:41.449 06/11/2076]',9.768,5.861,18.755,14.066,11.331,40.244,17.582,-19.536,17.192,28.523,31.258,-34.383,4.298,19.536,42.589,-21.880,10.549,44.933,-17.973,-9.768,8.205,0.000,42.589
'[18:43:41.453 06/11/2076]',14.066,13.675,19.145,7.033,8.205,46.886,25.788,-25.397,30.085,30.085,29.695,-10.940,22.662,16.801,36.337,2.344,13.675,51.575,-18.364,-7.033,2.344,5.470,36.337
'[18:43:41.457 06/11/2076]',7.814,13.675,35.165,10.940,6.252,52.357,33.993,-23.053,32.430,34.383,31.648,0.391,29.695,11.722,41.026,17.192,17.192,52.747,-34.383,-1.172,1.563,8.596,41.026
'[18:43:41.461 06/11/2076]',-0.391,19.536,28.523,14.066,3.126,52.747,21.490,-15.238,32.039,32.039,27.350,-16.020,19.927,14.066,43.761,-1.563,19.927,42.979,-27.741,-7.033,3.516,10.159,43.761
'[18:43:41.465 06/11/2076]',8.596,26.960,18.364,16.020,14.066,50.012,10.940,-3.516,33.211,22.662,21.490,-18.755,10.940,17.973,39.072,-8.205,23.443,32.430,-17.582,-16.801,0.781,14.457,39.072
'[18:43:41.469 06/11/2076]',19.536,16.410,14.847,19.145,28.913,43.370,12.112,-13.284,33.602,19.536,15.238,-12.503,16.020,13.284,25.397,0.781,23.443,25.397,-14.066,-5.861,7.814,13.675,25.397
'[18:43:41.473 06/11/2076]',23.443,10.940,8.987,19.536,28.913,41.416,11.722,-17.582,37.509,20.317,10.159,-19.145,26.569,20.708,6.642,-4.298,24.225,14.847,-8.205,-6.252,14.847,21.490,6.642
'[18:43:41.477 06/11/2076]',23.443,8.596,3.907,20.708,22.271,31.258,2.735,1.563,23.834,24.225,1.563,-16.410,19.145,32.039,0.391,-18.364,26.569,3.516,-3.126,-20.317,28.523,26.569,0.391
'[18:43:41.480 06/11/2076]',15.629,1.172,12.112,12.503,13.284,28.132,6.642,-4.689,1.563,36.337,0.391,-11.331,8.205,27.741,7.814,-16.801,32.039,0.391,-11.331,-17.192,36.728,17.582,7.814
'[18:43:41.484 06/11/2076]',8.987,0.000,22.662,8.596,14.066,29.695,8.596,-10.549,4.298,35.165,1.563,-19.536,1.954,25.006,6.642,-11.722,38.291,-0.391,-21.880,-8.205,28.913,9.377,6.642
'[18:43:41.488 06/11/2076]',2.344,5.470,14.066,14.066,13.675,25.397,-0.781,-1.172,0.391,24.225,1.954,-18.364,-9.377,20.708,7.814,-9.768,33.993,-5.861,-13.284,-3.907,15.629,5.470,7.814
'[18:43:41.492 06/11/2076]',-4.298,0.781,9.768,12.503,9.768,21.099,-8.205,-3.126,-22.271,18.755,3.516,-5.079,-25.788,12.503,3.516,5.861,27.741,-5.470,-8.987,5.079,5.861,5.079,3.516
'[18:43:41.496 06/11/2076]',14.066,-4.689,6.642,14.847,30.476,14.457,-10.549,-3.126,0.781,10.159,4.298,-7.814,1.954,8.205,-6.642,4.689,19.536,-3.516,-5.861,12.894,-1.172,10.549,-6.642
'[18:43:41.500 06/11/2076]',23.443,-11.722,-0.781,19.145,32.039,7.424,-15.238,4.689,1.172,8.987,1.954,-15.629,9.768,-11.331,3.516,-4.689,13.675,-5.861,1.563,13.675,-5.861,-1.172,3.516
'[18:43:41.504 06/11/2076]',23.443,-17.582,-1.954,11.722,19.536,4.689,-13.675,3.126,-5.861,10.549,-0.781,1.954,1.563,-10.549,4.298,10.940,11.722,-12.503,2.735,10.159,-5.861,-0.391,4.298
'[18:43:41.508 06/11/2076]',27.741,-23.443,3.126,5.861,14.847,9.377,-5.861,-3.907,-11.331,10.940,-1.954,15.629,0.000,-15.629,-0.781,30.476,13.675,-15.629,-2.344,9.768,-2.735,-2.344,-0.781
'[18:43:41.512 06/11/2076]',20.708,-15.629,7.424,9.768,-5.079,21.490,-1.563,8.205,-24.615,11.722,0.391,-0.781,-15.629,-8.987,-1.172,13.284,12.112,-14.066,-6.642,3.516,-7.424,1.172,-1.172
'[18:43:41.516 06/11/2076]',0.000,-8.205,9.377,10.940,-39.463,31.258,0.781,20.317,-37.118,9.768,1.954,-8.987,-33.211,3.516,-3.516,-0.781,7.424,-7.424,-8.596,-3.907,-3.126,5.470,-3.516
'[18:43:41.520 06/11/2076]',13.675,1.954,10.159,11.331,-22.271,37.509,11.722,11.722,-31.648,3.907,7.424,10.940,-18.755,8.987,-20.708,22.662,5.861,8.596,-9.377,1.563,-4.298,18.755,-20.708
'[18:43:41.523 06/11/2076]',41.416,7.033,26.178,12.112,14.066,42.589,23.053,8.205,3.126,-4.298,15.238,21.099,9.377,-12.894,2.344,37.509,4.298,23.053,-25.397,15.238,-15.238,1.954,2.344
'[18:43:41.527 06/11/2076]',32.430,16.020,30.867,13.284,4.298,48.059,18.364,23.053,23.443,-6.642,15.238,17.192,8.205,-12.894,22.662,31.258,4.298,22.662,-30.085,10.940,-19.536,-9.768,22.662
'[18:43:41.531 06/11/2076]',17.582,22.662,35.556,13.284,-8.596,49.231,20.317,30.085,21.490,-5.079,12.894,26.960,-5.861,-2.735,27.741,38.291,8.987,24.615,-34.774,0.000,-13.284,-11.331,27.741
'[18:43:41.535 06/11/2076]',5.861,18.364,50.403,15.629,-25.788,57.827,34.774,25.006,7.814,1.563,16.410,36.728,-12.894,-7.033,35.946,48.449,15.629,34.383,-49.621,0.000,-8.596,-16.020,35.946
'[18:43:41.539 06/11/2076]',-11.331,14.847,55.873,26.960,-55.873,59.389,41.807,41.416,0.391,8.987,14.457,46.496,-16.410,3.516,34.383,50.012,13.284,36.337,-55.092,-16.801,3.516,-8.596,34.383
'[18:43:41.543 06/11/2076]',7.033,16.801,51.184,26.960,-33.993,50.403,38.291,49.621,-15.629,11.331,15.629,43.370,-23.834,14.847,28.913,35.556,10.549,41.026,-50.403,-28.132,17.192,0.781,28.913
'[18:43:41.547 06/11/2076]',31.648,25.788,50.012,18.364,6.642,46.105,38.291,36.337,-12.503,12.112,24.615,37.118,-10.940,8.596,32.039,33.602,8.596,50.794,-49.231,-26.960,9.768,3.126,32.039
'[18:43:41.551 06/11/2076]',39.463,23.834,42.979,26.178,29.695,38.291,34.774,30.476,19.536,11.331,31.258,30.476,19.536,4.689,29.304,39.853,2.735,53.919,-42.198,-13.284,-8.596,3.907,29.304
'[18:43:41.555 06/11/2076]',23.443,32.430,31.258,26.178,21.490,32.821,30.476,28.913,27.741,8.987,30.085,30.867,20.317,5.470,29.304,43.370,0.000,48.840,-30.476,-16.410,-10.940,0.000,29.304
'[18:43:41.559 06/11/2076]',2.735,26.960,28.523,28.913,12.894,28.913,25.788,19.536,33.211,5.470,26.178,43.761,17.973,5.079,22.271,64.469,-1.954,40.244,-27.741,-3.516,-16.801,-2.735,22.271
'[18:43:41.563 06/11/2076]',-7.033,17.192,41.416,31.258,2.735,24.225,26.178,28.913,35.946,3.126,21.490,40.244,16.410,11.722,13.675,59.389,-7.424,35.165,-40.635,1.954,-20.708,-0.391,13.675
'[18:43:41.566 06/11/2076]',3.516,10.549,35.556,32.430,14.457,13.675,17.192,37.118,26.178,-1.172,11.722,26.178,3.516,8.596,14.066,37.118,-17.192,25.006,-34.774,1.954,-14.457,-5.079,14.066
'[18:43:41.570 06/11/2076]',30.867,14.066,26.178,24.615,47.277,7.814,9.768,31.258,7.033,0.391,7.033,41.026,-5.861,-0.391,16.020,46.496,-23.834,18.364,-25.397,0.391,-14.847,-8.205,16.020
'[18:43:41.574 06/11/2076]',33.993,1.954,30.085,19.536,60.171,5.861,2.344,17.973,7.814,3.516,4.298,52.747,4.689,-7.033,15.629,55.873,-27.741,13.284,-29.304,12.894,-14.066,-6.252,15.629
'[18:43:41.578 06/11/2076]',17.973,8.987,21.099,21.880,46.105,3.907,-3.516,25.006,6.642,-1.954,2.735,30.867,-7.424,9.768,12.503,23.834,-27.741,10.159,-20.317,4.298,-7.033,3.126,12.503
'[18:43:41.582 06/11/2076]',9.377,17.582,22.271,13.284,32.039,9.768,-7.424,28.132,-7.424,0.391,0.781,17.192,-26.569,21.880,10.549,5.079,-21.490,8.596,-21.490,-3.126,-0.781,7.424,10.549
'[18:43:41.586 06/11/2076]',4.298,16.801,31.258,13.675,21.099,19.927,1.954,23.443,-4.298,-1.563,1.563,31.258,-17.192,18.364,0.781,25.006,-18.364,17.192,-30.476,5.079,-1.172,10.549,0.781
'[18:43:41.590 06/11/2076]',-3.516,16.801,29.695,17.973,5.079,22.271,11.331,23.053,2.344,-2.344,0.391,37.118,2.735,26.569,-19.145,28.132,-18.755,23.053,-28.913,4.689,5.861,27.741,-19.145
'[18:43:41.594 06/11/2076]',-8.205,20.317,26.569,14.847,-7.814,21.490,7.424,33.211,-19.145,-3.907,-4.298,30.867,-14.847,14.066,-7.424,10.549,-19.145,20.317,-25.788,-8.205,14.457,17.973,-7.424
'[18:43:41.598 06/11/2076]',-2.735,30.867,18.755,13.675,-1.954,19.145,11.722,32.821,21.099,-5.079,-9.768,34.774,23.053,20.708,-7.424,4.298,-17.973,24.615,-17.973,-23.834,22.662,25.006,-7.424
'[18:43:41.602 06/11/2076]',-12.894,23.053,12.503,21.880,-14.066,9.768,22.271,27.741,51.184,-10.549,-16.801,44.933,53.919,21.099,-16.410,9.377,-16.801,27.350,-11.722,-25.397,41.026,23.053,-16.410
'[18:43:41.605 06/11/2076]',-3.126,27.350,21.490,14.457,-5.861,5.861,28.132,33.211,58.999,-12.894,-19.145,26.960,45.714,28.523,-8.987,-12.112,-12.894,23.053,-20.708,-31.258,46.496,17.192,-8.987
'[18:43:41.609 06/11/2076]',19.145,30.476,21.490,6.252,9.377,17.973,19.536,31.648,67.985,-13.675,-19.536,26.960,48.059,21.099,1.563,-9.768,-11.722,17.192,-20.708,-27.741,36.728,5.079,1.563
'[18:43:41.613 06/11/2076]',27.350,24.225,19.145,11.331,20.708,22.271,10.549,29.695,56.264,-19.145,-16.020,32.430,43.370,12.894,-8.596,4.689,-15.629,14.457,-18.364,-14.066,25.006,2.735,-8.596
'[18:43:41.617 06/11/2076]',26.569,32.821,14.457,10.159,29.695,19.536,5.861,29.695,34.774,-19.536,-9.768,22.271,27.741,0.781,-2.735,0.391,-14.457,10.549,-13.675,-9.377,5.470,-3.126,-2.735
'[18:43:41.621 06/11/2076]',23.053,40.635,3.907,8.205,31.258,19.145,-2.344,29.304,26.569,-21.099,-6.252,30.867,22.662,-8.987,0.391,15.629,-15.629,4.298,-3.126,-14.847,-5.470,-5.861,0.391
'[18:43:41.625 06/11/2076]',20.708,34.383,3.126,15.238,36.337,10.549,-2.344,29.695,26.960,-25.788,-3.516,47.668,28.132,-3.907,-17.973,38.291,-16.801,2.735,-2.344,-8.987,-5.861,4.689,-17.973
'[18:43:41.629 06/11/2076]',20.317,23.834,14.066,7.814,39.463,-2.735,-2.344,33.602,21.099,-23.834,-2.344,31.258,21.880,1.954,-21.880,24.225,-18.755,1.954,-13.284,-3.126,-5.079,5.861,-21.880
'[18:43:41.633 06/11/2076]',19.927,20.317,12.112,10.940,41.026,-14.847,-6.252,45.714,12.112,-17.192,-3.126,10.549,5.861,14.847,-20.317,1.563,-19.536,0.000,-11.331,-10.159,-2.344,8.987,-20.317
'[18:43:41.637 06/11/2076]',16.020,7.424,2.735,12.503,30.085,-20.317,-8.205,39.072,0.000,-12.503,-5.470,25.788,1.954,21.880,-33.993,17.582,-22.271,-2.735,-1.954,-1.954,-2.735,19.145,-33.993
'[18:43:41.641 06/11/2076]',2.735,4.689,5.861,7.814,21.880,-32.821,-1.563,36.337,-4.689,-10.159,-5.470,35.165,7.424,4.689,-30.085,32.821,-24.225,-3.907,-5.079,-1.954,0.391,8.205,-30.085
'[18:43:41.645 06/11/2076]',1.954,17.582,-1.172,9.768,27.350,-31.648,-8.596,42.979,10.940,-16.801,-7.033,9.377,2.344,1.172,-15.629,8.987,-21.490,-12.894,1.954,-14.847,1.563,0.000,-15.629
'[18:43:41.648 06/11/2076]',19.145,8.987,4.298,3.516,42.589,-19.536,-18.364,33.993,36.337,-28.132,-8.205,-1.954,8.205,-3.126,-11.331,3.907,-20.708,-16.410,-3.516,-1.954,-3.907,-4.689,-11.331
'[18:43:41.652 06/11/2076]',25.788,5.470,8.596,2.735,43.370,-13.675,-7.424,21.880,49.231,-34.774,-7.814,9.377,17.973,-20.317,-7.033,25.006,-18.755,-12.503,-7.814,10.159,-8.987,-16.020,-7.033
'[18:43:41.656 06/11/2076]',22.271,3.126,5.079,4.689,32.430,-6.642,-3.126,14.847,48.059,-37.900,-7.033,5.861,14.847,-19.536,-10.940,24.225,-16.801,-11.331,-4.298,12.112,-8.596,-9.377,-10.940
'[18:43:41.660 06/11/2076]',6.642,2.344,-2.344,6.252,3.907,-0.391,-7.814,18.364,31.258,-33.993,-8.596,0.781,-0.391,-5.470,-13.284,8.205,-13.675,-14.066,3.126,5.861,-6.252,3.126,-13.284
'[18:43:41.664 06/11/2076]',-17.582,7.033,-3.516,10.549,-28.913,-7.033,-0.391,33.602,-2.735,-28.132,-12.112,-1.954,-28.913,6.252,-15.238,-8.596,-14.457,-8.987,4.298,-12.503,10.940,8.596,-15.238
'[18:43:41.668 06/11/2076]',-22.662,3.516,8.987,10.940,-37.118,0.391,6.252,32.039,5.861,-21.490,-7.424,-1.563,-11.722,18.755,-26.960,-5.079,-9.377,-4.689,-8.205,-12.503,16.020,22.662,-26.960
'[18:43:41.672 06/11/2076]',4.298,6.252,10.940,4.689,-3.516,4.689,1.172,25.006,32.430,-15.238,-2.344,-19.927,12.894,14.847,-12.503,-20.708,-5.861,-8.596,-10.159,-9.377,11.722,11.331,-12.503
'[18:43:41.676 06/11/2076]',32.821,3.516,10.549,-1.172,31.258,4.298,-8.205,18.755,40.244,-15.238,-1.563,-8.987,24.615,-3.516,-2.344,-4.298,-8.596,-12.894,-9.768,5.079,-11.331,-1.172,-2.344
'[18:43:41.680 06/11/2076]',38.681,0.000,5.079,-3.516,37.900,3.907,-12.112,10.549,39.853,-17.973,2.735,-6.642,26.569,-8.987,0.391,-0.391,-8.987,-11.331,-4.298,14.066,-24.615,-2.344,0.391
'[18:43:41.684 06/11/2076]',35.165,0.391,-5.470,-2.735,31.258,4.689,-16.801,8.987,30.867,-17.582,4.298,-15.629,17.582,-15.629,12.503,-12.894,-7.033,-9.768,6.252,12.503,-32.039,-10.159,12.503
'[18:43:41.688 06/11/2076]',30.085,-3.907,-1.172,-5.079,19.927,4.689,-17.973,12.503,-5.079,-12.112,4.298,0.391,-3.907,-26.960,20.317,-3.126,-8.205,-6.642,1.954,16.020,-33.993,-16.020,20.317
'[18:43:41.691 06/11/2076]',23.443,-9.768,-4.689,2.344,6.252,3.126,-15.238,16.020,-32.039,-11.331,6.252,19.536,-18.755,-26.569,14.457,12.112,-7.424,-0.391,5.470,14.457,-26.178,-8.596,14.457
'[18:43:41.695 06/11/2076]',10.549,-7.814,-11.331,5.470,-9.377,1.954,-16.020,20.708,-32.821,-12.894,7.814,-1.954,-20.317,-16.801,7.033,-9.377,-5.470,0.000,12.112,11.722,-25.397,0.391,7.033
'[18:43:41.699 06/11/2076]',3.516,-23.443,-1.954,7.814,-21.880,4.689,-21.880,25.006,-34.383,-12.112,3.907,-20.317,-28.132,-9.377,2.344,-28.913,-6.252,-3.907,2.735,19.536,-19.927,4.689,2.344
'[18:43:41.703 06/11/2076]',-6.642,-22.271,-10.159,11.722,-29.304,-1.172,-17.192,20.708,-6.642,-16.801,-1.563,-1.172,-14.847,4.689,-13.284,-4.298,-6.252,-1.563,10.940,21.490,-18.755,16.410,-13.284
'[18:43:41.707 06/11/2076]',-24.225,-24.615,7.033,10.549,-37.118,-0.781,-5.861,14.457,25.006,-17.973,-4.689,3.126,-0.391,0.391,-4.689,9.377,-5.470,1.954,-6.252,27.350,-10.940,6.252,-4.689
'[18:43:41.711 06/11/2076]',-21.490,-22.662,25.788,8.596,-25.788,0.391,-7.033,22.271,36.337,-13.675,-3.907,-14.066,-1.172,7.033,1.563,-4.689,-7.814,5.470,-25.006,23.443,-1.954,6.252,1.563
'[18:43:41.715 06/11/2076]',-5.470,-15.238,27.741,16.020,0.391,1.172,-13.284,34.774,38.291,-10.159,-4.689,-13.675,-0.781,3.516,9.768,-4.298,-11.722,10.940,-26.960,19.927,5.470,0.391,9.768
'[18:43:41.719 06/11/2076]',5.861,-13.675,25.006,19.536,11.722,3.126,-5.079,26.569,39.853,-7.424,-2.735,-5.079,9.768,1.172,9.377,2.344,-12.503,14.847,-24.225,23.053,14.066,2.735,9.377
'[18:43:41.723 06/11/2076]',1.954,-11.722,20.708,19.536,5.079,3.907,-3.907,25.397,21.490,-2.735,-3.516,-11.331,0.391,18.364,-8.596,-5.861,-10.940,7.814,-19.927,16.801,27.350,21.099,-8.596
'[18:43:41.727 06/11/2076]',-13.284,-12.894,10.549,28.132,-14.847,-2.344,-16.801,46.886,6.252,-2.344,-13.675,-10.549,-18.364,21.880,-4.298,-19.927,-7.814,-5.079,-9.768,0.781,42.979,19.145,-4.298
'[18:43:41.730 06/11/2076]',-26.569,-15.629,13.284,21.490,-30.867,-4.298,-10.549,39.463,8.596,-3.126,-13.675,-3.516,-15.629,17.973,1.563,-16.410,-0.391,-8.596,-12.503,0.391,51.184,16.410,1.563
'[18:43:41.734 06/11/2076]',-40.635,-19.927,16.801,17.582,-25.788,-17.973,-4.689,23.834,-17.973,2.344,-3.907,-18.364,-32.821,19.536,-6.252,-19.536,3.516,-7.814,-16.020,11.722,50.794,16.801,-6.252
'[18:43:41.738 06/11/2076]',-37.118,-20.708,17.973,25.397,-13.675,-23.053,-10.549,33.602,1.563,-4.298,3.126,-14.066,-12.503,8.596,1.172,-10.940,2.735,-10.549,-17.192,15.238,42.589,7.033,1.172
'[18:43:41.742 06/11/2076]',-28.132,-19.536,12.894,24.225,-5.079,-20.708,-8.596,25.006,22.662,-8.987,7.424,1.172,8.205,3.907,7.814,2.344,1.954,-8.596,-12.112,21.880,37.900,3.126,7.814
'[18:43:41.746 06/11/2076]',-25.006,-19.145,15.629,21.880,-0.391,-20.708,-5.079,20.708,19.927,-6.642,12.112,-3.907,8.596,12.503,6.252,-5.861,1.172,-5.470,-14.847,26.569,34.383,8.596,6.252
'[18:43:41.750 06/11/2076]',-36.337,-0.391,0.000,26.178,-19.145,-18.364,-6.252,34.383,19.145,-5.470,8.987,-11.331,4.689,21.490,4.689,-20.708,-2.344,-3.516,0.781,5.470,34.774,12.503,4.689
'[18:43:41.754 06/11/2076]',-31.258,-7.033,0.000,22.271,-21.099,-12.112,-10.549,28.523,12.503,-3.907,6.642,1.172,0.391,21.880,7.814,-13.284,-7.033,-0.391,0.781,10.159,37.900,13.284,7.814
'[18:43:41.758 06/11/2076]',-31.258,-14.457,4.298,18.364,-19.145,-12.894,-6.642,16.801,2.344,-3.516,7.424,11.722,-2.735,9.768,12.112,-0.781,-12.112,3.516,-3.516,23.834,35.556,5.470,12.112
'[18:43:41.762 06/11/2076]',-37.509,-22.662,-0.391,19.927,-20.708,-21.490,-14.457,16.801,-3.126,-7.424,7.814,-13.284,-10.549,5.470,14.847,-26.960,-19.927,3.907,1.172,27.350,41.026,-1.563,14.847
'[18:43:41.766 06/11/2076]',-44.933,-24.615,-4.689,25.397,-29.304,-25.397,-18.755,24.225,-1.563,-11.722,3.907,-21.490,-13.675,12.894,10.159,-40.635,-25.397,4.298,5.470,28.132,45.324,3.126,10.159
'[18:43:41.770 06/11/2076]',-43.370,-24.615,-8.205,25.397,-30.085,-28.132,-8.987,16.410,1.563,-11.722,1.172,0.391,-0.781,11.722,-3.516,-16.020,-26.960,8.596,8.987,37.118,44.542,8.205,-3.516
'[18:43:41.773 06/11/2076]',-39.853,-23.053,-12.894,25.788,-31.258,-29.695,-2.735,14.066,3.907,-11.331,-2.344,8.987,12.894,6.252,-16.020,-3.907,-30.085,7.814,13.675,40.244,42.198,11.722,-16.020
'[18:43:41.777 06/11/2076]',-37.900,-16.020,-12.894,30.085,-40.244,-24.615,-5.470,34.774,-7.424,-15.238,-8.205,6.252,-2.735,34.383,-44.151,-13.284,-33.211,1.954,13.675,29.695,43.761,34.774,-44.151
'[18:43:41.781 06/11/2076]',-35.165,-11.722,-2.344,24.225,-44.933,-21.880,-4.298,46.105,-18.364,-19.536,-14.847,12.894,-17.582,20.317,-30.085,-12.894,-33.211,1.954,3.126,22.662,46.105,17.973,-30.085
'[18:43:41.785 06/11/2076]',-38.291,-12.894,2.735,27.741,-51.184,-21.490,7.033,45.324,-9.768,-15.629,-19.536,8.205,-7.033,-6.252,-12.894,-10.940,-29.695,5.079,-1.954,26.569,45.324,-7.424,-12.894
'[18:43:41.789 06/11/2076]',-46.496,-15.629,-1.563,29.695,-58.608,-36.728,13.284,48.449,-3.126,-13.284,-27.350,8.596,-2.344,-4.298,-15.629,-14.457,-28.132,-2.344,2.344,14.066,63.297,-9.768,-15.629
'[18:43:41.793 06/11/2076]',-48.840,-7.424,-6.642,23.053,-53.138,-42.198,3.907,50.403,4.298,-10.159,-28.913,3.516,-2.344,0.391,-8.205,-20.708,-21.880,-7.424,7.424,1.954,63.297,-10.940,-8.205
'[18:43:41.797 06/11/2076]',-41.807,-4.689,-17.192,13.675,-44.542,-40.244,1.954,33.211,13.675,-8.987,-26.178,4.298,6.252,3.516,-15.238,-12.112,-18.755,-8.596,17.973,7.814,43.370,-7.033,-15.238
'[18:43:41.801 06/11/2076]',-36.337,-0.781,-25.788,14.457,-37.509,-39.072,-2.344,30.476,10.549,-12.503,-23.053,3.516,4.298,5.470,-29.304,-2.344,-25.006,-12.112,26.569,9.377,27.350,-1.172,-29.304
'[18:43:41.805 06/11/2076]',-27.741,-1.172,-21.880,12.503,-23.834,-34.383,-11.722,31.648,6.252,-12.112,-22.662,5.470,0.000,8.205,-34.383,2.344,-28.913,-16.801,22.662,10.940,18.755,1.172,-34.383
'[18:43:41.809 06/11/2076]',-31.258,-8.596,-20.317,8.987,-33.211,-26.178,-13.675,22.662,7.814,-15.629,-23.053,15.238,5.470,-3.516,-37.118,19.145,-35.165,-18.755,21.099,20.708,9.768,-2.735,-37.118
'[18:43:41.813 06/11/2076]',-36.337,-16.020,-18.364,9.768,-39.072,-25.397,-16.020,20.317,7.814,-19.536,-24.615,-1.563,8.596,-21.099,-33.602,7.033,-39.853,-22.271,19.145,21.880,15.629,-13.284,-33.602
'[18:43:41.816 06/11/2076]',-33.993,-25.397,-21.880,10.549,-30.867,-35.946,-21.880,18.364,2.735,-19.536,-28.132,-20.708,-3.907,-21.099,-30.476,-11.722,-41.416,-29.695,22.662,14.847,21.099,-14.066,-30.476
'[18:43:41.820 06/11/2076]',-32.039,-26.178,-23.053,1.172,-26.960,-31.258,-26.960,5.079,8.205,-25.397,-30.867,-6.642,-6.252,-33.993,-24.225,9.377,-42.589,-33.602,23.834,19.536,7.814,-19.145,-24.225
'[18:43:41.824 06/11/2076]',-22.271,-21.099,-28.913,0.781,-8.205,-36.728,-24.615,-2.344,0.391,-30.085,-33.211,8.596,-18.755,-33.602,-31.258,29.304,-45.714,-39.072,29.695,21.490,0.391,-15.238,-31.258
'[18:43:41.828 06/11/2076]',-16.410,-14.847,-33.602,1.954,6.642,-45.324,-29.304,3.907,1.954,-32.821,-39.463,-10.549,-30.085,-17.192,-39.853,6.252,-51.575,-43.761,34.383,13.675,3.907,-10.159,-39.853
'[18:43:41.832 06/11/2076]',-16.801,-6.252,-34.383,-3.907,10.940,-47.668,-35.165,8.987,20.708,-36.337,-39.853,-21.490,-21.880,-5.470,-38.291,-10.940,-53.138,-47.668,35.165,7.814,-2.344,-5.079,-38.291
'[18:43:41.836 06/11/2076]',-15.238,-8.205,-40.635,-8.596,9.377,-48.059,-29.695,-5.079,25.788,-37.900,-32.821,-5.079,-7.814,-12.894,-32.430,3.907,-54.701,-40.635,41.416,19.927,-13.675,-9.768,-32.430
'[18:43:41.840 06/11/2076]',-16.410,-12.503,-42.979,-13.284,-0.391,-48.449,-24.225,-13.284,17.192,-33.211,-25.788,0.391,-0.781,-23.443,-28.132,10.549,-55.873,-35.165,43.761,20.317,-21.490,-14.847,-28.132
'[18:43:41.844 06/11/2076]',-8.596,-10.159,-48.449,-17.582,-2.735,-50.012,-29.304,-2.735,1.954,-29.695,-19.927,0.781,-11.722,-20.708,-12.894,-1.172,-53.138,-35.556,49.231,7.424,-29.304,-14.457,-12.894
'[18:43:41.848 06/11/2076]',2.344,-12.894,-46.496,-21.099,1.172,-49.231,-28.523,-1.954,-15.238,-24.225,-15.238,8.987,-21.490,-14.457,-9.768,-0.391,-46.886,-26.960,47.277,7.033,-30.085,-10.159,-9.768
'[18:43:41.852 06/11/2076]',13.675,-15.629,-57.045,-11.331,1.563,-51.575,-12.503,-7.424,-29.304,-19.927,-17.192,16.801,-22.271,-4.689,-32.821,8.205,-37.900,-19.536,57.827,1.172,-15.629,0.781,-32.821
'[18:43:41.855 06/11/2076]',15.629,-13.675,-43.370,-21.099,-3.516,-47.277,-6.252,-5.079,-29.304,-15.238,-12.894,-3.126,-24.615,11.331,-34.774,-13.675,-25.006,-16.801,44.151,-7.424,-8.987,10.940,-34.774
'[18:43:41.859 06/11/2076]',17.973,-15.629,-38.291,-25.006,-5.861,-34.774,-9.768,-9.768,-16.410,-11.331,-9.768,-7.033,-16.801,16.410,-28.913,-16.020,-14.066,-14.066,39.072,1.172,-12.503,8.596,-28.913
'[18:43:41.863 06/11/2076]',19.536,-23.443,-41.026,-29.304,-11.722,-25.788,-12.503,-23.834,-10.159,-12.112,-6.252,-6.252,-4.298,3.126,-32.039,-3.126,-10.940,-9.768,41.807,19.145,-29.695,1.172,-32.039
'[18:43:41.867 06/11/2076]',19.145,-10.940,-42.979,-30.867,-15.629,-20.317,-7.814,-22.271,-12.503,-5.079,-1.172,-16.801,1.172,-12.894,-14.847,-10.159,-5.861,-9.377,43.761,12.503,-33.211,-16.410,-14.847
'[18:43:41.871 06/11/2076]',36.337,-12.503,-36.728,-32.039,3.126,-9.377,-14.457,-25.006,-5.470,-1.563,-0.781,-7.814,7.424,-15.629,-8.987,0.391,-1.172,-14.847,37.509,19.536,-34.774,-19.145,-8.987
'[18:43:41.875 06/11/2076]',52.357,-7.033,-37.118,-31.648,20.708,-7.033,-8.596,-29.695,-3.126,-1.954,0.391,12.112,17.973,-22.271,-15.238,25.788,3.907,-16.801,37.900,15.238,-32.430,-19.927,-15.238
'[18:43:41.879 06/11/2076]',51.184,-0.391,-33.993,-27.741,19.145,-2.735,-1.563,-26.178,1.172,-3.516,3.516,-3.907,21.880,-16.020,-18.364,10.159,11.722,-16.410,34.774,4.298,-24.225,-15.629,-18.364
'[18:43:41.883 06/11/2076]',37.509,-3.126,-20.708,-26.960,-2.344,15.629,-4.689,-22.662,0.391,0.391,5.079,-20.708,14.066,-2.344,-16.020,-8.596,17.973,-14.066,21.490,7.033,-23.053,-8.987,-16.020
'[18:43:41.887 06/11/2076]',23.443,-7.033,-21.490,-25.788,-21.099,18.755,-3.126,-26.178,-4.298,-1.563,5.079,1.172,9.377,-0.781,-21.490,13.284,17.973,-10.159,22.271,12.894,-24.225,-8.205,-21.490
'[18:43:41.891 06/11/2076]',11.331,-10.159,-28.132,-19.536,-39.463,17.192,4.298,-30.476,-8.987,-1.172,2.735,8.987,10.159,-5.079,-25.006,22.271,16.020,-8.205,28.913,22.271,-23.443,-8.987,-25.006
'[18:43:41.895 06/11/2076]',12.503,-4.298,-37.118,-17.582,-47.668,22.662,0.391,-22.662,-14.457,-1.172,3.126,-15.629,-4.298,7.814,-23.053,-8.205,15.238,-16.020,37.900,13.675,-16.801,-3.907,-23.053
'[18:43:41.898 06/11/2076]',26.178,-0.781,-36.337,-22.662,-16.801,8.596,-4.689,-21.490,-22.662,1.172,3.516,-23.834,-14.066,14.066,-25.006,-17.192,14.457,-18.364,37.118,18.364,-19.145,0.000,-25.006
'[18:43:41.902 06/11/2076]',50.794,3.126,-42.979,-17.973,25.006,-8.987,3.516,-26.569,-7.424,4.298,1.563,-17.192,7.033,0.781,-22.271,-3.907,14.457,-17.582,43.761,17.192,-19.145,-4.689,-22.271
'[18:43:41.906 06/11/2076]',50.794,1.954,-40.244,-13.284,35.556,-15.238,4.689,-25.788,2.344,10.159,0.391,-23.053,21.490,-3.126,-20.708,-6.252,16.020,-20.708,41.026,19.536,-16.410,-4.689,-20.708
'[18:43:41.910 06/11/2076]',34.383,0.000,-29.695,-17.973,27.741,-21.490,-3.907,-15.238,-3.126,14.066,-4.298,-23.834,15.629,-0.781,-16.410,-15.629,17.582,-23.443,30.476,15.629,-8.596,-6.642,-16.410
'[18:43:41.914 06/11/2076]',18.755,-1.563,-24.615,-12.503,12.112,-28.132,-3.907,0.000,-9.377,14.457,-10.549,-21.490,7.814,3.516,-15.238,-23.053,19.536,-21.099,25.397,1.563,5.470,-5.079,-15.238
'[18:43:41.918 06/11/2076]',7.814,-1.172,-23.053,-9.377,-4.689,-24.615,7.424,-5.079,-10.940,12.894,-3.907,-16.410,8.987,9.377,-21.490,-16.020,23.834,-14.847,23.834,4.298,7.033,-0.391,-21.490
'[18:43:41.922 06/11/2076]',10.549,1.954,-14.457,-17.582,-8.205,-16.020,14.847,-10.159,-14.847,14.066,8.596,-23.834,1.172,19.536,-19.536,-16.801,27.350,-7.424,15.238,7.424,-1.172,1.954,-19.536
'[18:43:41.926 06/11/2076]',29.695,5.470,-19.536,-12.112,7.033,-8.987,11.331,-6.642,-14.847,10.549,16.410,-3.907,5.079,7.814,-11.722,7.424,28.132,-0.391,20.317,12.112,-21.880,-3.516,-11.722
'[18:43:41.930 06/11/2076]',34.774,11.331,-25.788,-7.424,11.331,-7.424,18.755,-10.159,-17.582,12.894,22.662,-1.563,11.331,5.079,-14.457,14.847,28.913,7.033,26.569,16.410,-32.821,-2.735,-14.457
'[18:43:41.934 06/11/2076]',31.648,4.689,-16.801,-5.470,3.516,1.954,14.457,-6.252,-33.602,17.973,24.615,-9.768,1.563,-6.252,0.000,5.079,29.695,10.159,17.582,22.662,-36.337,-15.629,0.000
'[18:43:41.938 06/11/2076]',23.053,5.079,-15.238,-3.907,-7.814,6.642,10.940,-1.563,-39.072,17.973,19.145,5.079,-1.172,-13.675,3.907,14.847,29.304,9.377,16.020,17.973,-32.430,-17.973,3.907
'[18:43:41.941 06/11/2076]',1.563,6.252,-3.907,-3.907,-27.741,10.549,16.410,0.781,-29.304,11.331,14.847,21.490,3.126,-4.689,-8.596,29.695,25.397,10.940,4.689,16.801,-23.053,-7.814,-8.596
'[18:43:41.945 06/11/2076]',-1.172,4.298,-3.126,-6.252,-32.821,10.159,15.238,0.391,-17.192,0.391,11.722,-3.516,-0.781,3.126,-14.066,3.126,20.317,8.987,3.907,17.582,-18.755,-4.689,-14.066
'[18:43:41.949 06/11/2076]',2.344,0.391,1.954,-12.503,-29.304,5.470,10.549,5.079,-5.079,-8.987,9.768,-20.317,-0.781,1.563,-8.596,-16.410,15.238,6.252,-1.172,12.503,-8.987,-8.205,-8.596
'[18:43:41.953 06/11/2076]',1.563,1.563,-5.470,-14.066,-28.132,0.391,15.629,-3.907,8.205,-7.814,7.424,-1.954,20.708,-10.940,-7.033,3.907,10.549,8.596,6.252,11.331,-1.563,-16.020,-7.033
'[18:43:41.957 06/11/2076]',6.642,-6.252,0.781,-15.629,-17.192,0.781,19.927,-17.973,2.735,1.172,6.642,1.563,26.178,-27.350,0.781,14.066,8.596,10.940,0.000,19.145,3.516,-25.006,0.781
'[18:43:41.961 06/11/2076]',4.689,-3.126,8.987,-19.927,-12.894,8.205,9.768,-14.066,-21.880,9.377,8.596,-15.238,-1.563,-22.271,10.549,-4.689,9.768,6.642,-8.205,13.675,3.907,-23.053,10.549
'[18:43:41.965 06/11/2076]',-6.252,-1.172,5.470,-16.801,-23.834,17.192,1.954,-14.066,-25.788,8.205,4.689,-15.629,-15.629,-18.755,12.894,-6.252,10.159,8.205,-4.689,12.112,-0.781,-19.927,12.894
'[18:43:41.969 06/11/2076]',-14.457,-3.907,10.159,-13.675,-29.304,18.755,12.894,-25.397,-38.291,10.159,4.298,-8.596,-25.006,-16.801,5.861,4.298,10.549,13.284,-9.377,15.238,-1.563,-13.675,5.861
'[18:43:41.973 06/11/2076]',-11.331,-6.252,8.987,-10.940,-18.364,16.020,12.503,-28.913,-41.416,2.735,0.781,-17.192,-44.933,-4.298,-0.391,-3.907,14.847,7.033,-8.205,10.159,1.954,-4.298,-0.391
'[18:43:41.977 06/11/2076]',-21.880,-3.126,6.642,-9.377,-22.271,3.907,4.298,-13.675,-15.238,2.344,-8.205,-16.020,-31.648,16.410,-3.126,-18.364,13.675,0.391,-5.861,-7.814,13.675,5.470,-3.126
'[18:43:41.980 06/11/2076]',-21.880,-5.470,10.940,-12.112,-15.238,0.391,8.596,-22.662,3.126,7.033,-7.424,-10.940,-12.503,22.662,-5.861,-12.112,16.410,1.563,-10.159,-10.940,21.490,8.596,-5.861
'[18:43:41.984 06/11/2076]',-17.582,-5.079,7.033,-12.503,-6.252,1.954,7.424,-32.039,13.284,5.079,-4.298,-23.443,-9.377,13.675,0.391,-13.675,14.457,3.126,-6.252,-4.689,7.814,0.781,0.391
'[18:43:41.988 06/11/2076]',-17.582,-1.172,6.642,-14.066,-2.344,5.470,-1.563,-28.523,19.927,-1.563,-1.954,-19.145,-9.768,16.801,-6.642,-2.344,5.470,-3.907,-5.861,-4.298,-6.642,6.642,-6.642
'[18:43:41.992 06/11/2076]',-21.099,0.391,3.126,-12.503,-2.735,4.689,-2.344,-31.648,17.192,-6.252,0.781,-3.907,-5.079,-10.159,6.252,16.410,1.172,-7.424,-2.344,1.954,-15.238,-11.331,6.252
'[18:43:41.996 06/11/2076]',-23.443,1.954,-1.954,-4.689,3.907,1.563,-1.954,-32.039,11.722,-10.549,1.563,-10.940,-12.503,-21.490,14.066,12.894,0.391,-10.159,2.735,4.689,-20.317,-19.536,14.066
'[18:43:42.000 06/11/2076]',-26.178,6.642,1.563,-1.954,7.814,-3.907,-3.516,-21.880,7.814,-12.503,0.391,-19.536,-19.927,-17.973,14.066,0.391,0.391,-14.457,-0.781,-2.344,-16.801,-14.457,14.066
'[18:43:42.004 06/11/2076]',-29.695,0.391,11.722,0.781,12.503,-6.642,0.000,-22.271,9.377,-11.331,1.172,0.391,-9.377,-20.317,13.675,15.629,0.781,-11.722,-10.940,4.689,-6.252,-10.940,13.675
'[18:43:42.008 06/11/2076]',-28.132,4.298,0.000,5.470,8.205,-1.563,3.907,-29.304,7.424,-11.722,3.516,17.973,-0.781,-32.039,16.410,33.993,0.781,-3.907,0.781,4.298,-3.126,-15.238,16.410
'[18:43:42.012 06/11/2076]',-34.774,0.781,5.861,6.642,-5.079,3.126,-1.172,-17.582,-8.987,-15.629,5.861,-1.954,-17.973,-17.973,4.298,10.940,-2.735,-2.735,-5.079,3.516,3.907,-5.470,4.298
'[18:43:42.016 06/11/2076]',-44.933,0.391,0.781,10.159,-22.662,3.907,-6.642,-8.205,-11.331,-21.880,3.907,-8.205,-21.099,-10.549,-3.907,-1.172,-6.252,0.391,0.000,-0.391,16.410,-3.907,-3.907
'[18:43:42.020 06/11/2076]',-46.496,0.781,-3.126,10.549,-33.602,5.470,-0.391,-10.549,-3.516,-17.973,1.954,9.377,-5.470,-19.536,-2.344,17.192,-3.907,3.516,3.907,-1.172,20.317,-13.284,-2.344
'[18:43:42.023 06/11/2076]',-41.807,-6.642,3.126,9.377,-30.085,5.861,3.907,-15.238,-0.781,-12.894,0.781,8.596,0.391,-21.099,-5.861,21.490,-4.298,4.298,-2.344,7.033,22.271,-14.066,-5.861
'[18:43:42.027 06/11/2076]',-40.244,-15.238,8.987,12.503,-27.741,3.907,-5.079,-5.079,-3.907,-10.940,-4.689,3.907,-4.298,-14.066,-7.424,9.377,-7.814,-0.391,-8.205,9.377,29.304,-9.377,-7.424
'[18:43:42.031 06/11/2076]',-31.258,-10.549,10.549,11.722,-19.145,2.344,-5.861,3.516,-1.563,-7.814,-8.987,10.940,-6.252,-6.642,-3.516,8.205,-8.205,0.391,-9.768,-0.781,33.602,-2.344,-3.516
'[18:43:42.035 06/11/2076]',-30.085,-10.940,10.159,14.847,-17.192,4.298,-0.391,-2.735,0.391,-6.642,-13.675,8.596,-3.126,-4.298,-9.377,5.470,-8.596,1.563,-9.377,2.344,44.151,0.781,-9.377
'[18:43:42.039 06/11/2076]',-43.370,-13.284,10.549,16.801,-32.430,0.391,0.781,2.344,-3.126,-8.205,-22.271,13.284,-4.689,4.689,-19.536,-0.781,-11.722,-6.642,-9.768,-1.954,59.389,10.549,-19.536
'[18:43:42.043 06/11/2076]',-50.403,-6.642,14.847,10.159,-41.807,0.781,-7.424,16.801,-3.516,-5.470,-25.397,8.205,-8.987,17.582,-19.145,-16.801,-5.079,-14.066,-14.066,-14.457,61.734,19.536,-19.145
'[18:43:42.047 06/11/2076]',-47.668,-3.126,12.112,-1.954,-38.681,4.689,-9.377,2.735,-7.424,-1.172,-19.145,-4.298,-3.516,11.722,-16.020,-24.615,-1.954,-13.284,-11.331,-7.424,51.575,14.847,-16.020
'[18:43:42.051 06/11/2076]',-35.946,-7.033,4.298,-1.172,-28.132,2.344,-13.675,-0.781,-23.834,1.172,-12.112,-12.503,-6.642,-5.470,-12.503,-22.662,-5.861,-16.410,-3.516,4.298,29.304,6.252,-12.503
'[18:43:42.055 06/11/2076]',-12.503,-9.768,-0.391,-2.735,-8.987,0.781,-20.708,2.735,-31.648,5.470,-7.424,-12.503,-11.722,-6.642,-9.768,-18.755,-7.424,-19.927,1.172,3.907,14.847,7.033,-9.768
'[18:43:42.059 06/11/2076]',1.954,-11.331,-4.298,-1.954,7.033,-1.954,-18.364,-2.344,-19.536,-1.172,-6.252,-1.563,-11.331,-16.801,2.344,-3.126,-10.159,-24.225,5.079,10.159,7.424,-2.735,2.344
'[18:43:42.063 06/11/2076]',9.377,-10.940,-7.424,-2.344,10.940,-6.642,-16.020,0.000,-1.954,-6.252,-12.503,-15.629,-11.331,-9.377,-0.781,-15.629,-14.457,-27.350,8.205,9.768,1.563,-0.391,-0.781
'[18:43:42.066 06/11/2076]',-1.172,-17.192,-5.079,-2.735,-1.172,-4.689,-24.615,3.516,10.549,-12.112,-18.364,-30.867,-16.020,6.252,-3.126,-39.072,-16.020,-30.085,5.861,10.159,5.470,6.642,-3.126
'[18:43:42.070 06/11/2076]',-8.987,-13.675,2.344,-12.503,-3.126,-7.033,-19.536,-2.344,21.490,-13.284,-17.192,-17.192,-6.252,5.861,0.781,-27.350,-17.973,-26.569,-1.563,11.331,2.735,9.377,0.781
'[18:43:42.074 06/11/2076]',-9.377,-10.549,-1.172,-14.457,-5.861,-4.689,-14.066,-11.331,16.410,-7.424,-15.238,-4.298,4.298,4.689,-7.814,-12.112,-18.364,-19.927,1.954,14.457,-2.735,16.410,-7.814
'[18:43:42.078 06/11/2076]',-20.708,-7.033,-8.987,-11.331,-17.192,-8.205,-17.582,-5.079,-8.596,-1.172,-9.377,-23.053,-8.987,8.205,-2.735,-40.244,-18.755,-16.410,9.768,6.252,5.079,12.503,-2.735
'[18:43:42.082 06/11/2076]',-21.490,0.000,-11.722,-12.112,-20.317,-10.159,-17.582,2.344,-17.973,6.252,-5.470,-31.258,-13.284,10.549,5.079,-51.966,-12.894,-10.159,12.503,-1.563,5.861,7.033,5.079
'[18:43:42.086 06/11/2076]',-11.331,-4.689,-9.768,-11.331,-14.457,-6.642,-10.549,-7.033,-18.364,9.377,0.391,-13.675,-1.563,5.861,1.563,-28.132,-5.079,-3.516,10.549,9.768,0.391,4.298,1.563
'[18:43:42.090 06/11/2076]',-5.470,-11.722,-13.675,-8.596,-16.020,-5.079,-6.642,-11.722,-21.490,11.331,1.563,-5.861,1.172,1.172,-1.563,-16.410,-1.954,0.781,14.457,15.238,-2.735,-2.344,-1.563
'[18:43:42.094 06/11/2076]',-2.344,-18.364,-6.252,-7.814,-18.364,-7.033,-15.238,3.907,-24.615,9.768,-0.781,-3.126,-3.907,8.205,-1.954,-22.662,1.954,-1.172,7.033,12.894,-4.298,0.391,-1.954
'[18:43:42.098 06/11/2076]',3.126,-15.238,3.907,-13.284,-19.145,-4.689,-9.377,12.503,-28.132,7.033,0.000,6.252,1.563,8.596,-6.252,-19.536,5.470,3.126,-3.126,5.079,-0.781,5.079,-6.252
'[18:43:42.102 06/11/2076]',6.252,-19.145,5.470,-5.470,-29.695,-3.516,8.205,13.675,-46.496,18.755,-3.907,16.801,0.391,8.596,-13.284,-11.722,11.722,12.894,-4.689,2.344,6.642,6.642,-13.284
'[18:43:42.105 06/11/2076]',2.344,-12.503,1.954,-5.470,-32.821,-5.079,9.377,16.020,-48.840,25.397,-5.861,1.172,-1.172,22.271,-12.894,-36.728,17.973,14.457,-1.172,-7.424,16.410,12.112,-12.894
'[18:43:42.109 06/11/2076]',12.894,5.861,1.954,-16.020,-17.192,3.126,10.940,8.987,-32.430,27.350,-1.172,0.781,14.066,17.192,-4.689,-32.821,23.834,14.457,-1.172,-12.894,10.549,5.470,-4.689
'[18:43:42.113 06/11/2076]',19.927,10.549,-10.549,-12.894,-7.033,7.033,9.768,-3.126,-22.271,22.662,-1.563,3.516,16.801,10.549,-4.298,-21.099,22.662,18.364,11.331,-3.126,-6.252,-1.954,-4.298
'[18:43:42.117 06/11/2076]',16.020,9.377,-14.847,-16.410,-6.252,7.033,4.689,-11.722,-8.596,17.192,-5.079,-9.768,18.364,19.145,-16.020,-28.523,19.145,14.457,15.629,-0.781,-12.112,3.126,-16.020
'[18:43:42.121 06/11/2076]',13.675,17.582,1.172,-21.490,-5.079,10.159,7.033,-1.172,8.205,4.298,-6.642,5.079,25.397,14.457,-19.927,-9.768,15.238,7.424,-0.391,-5.861,-14.847,4.298,-19.927
'[18:43:42.125 06/11/2076]',8.987,3.516,8.987,-17.973,-11.722,7.033,8.596,0.391,14.847,-7.814,-9.768,25.006,26.960,9.377,-25.006,9.768,8.205,2.344,-8.205,1.563,-14.457,3.516,-25.006
'[18:43:42.129 06/11/2076]',3.907,1.172,4.689,-12.112,-15.629,-0.391,8.205,5.861,16.801,-13.284,-12.112,10.159,17.582,22.662,-33.211,-6.642,1.954,-2.344,-3.907,-2.344,-11.722,12.894,-33.211
'[18:43:42.133 06/11/2076]',5.470,5.079,4.298,-10.940,-8.987,-5.079,5.861,12.894,15.629,-21.490,-8.205,0.391,6.642,17.582,-17.973,-21.099,-3.516,-5.861,-3.516,-1.954,-12.503,1.954,-17.973
'[18:43:42.137 06/11/2076]',15.629,3.907,-10.940,-10.940,-0.391,-11.331,5.079,5.079,4.689,-21.099,-6.642,26.960,5.470,-13.284,0.391,10.159,-11.722,-3.126,11.722,3.516,-26.569,-22.271,0.391
'[18:43:42.141 06/11/2076]',14.457,0.391,-25.006,-8.205,-8.596,-12.503,7.814,-4.689,-3.516,-18.755,-5.079,40.635,6.252,-19.927,-4.689,30.476,-19.145,0.391,25.788,11.331,-37.900,-23.443,-4.689
'[18:43:42.145 06/11/2076]',14.457,-4.298,-15.238,-17.973,-10.549,-8.987,-1.172,-1.954,-19.536,-20.708,0.391,21.880,-11.722,-14.457,-5.079,13.284,-23.834,-1.172,16.020,12.894,-45.324,-20.317,-5.079
'[18:43:42.148 06/11/2076]',25.788,-5.079,-12.112,-17.973,0.391,-7.814,-9.377,7.424,-26.960,-21.099,3.516,22.271,-19.536,-7.814,-8.596,13.284,-26.960,0.391,12.894,11.331,-57.436,-12.112,-8.596
'[18:43:42.152 06/11/2076]',27.741,-8.205,-15.238,-12.503,5.861,-10.549,-6.252,1.563,-30.476,-19.536,6.252,33.993,-16.020,-10.549,-13.675,31.258,-27.350,5.079,16.020,15.629,-66.813,-8.987,-13.675
'[18:43:42.156 06/11/2076]',27.741,0.781,-9.377,-16.020,15.629,-10.549,-3.126,0.391,-30.085,-15.629,12.503,30.867,-18.755,-9.377,-4.689,30.476,-24.615,6.642,10.159,5.079,-70.720,-4.298,-4.689
'[18:43:42.160 06/11/2076]',28.523,12.894,-11.331,-20.708,17.973,-10.940,-10.549,12.112,-26.178,-16.801,12.894,32.821,-25.397,-1.563,6.642,22.662,-22.271,7.814,12.112,-9.768,-71.893,-1.563,6.642
'[18:43:42.164 06/11/2076]',23.053,12.503,-14.847,-16.020,10.549,-18.364,-9.768,22.271,-24.225,-12.894,5.861,40.244,-30.867,1.954,19.927,17.192,-20.317,12.894,15.629,-25.006,-58.999,-4.298,19.927
'[18:43:42.168 06/11/2076]',17.973,10.159,-12.503,-19.536,0.781,-15.238,0.781,9.377,-16.801,-9.768,7.814,26.178,-26.178,12.112,11.722,9.377,-15.629,19.536,13.284,-24.225,-49.231,1.954,11.722
'[18:43:42.172 06/11/2076]',25.006,9.377,-15.629,-22.271,5.861,-8.205,-2.344,2.735,-4.298,-13.284,6.642,16.410,-23.053,21.099,3.516,3.126,-12.894,17.192,16.410,-17.973,-52.357,7.814,3.516
'[18:43:42.176 06/11/2076]',30.085,5.079,-15.238,-12.894,7.814,-3.907,-3.126,6.642,-0.391,-15.629,3.907,35.946,-18.755,9.768,6.252,25.788,-14.066,15.629,16.020,-9.377,-60.562,3.126,6.252
'[18:43:42.180 06/11/2076]',25.788,5.079,-15.629,-12.894,2.735,0.781,0.391,-2.344,3.907,-16.020,5.079,26.569,-12.503,3.516,2.344,25.397,-13.675,16.801,16.410,-1.172,-67.985,2.735,2.344
'[18:43:42.184 06/11/2076]',31.648,7.424,-19.536,-9.377,7.814,7.033,-3.516,-1.954,9.768,-16.020,5.861,15.238,-12.112,6.642,3.907,15.629,-12.503,16.410,20.317,0.391,-74.237,4.298,3.907
'[18:43:42.188 06/11/2076]',33.211,12.503,-31.258,-8.205,8.205,2.735,-3.516,-1.954,7.033,-12.503,3.907,34.774,-9.768,-0.781,13.284,30.085,-13.675,15.238,32.039,-2.735,-76.972,0.000,13.284
'[18:43:42.191 06/11/2076]',28.523,8.987,-24.225,-12.503,4.689,4.298,0.000,-8.596,3.126,-5.861,2.344,46.496,-3.516,-4.298,10.549,42.589,-14.066,15.238,25.006,0.391,-69.939,-0.391,10.549
'[18:43:42.195 06/11/2076]',24.225,9.377,-30.085,-6.642,1.563,7.424,-6.642,-5.861,1.563,-8.596,4.298,20.708,-7.814,7.814,1.954,16.020,-14.457,11.331,30.867,2.344,-67.204,7.814,1.954
'[18:43:42.199 06/11/2076]',17.582,16.020,-16.020,-13.284,0.391,4.298,-8.205,7.814,1.954,-11.722,3.126,12.503,-14.847,15.238,1.954,3.126,-16.410,8.987,16.801,-4.298,-65.641,12.503,1.954
'[18:43:42.203 06/11/2076]',16.020,7.814,-3.516,-6.642,4.298,6.252,-7.424,9.377,2.735,-9.768,0.391,35.165,-5.470,0.000,7.814,26.569,-17.582,13.284,4.298,5.470,-61.343,5.470,7.814
'[18:43:42.207 06/11/2076]',16.801,1.954,1.563,-6.642,6.642,8.596,-3.516,0.781,5.470,-9.377,3.516,36.337,1.954,7.814,-7.033,33.993,-18.755,18.755,-0.781,14.847,-60.952,17.192,-7.033
'[18:43:42.211 06/11/2076]',16.410,1.563,0.391,-10.159,4.298,11.331,-11.722,3.907,-3.907,-2.344,5.079,19.536,-7.814,8.205,0.781,17.192,-17.192,17.973,0.391,8.596,-59.780,12.503,0.781
'[18:43:42.215 06/11/2076]',13.675,-2.735,0.391,-5.861,-0.781,12.503,-19.145,12.894,-16.410,3.907,4.689,21.880,-17.973,10.940,7.814,12.112,-11.331,19.927,0.391,6.252,-54.701,11.722,7.814
'[18:43:42.219 06/11/2076]',10.159,-12.112,0.781,-0.781,-14.457,15.238,-10.549,7.424,-21.880,7.033,6.252,25.397,-15.238,27.350,-8.596,14.066,-1.954,21.880,0.000,10.159,-45.714,24.225,-8.596
'[18:43:42.223 06/11/2076]',8.987,-15.238,-0.391,0.391,-23.053,14.066,-7.814,11.722,-23.053,10.940,6.252,16.801,-14.066,42.979,-19.536,0.391,6.252,14.847,1.172,0.781,-30.085,36.337,-19.536
'[18:43:42.227 06/11/2076]',1.172,-10.549,4.298,2.344,-25.397,0.781,-10.159,33.993,-13.675,2.735,0.000,25.397,-15.238,48.840,-7.424,-12.503,10.549,7.424,-3.516,-12.894,-8.596,30.085,-7.424
'[18:43:42.230 06/11/2076]',-5.079,-6.252,0.391,0.391,-30.867,1.954,-6.252,24.615,-2.344,5.079,-3.126,32.430,1.563,33.993,1.954,-6.252,15.629,10.549,0.391,-11.722,-1.172,14.847,1.954
'[18:43:42.234 06/11/2076]',-9.377,0.391,3.126,-12.112,-26.569,1.172,1.563,5.861,-4.298,8.987,2.344,6.642,5.079,25.006,4.689,-21.099,18.364,11.722,-2.344,-9.377,1.563,7.814,4.689
'[18:43:42.238 06/11/2076]',-14.066,4.689,10.159,-8.987,-20.708,3.907,-0.391,8.205,-12.503,10.549,3.907,9.768,2.344,9.377,9.377,-10.549,16.410,7.033,-9.377,-0.781,-2.735,-1.172,9.377
'[18:43:42.242 06/11/2076]',-7.424,4.298,14.847,-10.159,-1.172,7.424,-7.033,1.563,-20.708,15.629,1.563,17.973,4.298,-4.689,13.284,0.781,17.582,0.391,-14.066,6.642,-3.907,-5.861,13.284
'[18:43:42.246 06/11/2076]',3.907,-1.954,13.675,-9.377,14.457,3.126,-8.205,-3.126,-60.952,21.099,4.689,-1.172,-21.490,-7.814,7.424,-14.847,16.410,-4.689,-12.894,11.722,-2.344,-0.391,7.424
'[18:43:42.250 06/11/2076]',1.954,-4.298,8.205,-5.861,10.940,3.126,-16.801,3.126,-61.734,25.788,2.344,-13.284,-17.973,1.563,-3.516,-27.741,17.973,-13.675,-7.424,10.549,3.516,6.642,-3.516
'[18:43:42.254 06/11/2076]',-2.735,-10.549,10.159,-6.642,2.344,6.252,-19.927,0.000,-18.755,21.880,0.781,3.126,8.596,19.927,-8.205,-12.112,24.225,-16.410,-9.377,12.503,10.549,14.457,-8.205
'[18:43:42.258 06/11/2076]',1.172,-12.894,1.563,-4.298,-3.126,10.940,-11.722,-11.722,8.987,22.271,2.735,10.940,25.788,37.900,-20.317,1.563,30.867,-14.066,-0.781,11.331,16.801,25.788,-20.317
'[18:43:42.262 06/11/2076]',-18.364,-7.424,7.033,1.172,-32.039,19.536,-5.470,0.391,16.801,23.834,4.689,-10.940,24.615,61.343,-31.648,-18.755,34.383,-13.284,-6.252,4.689,24.615,37.900,-31.648
'[18:43:42.266 06/11/2076]',-41.807,-7.424,22.662,8.205,-53.919,23.443,-3.516,14.457,21.099,23.053,3.907,-16.020,21.880,55.482,-15.629,-28.132,36.728,-10.159,-21.880,4.298,29.304,26.569,-15.629
'[18:43:42.270 06/11/2076]',-33.211,1.172,20.708,8.987,-37.509,22.662,7.814,4.689,6.252,27.350,5.079,0.000,21.490,21.490,7.424,-11.722,35.946,0.781,-19.927,7.814,22.271,4.298,7.424
'[18:43:42.273 06/11/2076]',-18.755,7.033,23.053,6.642,-26.178,26.960,16.020,1.954,-13.284,22.271,10.159,3.516,15.629,-9.377,18.364,-1.563,30.476,7.814,-22.271,10.549,10.549,-12.112,18.364
'[18:43:42.277 06/11/2076]',-16.020,0.391,28.523,4.689,-16.020,24.615,0.391,7.424,23.443,14.457,6.252,4.298,35.946,-6.642,28.132,-8.596,26.960,3.126,-27.741,14.066,5.470,-14.066,28.132
'[18:43:42.281 06/11/2076]',12.112,1.172,28.523,3.516,17.973,17.973,-0.391,10.549,43.370,10.159,5.079,7.033,45.714,9.377,23.834,-12.894,28.132,5.470,-27.741,9.377,8.987,-3.516,23.834
'[18:43:42.285 06/11/2076]',19.927,-5.079,27.350,7.033,25.788,10.159,7.424,4.689,35.165,17.582,5.861,5.079,44.151,22.271,10.159,-12.503,30.476,8.987,-26.569,8.596,21.099,5.470,10.159
'[18:43:42.289 06/11/2076]',3.126,-7.033,27.741,15.238,18.364,3.907,7.814,7.814,19.927,32.821,3.516,8.987,42.198,33.993,7.033,-16.801,34.774,6.642,-26.960,2.735,39.072,15.629,7.033
'[18:43:42.293 06/11/2076]',0.391,-1.563,38.291,13.284,19.927,0.391,8.987,19.927,0.391,39.463,8.205,8.205,21.490,52.747,7.424,-26.178,39.853,11.722,-37.509,-3.126,49.621,25.006,7.424
'[18:43:42.297 06/11/2076]',-4.689,8.596,37.509,11.331,14.457,5.470,13.675,17.973,-11.331,37.900,16.410,10.159,14.457,44.542,14.066,-19.927,38.681,23.443,-36.728,-3.126,46.105,20.317,14.066
'[18:43:42.301 06/11/2076]',-3.126,14.457,34.774,13.284,14.847,12.112,9.768,21.880,-0.781,27.350,19.536,7.424,12.894,33.602,20.708,-13.675,30.085,28.913,-33.993,0.000,30.476,12.894,20.708
'[18:43:42.305 06/11/2076]',0.000,17.582,24.615,12.503,16.801,11.722,1.563,24.225,9.377,17.582,19.536,10.159,13.284,28.523,21.490,-6.642,23.053,28.132,-23.834,-0.391,22.271,9.377,21.490
'[18:43:42.309 06/11/2076]',1.172,10.159,18.364,8.596,14.457,11.331,-1.563,14.847,4.298,15.238,16.410,19.927,19.927,26.178,3.516,7.033,16.801,20.708,-17.582,5.079,21.880,18.364,3.516
'[18:43:42.313 06/11/2076]',-4.298,5.079,11.722,10.940,7.814,12.503,-7.814,11.331,1.954,13.675,12.503,0.391,16.801,21.880,3.516,-12.894,14.847,12.894,-10.940,5.470,20.708,17.582,3.516
'[18:43:42.316 06/11/2076]',-8.987,10.940,-1.563,8.596,5.079,10.549,-15.629,7.424,13.675,16.410,7.814,-21.880,21.099,39.853,-5.470,-39.072,16.020,3.516,2.344,-1.954,23.834,26.960,-5.470
'[18:43:42.320 06/11/2076]',-4.298,7.814,8.205,3.126,10.549,16.801,-13.284,0.781,20.708,19.536,6.642,-5.861,30.867,51.184,-16.020,-23.834,18.364,1.172,-7.424,-0.391,31.648,39.072,-16.020
'[18:43:42.324 06/11/2076]',2.344,9.768,0.781,4.298,3.907,29.304,-8.596,-7.424,17.192,17.582,4.298,3.907,35.165,12.112,4.689,-7.814,19.145,0.391,0.000,0.391,26.178,13.284,4.689
'[18:43:42.328 06/11/2076]',0.391,10.549,-6.642,2.735,-12.112,36.728,-15.238,-3.126,4.298,19.536,2.735,-17.973,20.708,7.814,13.675,-32.821,20.708,-4.689,7.424,-7.814,28.913,6.252,13.675
'[18:43:42.332 06/11/2076]',-0.391,-4.298,1.172,-1.172,-23.443,42.589,-23.443,-1.172,-21.880,22.662,2.735,-26.569,3.516,4.298,14.457,-45.324,21.099,-6.642,-0.391,-2.735,34.774,5.861,14.457
'[18:43:42.336 06/11/2076]',-0.391,-10.549,-4.689,-5.079,-27.741,37.118,-14.457,-16.410,-29.304,18.755,3.516,-12.503,19.536,-20.708,6.252,-24.225,19.145,-4.689,5.470,10.940,20.317,4.298,6.252
'[18:43:42.340 06/11/2076]',-16.020,-13.675,-1.172,-4.298,-34.774,28.132,-12.112,-18.755,1.563,17.192,2.735,-6.642,49.621,-22.662,6.252,-17.582,16.020,-5.470,1.954,16.801,14.847,5.470,6.252
'[18:43:42.344 06/11/2076]',-2.344,-5.470,4.689,-8.987,0.000,14.066,-20.317,-6.642,26.569,14.066,-7.424,-3.126,55.482,-0.781,-1.563,-22.271,9.377,-10.940,-3.907,13.284,17.582,14.847,-1.563
'[18:43:42.348 06/11/2076]',8.987,0.391,2.735,-8.987,15.629,3.907,-17.973,1.563,42.198,3.907,-13.675,3.907,58.217,4.298,-8.205,-17.973,2.344,-10.940,-1.954,8.987,17.973,14.457,-8.205
'[18:43:42.352 06/11/2076]',4.298,2.735,-0.781,-5.079,11.331,-5.470,-7.424,2.735,33.602,9.377,-23.443,8.205,49.231,2.344,-8.205,-15.238,-3.907,-9.377,1.563,4.298,23.443,5.861,-8.205
'[18:43:42.355 06/11/2076]',14.066,2.344,-2.735,-12.894,25.788,-17.582,-10.159,2.344,13.675,9.377,-28.523,-14.847,22.271,7.033,-10.549,-38.291,-8.987,-19.927,3.516,-2.344,34.383,0.391,-10.549
'[18:43:42.359 06/11/2076]',23.053,4.298,-14.457,-21.490,37.118,-24.615,-13.675,-6.252,-7.033,4.689,-29.304,-16.801,7.033,2.735,-23.834,-33.602,-14.847,-24.615,15.238,-2.344,29.695,0.391,-23.834
'[18:43:42.363 06/11/2076]',23.834,-10.940,-12.112,-22.271,32.821,-23.834,-15.238,-15.629,-24.225,6.642,-25.788,-19.927,-1.172,-19.145,-15.629,-26.178,-19.927,-23.053,12.894,12.112,11.722,-10.940,-15.629
'[18:43:42.367 06/11/2076]',21.490,-16.410,-9.377,-25.788,21.099,-16.801,-17.192,-18.364,-25.397,0.391,-21.880,-35.556,-12.112,-24.225,-8.987,-37.118,-21.490,-21.880,10.159,12.112,2.344,-14.066,-8.987
'[18:43:42.371 06/11/2076]',22.271,-17.192,-10.159,-21.490,7.424,-3.516,-18.364,-12.894,-1.954,-12.894,-18.755,-21.099,-0.391,-18.364,-15.238,-21.099,-23.443,-17.973,10.940,12.503,-1.172,-9.377,-15.238
'[18:43:42.375 06/11/2076]',24.615,-22.662,-11.331,-16.410,-13.675,5.470,-7.033,-12.503,24.225,-16.020,-11.722,-1.563,21.099,-16.020,-8.205,-2.344,-24.615,-8.596,12.112,9.377,-13.675,-7.033,-8.205
'[18:43:42.379 06/11/2076]',21.880,-13.675,-16.801,-13.675,-17.973,5.861,-3.126,-8.205,21.099,-18.364,-10.159,-16.410,19.145,-4.298,-17.973,-20.708,-26.960,-6.252,17.582,1.563,-12.112,-1.172,-17.973
'[18:43:42.383 06/11/2076]',34.383,-8.596,-16.410,-9.768,14.457,-6.252,-8.205,-1.563,19.927,-24.615,-11.331,-30.085,16.020,-3.907,-19.927,-38.681,-29.304,-8.596,17.192,2.735,-6.252,-4.298,-19.927
'[18:43:42.387 06/11/2076]',36.728,-9.377,-10.940,-10.549,29.304,-13.675,-3.907,-7.033,15.238,-29.304,-10.159,-2.735,15.629,-0.391,-31.648,-10.940,-30.867,-5.079,11.722,14.457,-12.503,2.735,-31.648
'[18:43:42.391 06/11/2076]',23.834,-9.377,-15.238,-13.284,13.284,-18.755,3.516,-12.894,-8.205,-26.178,-10.940,9.377,10.549,-15.629,-36.728,4.298,-32.821,-3.907,16.020,17.192,-12.894,-1.563,-36.728
'[18:43:42.395 06/11/2076]',20.708,-2.344,-16.020,-15.629,16.410,-23.443,-3.516,-3.907,-9.768,-31.648,-6.252,-8.596,2.735,-23.443,-21.490,-14.847,-31.648,-6.642,16.801,14.847,-16.410,-12.894,-21.490
'[18:43:42.398 06/11/2076]',28.913,6.252,-26.178,-14.847,13.284,-10.549,-8.596,0.000,8.596,-29.695,-1.172,-7.033,10.549,-18.364,-10.940,-12.112,-26.960,-5.470,26.960,10.940,-29.304,-13.284,-10.940
'[18:43:42.402 06/11/2076]',37.118,2.344,-33.993,-11.722,10.549,-6.252,-0.781,-8.987,14.066,-18.364,0.000,0.391,28.132,-13.675,-21.490,1.954,-21.099,-0.781,34.774,14.847,-33.602,-7.814,-21.490
'[18:43:42.406 06/11/2076]',46.886,-5.470,-24.615,-0.391,16.801,-0.781,-0.781,0.391,3.907,-9.768,-0.781,-0.391,28.523,-25.788,-12.894,2.344,-14.457,-3.126,25.397,14.457,-21.099,-17.192,-12.894
'[18:43:42.410 06/11/2076]',41.807,-1.563,-17.973,4.689,19.536,-3.907,-5.079,15.629,-3.516,-5.470,-5.470,3.907,14.847,-13.284,-10.549,-2.344,-5.861,-6.642,18.755,3.907,-6.642,-10.549,-10.549
'[18:43:42.414 06/11/2076]',15.629,3.516,-15.238,7.033,-17.973,-4.689,3.516,30.476,-25.397,-3.126,-14.847,8.987,-8.205,5.861,-21.490,-10.940,1.954,-5.079,16.020,-12.894,13.675,-1.172,-21.490
'[18:43:42.418 06/11/2076]',19.145,3.907,-16.801,8.596,-19.927,-8.205,17.582,25.397,-58.217,0.391,-10.549,2.735,-27.741,-8.205,-16.801,-12.894,10.940,-0.781,17.582,-13.284,23.443,-10.549,-16.801
'[18:43:42.422 06/11/2076]',29.695,0.391,0.000,1.563,-2.344,-2.344,16.801,19.145,-29.695,0.000,-3.907,-4.689,-8.987,-3.126,-14.066,-12.503,15.629,0.391,0.781,1.563,14.847,-9.377,-14.066
'[18:43:42.426 06/11/2076]',36.337,-3.516,-10.549,8.987,-5.861,12.894,8.987,14.847,-10.549,-6.252,0.781,6.252,8.596,6.642,-28.523,3.907,12.112,3.907,11.331,16.801,-1.172,3.126,-28.523
'[18:43:42.430 06/11/2076]',39.463,-10.159,-6.252,14.066,-9.377,20.317,12.894,13.284,12.894,-2.344,8.205,1.172,42.198,-3.516,-19.536,1.563,11.331,12.503,7.033,26.178,-4.689,-3.516,-19.536
'[18:43:42.434 06/11/2076]',23.053,-10.940,-5.470,15.629,-33.993,25.006,10.159,20.317,44.542,-6.642,8.987,-8.987,62.906,-15.629,-0.781,-7.814,8.596,19.536,6.252,25.788,-12.112,-20.708,-0.781
'[18:43:42.438 06/11/2076]',15.238,-9.377,-17.582,16.020,-54.310,24.225,10.940,23.834,44.542,-10.549,7.424,6.252,58.999,-4.689,-1.954,-3.126,7.814,20.317,18.364,16.801,-12.112,-11.331,-1.954
'[18:43:42.441 06/11/2076]',16.410,-4.689,-17.582,7.033,-58.999,18.755,22.271,19.145,33.211,-13.675,8.205,21.490,58.217,-12.894,-5.470,9.768,10.549,19.145,18.364,7.033,-8.987,-10.159,-5.470
'[18:43:42.445 06/11/2076]',37.509,-19.927,-2.735,5.079,-31.648,11.722,18.364,21.490,14.847,-14.847,9.377,-1.954,39.463,-15.629,-1.563,-14.457,11.331,15.238,3.516,19.927,-10.940,-13.675,-1.563
