'Time and date','FP1-F7','F7-T7','T7-P7','P7-O1','FP1-F3','F3-C3','C3-P3','P3-O1','FP2-F4','F4-C4','C4-P4','P4-O2','FP2-F8','F8-T8','T8-P8','P8-O2','FZ-CZ','CZ-PZ','P7-T7','T7-FT9','FT9-FT10','FT10-T8','T8-P8'
'hh:mm:ss.mmm dd/mm/yyyy','uV','uV','uV','uV','uV','uV','uV','uV','uV','uV','uV','uV','uV','uV','uV','uV','uV','uV','uV','uV','uV','uV','uV'
'[12:42:57.000 06/11/2076]',15.238,15.238,28.523,-13.284,41.026,-12.112,-12.112,28.913,14.066,-7.424,3.907,-14.066,-15.238,32.430,-26.960,6.252,-32.430,-26.178,-27.741,-47.668,-25.397,55.092,-26.960
'[12:42:57.004 06/11/2076]',0.391,0.391,0.391,0.391,0.391,0.391,0.391,0.391,0.391,0.391,0.391,0.391,0.391,0.391,0.391,0.391,0.391,0.391,0.391,0.391,0.391,0.391,0.391
'[12:42:57.008 06/11/2076]',0.391,0.391,0.391,0.391,0.391,0.391,0.391,0.391,0.391,0.391,0.391,0.781,0.391,0.391,0.391,0.781,0.391,0.391,0.391,0.391,0.391,0.391,0.391
'[12:42:57.012 06/11/2076]',0.000,0.391,0.391,0.391,0.000,0.391,0.391,0.391,0.000,0.391,0.391,1.172,0.391,0.000,0.391,1.172,0.391,0.391,0.391,0.391,0.391,0.391,0.391
'[12:42:57.016 06/11/2076]',0.000,1.172,0.391,0.391,0.391,0.391,0.000,0.781,0.391,0.000,0.391,-3.907,-2.344,3.126,0.781,-5.079,0.391,0.391,0.391,-1.563,0.781,0.781,0.781
'[12:42:57.020 06/11/2076]',1.954,0.391,0.000,0.391,2.735,-0.781,0.391,0.391,2.344,-0.391,0.781,-4.298,0.000,2.344,0.391,-4.298,0.391,0.391,0.781,0.391,0.000,0.391,0.391
'[12:42:57.023 06/11/2076]',4.689,-1.954,0.000,0.781,4.298,0.000,1.172,-1.954,2.735,0.781,1.563,10.549,9.768,-6.252,-0.781,14.066,0.391,1.563,0.781,7.814,-2.344,-1.563,-0.781
'[12:42:57.027 06/11/2076]',1.954,-1.563,0.391,0.391,1.563,1.172,0.391,-1.563,0.000,1.563,0.391,13.675,7.033,-6.252,-0.781,15.629,0.391,0.391,0.391,5.079,0.000,-0.391,-0.781
'[12:42:57.031 06/11/2076]',-2.344,3.516,0.391,-0.391,-2.344,1.172,-1.172,3.516,-3.516,0.000,-0.781,-11.722,-12.503,9.768,2.344,-17.192,0.391,-1.954,0.391,-9.768,3.516,3.907,2.344
'[12:42:57.035 06/11/2076]',-2.344,3.516,0.000,0.000,-2.344,-0.391,-0.391,3.907,-1.563,-0.391,0.000,-19.927,-12.503,10.940,2.344,-23.834,0.781,0.000,0.781,-7.033,0.781,2.344,2.344
'[12:42:57.039 06/11/2076]',5.079,-1.954,-1.563,0.391,5.470,-1.954,1.563,-2.344,7.814,-0.391,2.344,0.391,11.331,-3.126,-1.563,4.298,1.563,2.735,2.344,10.940,-5.861,-3.126,-1.563
'[12:42:57.043 06/11/2076]',24.225,-0.391,-7.033,-3.126,29.695,-8.596,-1.172,-6.642,25.006,-5.861,5.079,-11.722,16.020,6.252,-0.391,-9.377,0.391,0.781,7.814,10.549,-9.377,0.000,-0.391
'[12:42:57.047 06/11/2076]',46.496,-8.596,-9.768,-1.563,50.403,-10.940,1.172,-14.457,29.695,-3.126,10.159,25.397,44.542,-13.675,-2.735,35.556,0.391,2.344,10.549,33.211,-16.801,-5.861,-2.735
'[12:42:57.051 06/11/2076]',57.436,-14.847,-12.112,-0.781,54.701,-8.205,0.391,-17.192,22.662,0.391,10.159,51.575,56.264,-28.132,-7.033,64.078,2.735,0.391,12.894,47.277,-21.880,-8.987,-7.033
'[12:42:57.055 06/11/2076]',40.635,-6.252,-8.205,-5.079,37.118,-4.689,-2.344,-8.596,5.861,1.563,8.205,16.801,22.662,-5.470,-2.735,19.927,5.470,-7.424,8.987,25.397,-14.066,-2.344,-2.735
'[12:42:57.059 06/11/2076]',32.821,-1.563,-5.470,-2.735,24.615,0.000,-2.735,0.391,-8.987,5.470,5.470,2.735,0.781,5.861,0.391,-1.172,11.722,-8.596,6.252,17.582,-15.629,0.781,0.391
'[12:42:57.063 06/11/2076]',12.503,-2.735,-5.861,-6.642,3.516,2.344,-2.735,-7.424,-1.954,9.768,4.689,14.457,24.615,-7.814,-3.516,15.238,15.629,-6.642,6.642,32.430,-19.536,-4.298,-3.516
'[12:42:57.066 06/11/2076]',14.457,4.298,-2.735,-7.814,13.284,7.033,-1.954,-10.940,19.145,8.987,6.252,22.662,46.886,-9.768,-1.954,23.834,18.364,-6.642,3.516,31.648,-10.159,-3.126,-1.954
'[12:42:57.070 06/11/2076]',25.788,10.940,-5.470,-8.987,30.476,7.033,-6.252,-10.159,34.774,6.252,2.344,18.755,53.138,-3.907,3.516,10.159,18.364,-11.331,6.252,17.192,2.735,1.954,3.516
'[12:42:57.074 06/11/2076]',29.304,8.205,-8.596,-7.814,32.430,5.470,-7.424,-10.940,43.761,4.689,0.391,18.364,71.111,-13.675,4.298,6.252,16.410,-12.503,9.377,18.755,15.629,-4.689,4.298
'[12:42:57.078 06/11/2076]',29.695,4.689,-5.861,-4.689,31.258,5.079,-4.689,-8.596,32.039,3.907,0.391,7.814,65.641,-21.099,-0.391,1.563,15.629,-10.159,6.642,23.834,25.397,-13.284,-0.391
'[12:42:57.082 06/11/2076]',33.211,3.126,-5.079,-3.907,35.556,3.907,-5.861,-8.205,25.788,7.424,0.781,6.252,58.608,-18.364,-2.735,4.298,13.675,-7.814,5.861,25.397,25.397,-14.066,-2.735
'[12:42:57.086 06/11/2076]',39.463,5.861,-8.987,-7.033,43.761,1.954,-5.470,-12.503,23.053,12.894,1.563,9.768,57.827,-12.112,-5.079,8.596,13.284,-1.954,9.768,24.225,26.178,-10.549,-5.079
'[12:42:57.090 06/11/2076]',42.979,9.377,-4.298,-8.596,50.012,1.563,-2.735,-8.987,25.397,23.443,2.735,10.549,59.780,-0.391,-3.907,7.814,16.410,5.079,5.079,18.755,29.695,-5.079,-3.907
'[12:42:57.094 06/11/2076]',61.343,24.615,-7.424,-4.689,72.674,7.424,-3.516,-3.516,43.761,30.085,5.861,7.033,69.158,10.549,-0.391,9.377,19.536,8.596,8.205,12.503,17.973,0.000,-0.391
'[12:42:57.098 06/11/2076]',85.568,32.039,-8.596,-3.126,96.508,16.801,-5.470,-1.954,60.171,33.993,12.112,17.582,92.210,0.781,4.689,27.350,21.099,10.940,9.377,19.145,0.391,-3.907,4.689
'[12:42:57.102 06/11/2076]',92.601,33.211,-8.205,-0.781,102.759,19.927,-3.126,-2.735,64.860,38.291,12.894,21.490,101.587,0.000,5.470,33.211,21.880,11.331,8.987,20.708,3.126,-7.424,5.470
'[12:42:57.105 06/11/2076]',109.792,41.416,-12.894,-0.781,121.514,20.708,-3.126,-1.954,69.158,40.244,7.814,6.642,92.991,19.145,3.126,10.159,25.397,9.377,13.675,8.205,14.066,-1.954,3.126
'[12:42:57.109 06/11/2076]',128.547,48.449,-18.364,-3.126,141.832,17.973,-1.172,-3.907,78.535,41.026,3.516,-5.861,88.694,38.681,1.563,-10.159,28.523,10.549,19.145,-1.563,23.834,3.516,1.563
'[12:42:57.113 06/11/2076]',130.891,49.231,-12.894,-10.549,146.520,5.861,9.768,-6.642,84.005,51.575,-5.861,1.954,97.680,58.608,-3.907,-18.755,42.979,10.549,13.675,-14.457,59.780,12.112,-3.907
'[12:42:57.117 06/11/2076]',137.534,47.668,-13.675,-1.563,152.381,1.172,7.424,7.814,94.554,53.919,-19.145,27.350,107.057,69.158,-10.549,-7.814,46.105,7.814,14.457,-18.755,64.469,21.490,-10.549
'[12:42:57.121 06/11/2076]',144.957,60.952,-6.642,-5.861,160.977,21.490,6.642,1.172,102.759,53.138,-1.954,-1.172,109.402,63.297,-7.424,-10.549,42.198,10.159,7.424,-4.298,30.085,14.066,-7.424
'[12:42:57.125 06/11/2076]',162.149,62.515,0.391,0.000,179.341,32.039,5.079,7.424,119.170,50.794,1.172,2.735,124.640,58.217,-7.814,0.391,39.072,8.987,0.391,-0.391,19.536,11.722,-7.814
'[12:42:57.129 06/11/2076]',164.884,57.045,3.516,1.172,179.731,39.072,7.033,0.781,131.673,50.794,7.033,6.252,148.083,45.714,-16.020,19.145,35.946,11.722,-2.735,19.927,4.298,2.735,-16.020
'[12:42:57.133 06/11/2076]',176.215,54.701,3.907,-1.172,184.029,48.840,8.596,-7.424,130.891,50.012,15.238,1.172,153.553,37.509,-20.317,27.741,35.946,15.238,-3.126,32.039,-7.424,-5.079,-20.317
'[12:42:57.137 06/11/2076]',182.466,51.575,2.344,-4.298,184.029,48.840,7.033,-7.814,135.580,48.059,8.596,7.424,155.507,45.324,-23.053,23.443,38.681,15.629,-1.563,20.317,2.735,-3.516,-23.053
'[12:42:57.141 06/11/2076]',171.526,45.714,9.768,-2.735,173.480,42.198,9.768,-2.735,134.799,51.575,4.689,14.847,159.805,51.184,-24.225,21.880,42.979,18.755,-8.987,16.020,10.549,-3.516,-24.225
'[12:42:57.145 06/11/2076]',184.811,46.886,10.549,-7.424,192.234,42.198,11.331,-11.331,133.626,53.138,13.284,-1.172,155.507,51.575,-20.708,14.066,41.807,25.788,-9.768,17.973,1.954,-10.159,-20.708
'[12:42:57.148 06/11/2076]',188.718,45.714,10.159,-12.112,202.393,44.151,7.033,-21.490,134.017,46.105,18.364,-0.781,151.209,39.853,-17.582,25.006,33.602,27.350,-9.377,23.443,-14.457,-16.801,-17.582
'[12:42:57.152 06/11/2076]',192.625,41.026,5.861,-5.861,213.333,34.774,1.563,-16.410,128.156,35.165,14.066,17.582,146.129,24.615,-17.192,42.979,22.271,24.615,-5.079,23.834,-22.662,-18.364,-17.192
'[12:42:57.156 06/11/2076]',188.327,32.430,6.252,-3.516,206.691,24.225,3.907,-10.940,117.607,28.913,9.377,13.675,130.891,21.099,-13.675,32.821,18.364,22.271,-5.470,18.755,-14.066,-18.755,-13.675
'[12:42:57.160 06/11/2076]',160.977,30.476,0.391,-2.344,169.963,19.145,4.689,-4.689,94.554,21.880,1.954,10.159,98.071,24.615,-9.768,16.801,16.410,18.364,0.391,0.781,-5.861,-12.112,-9.768
'[12:42:57.164 06/11/2076]',153.553,23.053,12.503,13.675,157.070,5.079,9.377,30.867,86.740,17.973,-16.410,50.403,92.991,25.397,-10.549,32.039,17.582,12.112,-11.722,-21.099,19.927,-1.172,-10.549
'[12:42:57.168 06/11/2076]',135.971,19.145,31.258,-1.172,139.878,2.735,21.880,21.099,93.382,24.615,-10.940,28.523,95.726,41.416,-7.424,7.033,28.523,13.284,-30.476,-26.178,45.324,0.781,-7.424
'[12:42:57.172 06/11/2076]',132.063,29.304,18.755,-20.708,141.050,6.642,15.238,-3.907,98.852,19.536,-1.563,-5.861,88.303,42.198,-3.907,-14.847,30.476,13.675,-17.973,-20.708,19.145,-3.126,-3.907
'[12:42:57.176 06/11/2076]',152.772,27.741,8.987,-27.350,165.665,12.112,3.126,-18.755,80.488,12.894,1.172,-10.549,72.283,25.788,-5.470,-7.033,20.708,8.596,-8.205,-6.252,-5.470,-9.768,-5.470
'[12:42:57.180 06/11/2076]',141.050,20.317,-0.391,-33.211,155.507,12.503,-0.391,-41.026,73.455,10.549,7.033,-5.470,83.223,3.126,-9.768,11.331,17.192,11.331,1.172,19.145,-23.443,-20.317,-9.768
'[12:42:57.184 06/11/2076]',113.700,15.629,-12.503,-31.258,119.170,17.973,-3.126,-50.012,55.873,4.689,10.940,3.126,76.581,-15.629,-10.940,26.178,9.768,13.675,13.284,29.695,-37.900,-21.099,-10.940
'[12:42:57.188 06/11/2076]',77.363,7.033,-11.331,-25.006,72.674,20.317,-2.344,-43.761,26.178,-0.781,5.861,5.079,47.668,-14.066,-9.768,14.457,3.907,10.159,12.112,16.020,-22.662,-12.894,-9.768
'[12:42:57.191 06/11/2076]',38.291,5.470,-5.470,-21.099,23.834,20.708,3.516,-32.039,28.913,-2.735,3.126,9.377,50.403,-8.987,-10.940,9.768,1.954,15.238,6.252,8.596,-14.066,-7.033,-10.940
'[12:42:57.195 06/11/2076]',16.020,3.126,-1.563,-11.722,-1.954,21.880,11.331,-26.569,30.476,-8.205,4.689,7.814,50.794,-12.894,-12.894,11.331,1.563,21.880,2.344,13.284,-10.940,-8.596,-12.894
'[12:42:57.199 06/11/2076]',21.880,2.344,-2.735,-14.066,5.861,14.847,12.503,-26.960,22.271,-11.331,1.954,13.675,43.761,-19.145,-13.284,16.801,-4.689,20.708,3.516,14.847,-16.801,-9.768,-13.284
'[12:42:57.203 06/11/2076]',37.118,5.079,-5.079,-8.205,23.834,5.079,11.722,-13.284,16.410,-11.722,-5.861,28.132,34.774,-17.582,-12.894,23.443,-14.457,20.317,5.861,8.596,-17.973,-10.159,-12.894
'[12:42:57.207 06/11/2076]',41.807,7.814,-2.735,-16.020,33.602,-0.391,13.675,-17.973,-7.033,-14.847,-5.079,22.271,8.596,-19.927,-11.722,18.755,-17.582,21.490,3.516,7.424,-16.410,-12.503,-11.722
'[12:42:57.211 06/11/2076]',35.165,8.596,-8.596,-26.178,28.132,-1.954,12.894,-30.476,-14.847,-18.364,0.781,4.298,-6.252,-19.536,-8.205,7.033,-22.271,19.927,9.377,10.940,-26.178,-16.801,-8.205
'[12:42:57.215 06/11/2076]',19.927,0.781,-16.410,-25.397,8.987,-4.298,5.470,-32.430,-22.662,-21.880,0.781,14.457,-14.457,-21.880,-7.814,15.629,-26.569,16.801,17.192,12.112,-28.913,-16.801,-7.814
'[12:42:57.219 06/11/2076]',14.457,-6.252,-12.503,-14.847,0.000,-5.079,2.344,-17.582,-32.430,-25.397,-1.563,30.085,-22.662,-24.615,-7.424,25.397,-27.741,16.020,13.284,10.159,-21.490,-15.238,-7.424
'[12:42:57.223 06/11/2076]',-17.192,-9.768,-13.675,-10.549,-36.337,-10.940,1.563,-6.642,-34.774,-25.397,-6.252,24.615,-28.132,-19.536,-2.344,7.814,-24.225,13.675,14.457,0.000,-15.238,-10.549,-2.344
'[12:42:57.227 06/11/2076]',-34.383,-21.099,-12.894,12.112,-53.138,-32.821,-2.735,32.039,-42.589,-25.397,-26.178,47.668,-34.383,-12.112,-3.516,2.735,-28.523,6.642,13.675,-23.053,14.066,-1.954,-3.516
'[12:42:57.230 06/11/2076]',-32.821,-16.410,0.391,0.391,-48.840,-33.993,-1.172,34.774,-37.900,-23.443,-26.569,48.059,-30.867,-7.424,-0.781,-1.563,-26.178,3.516,0.391,-28.913,19.145,3.126,-0.781
'[12:42:57.234 06/11/2076]',-13.675,-6.252,9.377,-21.099,-20.708,-31.258,1.954,17.192,-32.430,-20.317,-12.894,22.271,-25.397,-8.596,3.907,-14.066,-21.099,7.033,-8.596,-21.880,6.642,1.563,3.907
'[12:42:57.238 06/11/2076]',-5.861,-5.861,-4.298,-23.443,-6.642,-26.960,-13.675,6.252,-35.556,-26.569,-3.516,-1.172,-33.602,-16.801,4.298,-21.099,-30.867,3.126,5.079,-4.298,-23.443,-3.516,4.298
'[12:42:57.242 06/11/2076]',-5.861,-6.642,-6.642,-27.741,-6.642,-16.020,-19.927,-4.298,-49.621,-24.225,4.298,-16.801,-48.840,-22.662,7.033,-22.662,-29.695,2.344,7.424,2.735,-37.118,-5.470,7.033
'[12:42:57.246 06/11/2076]',-3.516,-11.722,-19.145,-29.695,-11.722,-7.033,-24.615,-21.099,-43.761,-23.053,7.033,-9.377,-31.648,-41.807,3.516,0.000,-22.662,1.172,19.927,21.880,-52.357,-14.066,3.516
'[12:42:57.250 06/11/2076]',-29.304,-23.834,-32.821,-30.867,-44.542,-4.298,-32.821,-34.774,-43.761,-23.834,0.391,1.172,-25.788,-53.529,-2.344,15.238,-18.755,-4.689,33.602,31.648,-50.012,-19.536,-2.344
'[12:42:57.254 06/11/2076]',-50.794,-23.443,-27.741,-28.132,-74.237,2.344,-33.211,-26.960,-47.277,-22.662,-6.252,-3.516,-41.807,-41.026,-0.781,2.735,-13.284,-12.112,28.523,15.238,-38.291,-9.377,-0.781
'[12:42:57.258 06/11/2076]',-57.827,-18.755,-26.569,-35.946,-83.223,6.252,-31.648,-32.039,-39.463,-21.490,-8.596,-12.894,-44.151,-29.304,-1.172,-8.205,-8.205,-12.503,27.350,12.894,-35.946,-5.079,-1.172
'[12:42:57.262 06/11/2076]',-48.059,-21.490,-21.880,-37.900,-67.204,-0.391,-28.523,-34.383,-41.416,-20.708,-8.987,-19.927,-45.714,-26.569,-4.298,-14.457,-10.159,-12.503,22.662,20.317,-33.211,-5.079,-4.298
'[12:42:57.266 06/11/2076]',-42.589,-20.317,-12.894,-22.662,-60.562,-2.735,-24.225,-11.722,-50.012,-12.503,-8.205,-19.145,-52.747,-18.364,-3.516,-16.410,-10.159,-14.847,13.675,21.099,-33.602,2.735,-3.516
'[12:42:57.270 06/11/2076]',-22.662,-18.364,-13.675,-36.728,-40.244,-5.079,-23.834,-23.443,-63.297,-6.642,-7.814,-23.053,-63.297,-10.940,-2.344,-24.615,-5.079,-20.317,14.457,19.536,-30.476,4.689,-2.344
'[12:42:57.273 06/11/2076]',-10.549,-21.490,-21.099,-39.463,-30.476,-4.689,-24.615,-32.821,-62.906,-2.735,-3.516,-23.834,-54.701,-16.020,0.000,-23.053,-2.344,-22.271,21.880,31.258,-40.635,-0.391,0.000
'[12:42:57.277 06/11/2076]',-14.847,-20.708,-25.006,-30.476,-35.946,-5.861,-25.788,-24.225,-59.389,-2.344,-3.516,-24.225,-53.919,-11.331,0.781,-25.788,-1.954,-26.178,25.788,26.178,-45.714,3.126,0.781
'[12:42:57.281 06/11/2076]',-27.350,-25.397,-24.225,-30.085,-51.966,-9.768,-21.880,-23.834,-46.886,-3.516,-5.861,-17.582,-39.853,-9.377,0.391,-25.006,-1.954,-26.178,25.006,20.708,-32.039,3.126,0.391
'[12:42:57.285 06/11/2076]',-44.542,-29.304,-21.099,-33.602,-66.422,-17.582,-17.973,-26.569,-35.946,-9.377,-10.549,-11.331,-24.225,-13.284,-5.079,-25.788,-4.689,-25.006,21.880,14.066,-11.331,3.907,-5.079
'[12:42:57.289 06/11/2076]',-61.734,-31.258,-18.755,-12.112,-82.833,-31.258,-12.894,1.954,-42.198,-10.159,-26.569,-9.768,-36.728,2.344,-9.377,-45.714,-7.424,-26.960,19.536,-6.252,16.020,15.629,-9.377
'[12:42:57.293 06/11/2076]',-72.674,-21.099,-1.563,-31.648,-97.680,-23.834,3.516,-10.549,-52.357,-5.470,-19.536,-48.449,-52.357,16.410,-10.549,-80.488,0.391,-22.662,2.344,-17.192,41.807,17.582,-10.549
'[12:42:57.297 06/11/2076]',-52.747,-23.053,-1.563,-41.026,-83.614,-8.987,2.344,-29.304,-66.813,-9.768,-14.457,-44.151,-57.827,-3.126,-15.238,-59.389,5.079,-16.801,2.344,1.563,27.350,9.768,-15.238
'[12:42:57.301 06/11/2076]',-38.291,-25.788,0.391,-31.648,-72.283,3.516,-0.391,-28.523,-61.734,-12.503,-7.033,-28.132,-49.621,-23.834,-16.410,-21.099,1.172,-13.284,0.391,19.927,-1.172,1.563,-16.410
'[12:42:57.305 06/11/2076]',-42.979,-21.880,1.954,-36.337,-75.409,8.205,-0.781,-33.602,-48.059,-12.112,-2.735,-48.059,-47.668,-20.317,-16.020,-26.960,2.344,-15.238,-1.172,16.801,-12.112,-0.781,-16.020
'[12:42:57.309 06/11/2076]',-56.654,-22.662,1.172,-33.993,-87.521,10.159,-4.689,-31.648,-40.635,-13.675,-4.689,-46.105,-44.542,-25.397,-15.629,-20.317,3.907,-17.192,-0.391,14.457,-19.536,-3.126,-15.629
'[12:42:57.313 06/11/2076]',-63.687,-25.397,-8.205,-29.304,-86.349,0.391,-5.470,-36.728,-32.430,-10.549,-10.159,-31.258,-28.913,-35.556,-17.582,-2.735,5.470,-18.755,8.987,20.317,-25.397,-6.252,-17.582
'[12:42:57.316 06/11/2076]',-64.469,-21.490,-9.768,-27.350,-80.488,-3.907,-1.172,-37.900,-38.681,-7.033,-12.112,-33.602,-34.383,-34.774,-17.582,-5.079,8.596,-19.927,10.549,18.364,-22.271,-3.907,-17.582
'[12:42:57.320 06/11/2076]',-50.794,-18.364,-12.503,-33.602,-62.125,-5.861,-3.126,-44.542,-51.966,-10.159,-12.894,-40.635,-52.357,-30.085,-16.801,-17.973,7.424,-22.271,13.284,9.377,-14.457,-0.391,-16.801
'[12:42:57.324 06/11/2076]',-43.370,-20.317,-17.582,-26.960,-54.310,-1.172,-6.642,-47.277,-42.979,-13.675,-12.894,-33.602,-46.496,-32.039,-13.675,-11.722,2.344,-17.582,18.364,7.424,-11.722,2.344,-13.675
'[12:42:57.328 06/11/2076]',-48.449,-24.225,-11.331,-20.708,-59.389,0.391,-3.516,-43.761,-40.635,-14.066,-9.377,-34.774,-46.496,-29.304,-14.847,-8.205,-1.563,-10.549,12.112,6.252,-4.689,0.781,-14.847
'[12:42:57.332 06/11/2076]',-60.952,-28.523,-2.735,-16.801,-66.032,1.563,-1.563,-44.151,-42.589,-12.894,-1.172,-38.291,-45.714,-28.913,-15.238,-5.861,-4.298,-4.689,3.516,5.861,6.252,-2.344,-15.238
'[12:42:57.336 06/11/2076]',-68.767,-30.867,-3.516,-9.768,-73.846,9.377,-3.516,-47.277,-34.383,-11.331,4.689,-33.211,-34.774,-33.211,-12.112,5.861,-6.642,3.516,4.298,12.112,0.000,-5.470,-12.112
'[12:42:57.340 06/11/2076]',-72.283,-37.900,-9.377,-4.689,-71.893,2.735,-8.596,-48.840,-44.933,-10.940,1.563,-32.430,-44.151,-36.728,-13.284,7.424,-10.159,4.689,10.159,17.973,-8.205,-8.205,-13.284
'[12:42:57.344 06/11/2076]',-54.310,-41.026,-17.192,2.344,-48.059,-10.159,-9.768,-42.198,-62.906,-12.112,-6.252,-37.509,-64.469,-33.211,-16.410,-5.079,-16.410,1.172,17.973,12.112,-1.954,-5.861,-16.410
'[12:42:57.348 06/11/2076]',-57.045,-41.807,-23.834,2.344,-52.747,-17.973,-7.424,-41.807,-57.436,-11.331,-16.410,-29.695,-62.125,-29.304,-19.145,-6.642,-18.755,-2.344,24.615,5.861,3.516,-0.391,-19.145
'[12:42:57.352 06/11/2076]',-66.032,-50.012,-29.695,10.940,-65.250,-33.993,-5.470,-28.913,-59.780,-12.894,-39.853,-7.814,-74.628,-16.410,-20.317,-8.987,-23.053,-9.377,30.476,-16.410,26.569,14.066,-20.317
'[12:42:57.355 06/11/2076]',-62.906,-42.979,-24.615,7.424,-64.469,-32.039,6.252,-32.430,-57.045,-7.033,-34.774,-32.039,-76.972,-5.861,-17.973,-31.258,-18.364,-5.470,25.397,-23.834,40.635,17.582,-17.973
'[12:42:57.359 06/11/2076]',-70.720,-30.476,-14.847,-5.079,-69.548,-19.145,11.722,-45.714,-49.231,-2.735,-22.662,-55.482,-74.237,-3.516,-10.940,-42.589,-12.112,-1.563,15.629,-22.271,29.695,19.536,-10.940
'[12:42:57.363 06/11/2076]',-67.595,-33.211,-15.629,2.344,-67.595,-3.907,2.735,-46.105,-31.648,-6.642,-10.159,-29.304,-49.621,-30.867,-4.298,5.079,-12.503,4.298,16.410,6.642,-11.722,11.331,-4.298
'[12:42:57.367 06/11/2076]',-46.105,-32.039,-13.675,10.549,-42.198,1.954,-1.954,-40.244,-30.476,-10.549,-2.344,-22.271,-39.072,-49.621,-3.126,25.397,-13.284,5.470,14.457,23.834,-27.350,3.516,-3.126
'[12:42:57.371 06/11/2076]',-54.310,-26.178,-16.801,5.861,-47.668,0.781,-9.377,-35.556,-31.258,-15.238,-1.563,-34.383,-48.840,-43.761,-2.344,10.940,-19.145,-0.391,17.582,17.192,-39.853,5.470,-2.344
'[12:42:57.375 06/11/2076]',-51.966,-23.443,-32.039,10.159,-43.370,-3.907,-17.973,-31.648,-37.118,-20.708,-7.424,-31.648,-62.125,-35.556,-5.079,4.689,-23.834,-5.470,32.821,8.596,-35.556,7.814,-5.079
'[12:42:57.379 06/11/2076]',-44.542,-23.834,-28.132,3.907,-38.681,-5.079,-11.722,-36.337,-36.728,-18.755,-7.424,-26.178,-53.529,-33.211,-11.331,8.205,-22.271,-4.689,28.913,7.814,-23.053,7.424,-11.331
'[12:42:57.383 06/11/2076]',-44.542,-18.755,-21.099,-2.344,-43.370,-1.172,-3.907,-39.463,-42.589,-10.940,-1.172,-25.788,-51.184,-30.476,-12.894,12.503,-22.271,-1.172,21.880,8.987,-22.662,7.814,-12.894
'[12:42:57.387 06/11/2076]',-48.840,-14.457,-16.410,0.000,-50.403,2.344,-3.907,-29.304,-51.575,-7.814,0.391,-14.457,-60.562,-25.397,-6.642,18.364,-19.536,0.781,17.192,1.172,-22.271,9.768,-6.642
'[12:42:57.391 06/11/2076]',-51.575,-13.284,-5.079,6.252,-53.919,4.689,0.391,-16.020,-40.635,-2.344,2.344,-1.954,-45.714,-24.225,-1.954,28.132,-12.503,3.907,5.861,-1.563,-21.099,10.940,-1.954
'[12:42:57.395 06/11/2076]',-60.562,-9.768,-1.954,7.033,-58.217,3.516,4.689,-17.192,-32.039,1.172,8.987,-16.020,-39.072,-21.490,2.735,19.927,-7.424,6.642,2.735,0.391,-23.443,5.861,2.735
'[12:42:57.398 06/11/2076]',-43.761,-7.033,-6.642,7.033,-32.430,4.298,1.172,-24.225,-26.960,-0.391,12.112,-19.927,-39.853,-23.834,6.252,22.271,-4.689,5.079,7.424,4.689,-32.821,3.516,6.252
'[12:42:57.402 06/11/2076]',-29.304,-10.940,-11.722,12.894,-18.755,7.424,-3.516,-25.788,-26.569,-1.954,7.814,-3.516,-41.416,-27.741,10.159,34.383,-3.907,2.344,12.503,7.033,-37.118,3.126,10.159
'[12:42:57.406 06/11/2076]',-27.741,-13.284,-8.596,17.973,-17.192,4.298,1.172,-21.880,-29.695,0.000,4.689,-2.735,-49.621,-21.880,14.066,28.132,-1.563,1.954,9.377,1.172,-26.569,5.079,14.066
'[12:42:57.410 06/11/2076]',-30.867,-12.894,-6.642,24.225,-20.317,3.516,2.735,-12.503,-39.072,0.391,0.000,-5.861,-66.032,-12.503,17.973,14.457,1.563,0.391,7.424,-8.987,-13.675,10.940,17.973
'[12:42:57.414 06/11/2076]',-55.092,-19.536,-2.344,42.589,-46.496,-5.861,4.298,12.503,-38.681,4.689,-18.755,32.821,-64.860,-2.344,16.801,29.695,5.470,-4.298,3.126,-28.913,16.801,23.443,16.801
'[12:42:57.418 06/11/2076]',-75.800,-16.020,11.722,28.132,-64.469,-3.516,20.317,-3.516,-20.708,17.582,-9.377,12.894,-51.184,16.801,19.927,13.284,19.145,-1.954,-10.940,-37.900,39.072,30.476,19.927
'[12:42:57.422 06/11/2076]',-66.422,-7.814,18.755,25.397,-47.668,10.549,19.145,-12.894,-2.735,22.271,2.344,-19.145,-40.244,21.099,23.053,-1.172,24.615,6.252,-17.973,-30.867,26.178,29.304,23.053
'[12:42:57.426 06/11/2076]',-60.562,-6.252,14.847,26.960,-42.979,24.615,10.940,-16.801,-1.954,22.271,9.377,-21.880,-41.807,12.894,26.178,10.940,17.192,8.205,-14.066,-21.490,-0.391,26.178,26.178
'[12:42:57.430 06/11/2076]',-39.853,-8.205,14.457,20.708,-32.039,40.635,8.987,-30.476,1.954,26.960,16.410,-10.159,-25.397,0.391,25.788,33.993,21.490,13.675,-13.675,-3.516,-16.410,18.755,25.788
'[12:42:57.434 06/11/2076]',-26.960,-7.424,5.470,22.662,-19.536,46.105,1.172,-33.993,5.079,27.741,17.582,-1.172,-12.894,-10.159,23.053,49.621,21.490,12.894,-4.689,8.987,-31.258,14.457,23.053
'[12:42:57.438 06/11/2076]',-39.463,-7.424,-0.391,16.410,-30.085,37.900,-6.252,-33.211,-3.126,23.053,9.377,-8.987,-32.039,-0.781,21.880,31.648,22.271,1.954,1.172,-4.298,-25.788,21.099,21.880
'[12:42:57.441 06/11/2076]',-22.271,-7.033,-4.689,15.238,-15.629,39.463,-6.642,-35.946,-7.814,22.271,4.298,-14.066,-40.244,7.814,17.973,18.755,32.039,-0.391,5.470,-11.722,-10.940,25.397,17.973
'[12:42:57.445 06/11/2076]',-5.079,-8.596,0.391,13.284,8.205,36.337,-4.689,-39.463,3.907,20.317,7.033,-22.662,-19.927,2.735,8.987,17.192,33.993,0.781,0.391,-0.391,-6.252,20.317,8.987
'[12:42:57.449 06/11/2076]',-12.112,-13.284,3.126,21.099,-0.391,35.946,-6.642,-29.304,2.344,14.847,5.861,-21.490,-15.238,-5.079,1.563,20.317,30.085,-0.391,-2.344,3.907,0.391,17.973,1.563
'[12:42:57.453 06/11/2076]',-17.973,-10.159,5.861,20.317,-12.112,39.463,-7.424,-21.099,-4.689,12.894,-0.391,-15.629,-16.020,-4.689,-5.861,18.755,26.569,-3.516,-5.079,-2.344,13.284,19.536,-5.861
'[12:42:57.457 06/11/2076]',-28.523,-7.033,6.252,8.987,-23.053,38.681,-7.424,-26.960,4.298,15.238,1.172,-22.271,0.000,-3.907,-6.252,8.987,26.960,-6.642,-5.470,0.391,17.582,16.410,-6.252
'[12:42:57.461 06/11/2076]',-36.728,-3.516,2.344,5.079,-31.258,36.337,-8.596,-28.523,-2.735,16.410,4.689,-32.821,-7.814,-5.861,-5.079,5.079,24.225,-10.159,-1.563,3.126,7.033,12.112,-5.079
'[12:42:57.465 06/11/2076]',-25.788,-4.298,-9.377,4.298,-21.490,30.085,-15.238,-27.741,-16.410,14.847,-1.172,-24.225,-20.708,-11.331,-7.424,12.894,19.536,-14.847,10.159,3.126,1.172,11.722,-7.424
'[12:42:57.469 06/11/2076]',-16.801,-7.424,-10.549,1.563,-14.847,22.271,-12.894,-27.741,-14.066,19.145,-5.470,-17.192,-16.410,-8.596,-6.252,13.675,18.364,-13.675,11.331,0.391,8.596,12.894,-6.252
'[12:42:57.473 06/11/2076]',-9.768,-7.814,-7.033,8.987,-10.940,12.894,-7.424,-10.549,-9.377,20.708,-10.159,-24.225,-16.410,1.563,-7.424,-0.391,20.317,-10.159,7.814,-5.470,21.880,16.020,-7.424
'[12:42:57.477 06/11/2076]',-47.668,-16.020,-10.159,26.178,-53.919,-9.768,-4.689,20.708,-12.503,21.880,-33.602,-10.549,-23.834,19.145,-11.331,-18.755,16.801,-11.331,10.940,-26.178,51.966,26.569,-11.331
'[12:42:57.480 06/11/2076]',-63.687,-8.596,1.954,3.907,-73.846,-9.377,10.549,5.861,5.861,27.350,-23.053,-29.304,-3.907,33.602,-6.252,-42.589,22.271,-7.814,-1.172,-32.821,74.628,29.304,-6.252
'[12:42:57.484 06/11/2076]',-57.045,-8.596,0.391,-7.424,-73.846,-4.689,6.642,-0.781,22.271,17.973,-16.020,-24.225,14.457,24.615,-6.252,-32.430,17.973,-4.298,0.391,-16.410,50.794,24.225,-6.252
'[12:42:57.488 06/11/2076]',-40.635,-10.549,-8.987,-2.344,-61.734,0.000,-5.470,2.344,17.582,6.642,-10.159,-30.085,4.689,12.894,-6.252,-26.960,0.391,-6.252,9.768,-3.907,17.582,17.973,-6.252
'[12:42:57.492 06/11/2076]',-4.689,-7.814,-19.536,-6.642,-24.615,4.298,-14.457,-5.470,0.391,0.781,-4.298,-39.072,-12.894,4.689,-5.861,-28.523,-7.033,-7.814,20.317,1.563,-2.344,14.457,-5.861
'[12:42:57.496 06/11/2076]',21.880,-15.629,-20.708,-10.549,1.172,5.861,-17.973,-14.847,-4.689,0.781,-1.563,-21.880,-0.781,-12.112,-10.940,-1.954,-7.814,-6.642,21.490,18.755,-16.410,8.596,-10.940
'[12:42:57.500 06/11/2076]',10.940,-19.145,-17.192,3.126,-5.470,1.954,-16.801,-2.344,-3.907,8.987,-0.781,-11.331,6.642,-14.457,-9.768,11.331,-4.689,-5.861,17.973,19.927,-17.192,10.549,-9.768
'[12:42:57.504 06/11/2076]',-6.252,-16.020,-17.192,-2.735,-20.317,-3.126,-12.894,-5.470,-11.331,13.284,-1.172,-23.834,-4.689,-3.516,-6.252,-8.596,-1.563,-7.033,17.973,3.126,-0.391,14.457,-6.252
'[12:42:57.508 06/11/2076]',-17.582,-9.377,-3.516,-13.284,-35.946,2.735,-4.298,-7.814,-4.298,14.457,3.516,-29.695,1.172,0.000,-2.344,-13.675,2.735,0.000,4.298,-2.344,4.689,15.238,-2.344
'[12:42:57.512 06/11/2076]',-32.821,-5.861,-3.126,-2.735,-55.092,6.642,2.344,-0.781,3.516,18.364,6.252,-27.741,10.549,-1.172,-3.907,-3.126,5.470,10.549,3.907,4.689,-2.344,15.238,-3.907
'[12:42:57.516 06/11/2076]',-33.602,-3.126,-5.470,1.954,-58.217,5.079,7.814,2.344,0.000,21.490,6.252,-23.834,7.033,2.344,-4.689,-0.391,6.252,17.973,6.252,4.689,-1.954,17.192,-4.689
'[12:42:57.520 06/11/2076]',-30.085,-1.172,-0.781,3.516,-55.482,11.331,14.066,0.391,-5.470,27.741,12.112,-21.099,4.298,10.159,-0.781,0.391,12.112,25.397,1.563,2.735,5.470,21.490,-0.781
'[12:42:57.523 06/11/2076]',-22.271,-2.344,-4.298,5.079,-44.933,14.457,13.675,-8.596,-0.781,32.821,19.536,-18.364,13.284,12.503,3.516,4.689,11.722,34.383,5.079,12.894,-0.781,19.145,3.516
'[12:42:57.527 06/11/2076]',-20.708,-6.642,-10.549,12.112,-37.509,7.424,7.814,-4.689,-7.424,31.648,19.536,-10.549,5.079,13.675,7.424,7.033,7.033,35.946,11.331,12.112,-2.735,16.410,7.424
'[12:42:57.531 06/11/2076]',-13.284,-9.768,-15.238,16.410,-26.569,0.000,3.907,0.391,-14.847,28.132,15.238,1.563,1.563,11.722,5.470,12.112,2.344,31.648,16.020,7.033,4.689,16.020,5.470
'[12:42:57.535 06/11/2076]',-17.973,-11.722,-13.675,22.662,-29.695,-5.861,4.689,8.987,-19.145,26.178,10.549,13.675,-2.735,14.066,4.298,16.020,5.861,30.085,14.457,1.954,13.675,18.364,4.298
'[12:42:57.539 06/11/2076]',-46.105,-17.192,-15.629,42.979,-57.436,-21.099,6.252,35.165,-33.211,26.960,-7.424,19.145,-24.225,29.695,1.954,-1.563,13.284,21.099,16.410,-18.364,39.072,28.913,1.954
'[12:42:57.543 06/11/2076]',-46.105,-13.675,-6.252,43.761,-54.701,-22.271,18.755,34.383,-30.476,28.913,-2.735,-3.516,-29.695,44.542,5.861,-28.913,24.615,18.364,7.033,-30.867,64.078,33.602,5.861
'[12:42:57.547 06/11/2076]',-25.397,-9.768,-4.298,21.880,-33.993,-6.252,20.708,1.172,-3.907,24.615,8.205,-6.642,-1.954,36.337,8.205,-20.708,34.383,20.317,5.079,-15.629,58.217,28.523,8.205
'[12:42:57.551 06/11/2076]',-20.708,-11.331,-7.424,12.894,-27.350,3.907,10.159,-14.847,3.907,16.020,14.066,7.424,12.112,10.549,8.205,10.159,26.178,15.629,8.205,7.033,27.741,16.410,8.205
'[12:42:57.555 06/11/2076]',-14.066,-4.298,-14.847,13.284,-21.490,10.549,4.298,-14.066,0.781,10.549,15.238,-8.596,0.391,6.642,6.252,4.689,23.053,9.768,15.629,8.596,11.331,9.377,6.252
'[12:42:57.559 06/11/2076]',-15.629,-2.735,-21.490,7.814,-25.397,10.549,-1.172,-15.629,-3.907,5.861,11.331,-11.331,-7.033,1.563,2.735,5.470,17.973,7.814,22.271,9.377,-1.954,5.470,2.735
'[12:42:57.563 06/11/2076]',-43.370,-11.331,-24.615,25.006,-61.734,6.642,-1.563,1.172,-14.066,8.596,5.861,8.987,-1.954,-13.284,-2.735,28.913,16.410,10.549,25.397,22.271,-9.768,-1.563,-2.735
'[12:42:57.566 06/11/2076]',-40.635,-16.801,-22.271,27.350,-66.032,4.689,1.172,5.079,-25.397,14.066,4.689,7.424,-3.516,-17.973,-4.298,28.523,19.145,14.457,23.053,22.662,-5.079,-1.954,-4.298
'[12:42:57.570 06/11/2076]',-26.178,-15.629,-28.132,23.834,-56.264,6.642,-1.563,3.907,-21.099,13.284,3.126,-1.172,-0.781,-12.112,-3.907,12.894,19.536,15.629,28.913,15.238,0.391,1.954,-3.907
'[12:42:57.574 06/11/2076]',-19.927,-14.066,-33.211,11.722,-47.668,3.126,-6.642,-5.470,-8.987,12.112,-1.954,-3.516,12.894,-15.238,-10.159,10.159,17.973,12.503,33.993,17.192,0.391,2.735,-10.159
'[12:42:57.578 06/11/2076]',-17.192,-14.066,-31.258,14.847,-42.979,-0.391,-5.470,0.781,-14.847,12.503,-6.642,-13.284,10.159,-16.801,-19.536,3.907,17.973,7.814,32.039,21.099,3.516,0.781,-19.536
'[12:42:57.582 06/11/2076]',-5.079,-8.596,-27.741,9.377,-24.225,-1.954,-3.907,-1.563,-5.861,10.940,-8.205,-22.271,13.284,-12.894,-24.225,-1.563,18.364,1.954,28.523,21.099,5.470,0.391,-24.225
'[12:42:57.586 06/11/2076]',-5.861,-8.596,-25.397,8.205,-25.006,1.954,-4.298,-3.907,10.159,7.424,-6.252,-14.066,26.960,-15.238,-21.099,7.814,14.847,0.000,26.178,30.085,-1.954,-1.954,-21.099
'[12:42:57.590 06/11/2076]',-21.099,-16.410,-18.755,20.708,-41.416,1.563,-5.470,8.596,13.284,2.735,-3.516,-3.516,26.960,-16.410,-15.629,14.847,8.596,-0.781,19.536,33.993,-3.907,-5.861,-15.629
'[12:42:57.594 06/11/2076]',-30.085,-20.317,-19.145,22.662,-51.575,-2.735,-4.298,12.503,8.596,-0.391,-2.344,-5.470,12.503,-5.861,-8.596,3.126,4.689,-6.252,19.927,26.178,2.735,-4.298,-8.596
'[12:42:57.598 06/11/2076]',-34.383,-25.788,-16.020,24.615,-53.138,-11.722,-3.516,17.192,2.735,-3.516,-5.861,4.689,2.344,0.000,-7.424,4.298,3.516,-14.066,16.801,16.410,17.973,-1.172,-7.424
'[12:42:57.602 06/11/2076]',-39.072,-32.821,-14.457,37.118,-52.357,-30.476,-5.470,39.072,-24.615,-5.861,-26.960,25.397,-25.397,7.033,-17.582,3.126,2.344,-27.741,15.238,-3.907,46.105,7.033,-17.582
'[12:42:57.605 06/11/2076]',-51.575,-22.662,-4.298,22.662,-59.389,-32.430,8.205,26.569,-37.900,0.000,-19.536,-15.629,-41.807,21.490,-19.145,-34.383,10.159,-30.476,5.079,-14.847,68.376,10.549,-19.145
'[12:42:57.609 06/11/2076]',-28.913,-8.205,1.172,10.549,-32.039,-14.847,7.033,13.284,-25.788,-0.391,-14.457,-32.821,-34.383,19.536,-18.364,-39.853,14.066,-22.662,-0.391,-9.768,54.310,9.377,-18.364
'[12:42:57.613 06/11/2076]',-16.020,-5.470,2.344,17.192,-18.755,0.391,3.516,10.549,-10.159,-2.344,-6.642,-3.516,-8.987,-2.344,-16.801,4.689,6.252,-10.549,-1.563,15.238,24.615,2.344,-16.801
'[12:42:57.617 06/11/2076]',-18.364,-3.126,7.033,18.755,-22.662,10.159,9.768,5.861,0.000,-1.954,3.516,5.470,6.642,-12.894,-13.284,28.523,2.735,4.298,-6.252,32.039,9.377,-1.563,-13.284
'[12:42:57.621 06/11/2076]',-18.755,-2.735,7.033,24.615,-26.569,15.238,8.205,11.331,0.391,-6.252,5.470,1.563,-5.079,-6.252,-8.596,22.271,-4.298,14.066,-6.252,27.350,4.298,0.391,-8.596
'[12:42:57.625 06/11/2076]',-14.457,-3.126,7.033,23.834,-25.006,13.675,8.987,14.457,-14.066,-5.861,2.735,11.722,-19.927,-1.172,-7.424,22.662,-7.814,21.490,-6.252,19.536,4.689,3.907,-7.424
'[12:42:57.629 06/11/2076]',-32.430,-6.642,8.596,23.834,-45.714,10.549,17.192,9.768,-26.569,-1.172,5.470,18.755,-15.238,-4.689,-10.549,27.741,-3.516,29.304,-7.814,24.615,8.205,0.781,-10.549
'[12:42:57.633 06/11/2076]',-33.602,-10.159,3.516,20.708,-47.668,11.722,16.020,0.000,-28.132,0.391,9.377,15.238,-9.377,-7.033,-12.894,26.960,0.000,29.304,-2.735,29.304,8.596,-1.954,-12.894
'[12:42:57.637 06/11/2076]',-29.695,-6.642,3.126,14.847,-39.853,11.722,10.549,-2.344,-23.443,0.391,5.470,26.569,-7.814,-1.954,-8.596,28.132,1.563,23.834,-2.344,25.397,2.344,1.172,-8.596
'[12:42:57.641 06/11/2076]',-29.304,-7.424,1.172,23.834,-34.774,6.252,9.768,5.861,-14.457,-2.344,1.172,35.556,-3.126,-1.172,-7.424,31.258,2.735,17.973,-0.391,23.443,2.735,2.735,-7.424
'[12:42:57.645 06/11/2076]',-26.960,-7.814,0.000,28.132,-29.304,2.735,10.940,7.033,-10.940,-5.079,2.735,19.927,-9.377,0.781,-3.126,18.755,1.954,14.457,0.781,23.443,3.907,-0.781,-3.126
'[12:42:57.648 06/11/2076]',-28.523,-3.516,6.252,23.443,-28.913,6.642,12.894,6.252,-12.112,-6.252,8.205,12.894,-15.629,-1.563,0.391,19.536,-0.391,14.457,-5.470,25.006,-5.470,-3.126,0.391
'[12:42:57.652 06/11/2076]',-37.900,-1.954,4.689,27.741,-36.728,5.861,12.503,10.159,-8.205,-7.424,8.205,28.523,-8.205,-9.768,0.781,38.291,-3.907,16.410,-3.907,26.569,-17.192,-3.126,0.781
'[12:42:57.656 06/11/2076]',-44.151,-8.596,-1.563,28.523,-44.933,-3.516,12.503,9.768,-12.894,-7.814,2.735,28.523,-13.675,-10.159,0.391,33.993,-8.987,19.145,2.344,25.397,-10.159,-8.205,0.391
'[12:42:57.660 06/11/2076]',-41.807,-7.424,-4.298,25.397,-46.886,-9.768,17.192,10.159,-18.364,-5.861,-1.172,28.132,-24.225,1.172,1.563,23.443,-7.814,21.880,5.079,16.801,-3.516,-3.907,1.563
'[12:42:57.664 06/11/2076]',-41.416,-16.801,-5.861,47.277,-43.761,-32.430,20.708,37.900,-23.834,-3.516,-21.880,72.674,-22.662,6.252,-3.907,42.589,-7.424,17.582,6.642,1.172,20.708,3.907,-3.907
'[12:42:57.668 06/11/2076]',-43.761,-17.582,0.391,41.807,-47.668,-38.681,28.523,37.118,-26.178,-1.563,-21.490,64.860,-24.615,13.284,-1.954,26.960,-2.735,19.536,0.391,-8.205,37.900,5.079,-1.954
'[12:42:57.672 06/11/2076]',-38.291,-6.642,19.927,28.132,-40.244,-25.006,39.853,28.913,-35.165,0.391,-7.424,19.145,-40.244,17.973,0.391,-2.344,6.252,23.443,-19.145,-8.987,34.774,2.735,0.391
'[12:42:57.676 06/11/2076]',-33.602,-2.735,7.424,32.039,-33.211,-17.973,30.476,23.834,-30.476,-7.814,-3.126,12.112,-35.165,0.781,-4.689,8.596,2.344,19.536,-6.642,7.814,-0.391,-1.954,-4.689
'[12:42:57.680 06/11/2076]',-25.397,-6.642,4.689,22.662,-27.741,-10.940,27.741,5.861,-0.781,-16.801,-1.172,16.801,-1.172,-18.755,-9.377,28.132,3.516,17.973,-3.907,28.523,-15.238,-10.549,-9.377
'[12:42:57.684 06/11/2076]',-5.861,-13.284,1.954,23.053,-9.377,-8.987,26.178,-1.563,18.364,-22.662,-0.391,26.178,17.973,-30.867,-12.894,48.059,0.391,16.410,-1.172,43.761,-23.834,-16.020,-12.894
'[12:42:57.688 06/11/2076]',-0.781,-14.847,-8.596,33.211,-5.861,-12.503,19.927,6.252,26.178,-25.397,-7.033,29.695,11.722,-20.708,-12.112,44.542,-2.344,10.549,9.377,34.383,-23.053,-10.549,-12.112
'[12:42:57.691 06/11/2076]',0.391,-13.284,-2.344,35.946,-7.033,-12.894,21.490,18.755,35.165,-21.099,-10.159,35.556,14.457,-11.331,-6.642,42.979,-0.781,11.722,3.126,20.708,-16.410,-6.252,-6.642
'[12:42:57.695 06/11/2076]',7.033,-11.722,4.689,30.867,1.563,-9.768,25.006,14.847,25.788,-16.020,-4.689,30.867,9.768,-13.675,-6.642,46.496,1.954,15.629,-3.907,25.397,-14.457,-13.284,-6.642
'[12:42:57.699 06/11/2076]',14.457,-10.549,-1.172,30.085,6.642,-7.424,20.708,13.284,3.516,-14.066,-5.470,29.304,-8.987,-16.801,-10.159,51.184,4.298,14.457,1.954,27.741,-22.662,-15.629,-10.159
'[12:42:57.703 06/11/2076]',-12.112,-10.549,-7.033,25.788,-19.927,-12.894,14.457,13.675,4.689,-16.410,-11.331,35.946,-12.894,-12.112,-11.331,49.621,1.954,8.596,7.814,24.225,-23.443,-13.284,-11.331
'[12:42:57.707 06/11/2076]',-9.377,-12.112,-12.112,16.801,-18.755,-13.675,10.940,3.516,4.298,-19.145,-10.159,25.006,-16.801,-7.033,-11.722,36.337,2.735,8.205,12.894,24.615,-14.066,-13.284,-11.722
'[12:42:57.711 06/11/2076]',-7.033,-11.722,-14.847,8.987,-20.317,-8.205,7.814,-4.689,3.126,-18.364,-2.344,9.377,-20.708,-3.907,-8.987,25.397,0.391,10.549,15.629,27.350,-21.880,-12.112,-8.987
'[12:42:57.715 06/11/2076]',-10.159,-7.033,-12.503,10.159,-25.788,-4.298,6.642,2.735,12.894,-17.582,0.000,20.317,-11.331,-3.907,-7.033,37.509,-3.126,18.364,13.284,26.569,-32.039,-9.377,-7.033
'[12:42:57.719 06/11/2076]',3.126,-5.470,-4.689,14.457,-15.238,0.000,9.768,12.112,6.252,-10.159,1.563,30.476,-6.642,-2.735,-7.424,45.714,0.391,25.788,5.470,21.490,-21.099,-6.252,-7.424
'[12:42:57.723 06/11/2076]',9.768,-1.563,-0.391,16.020,-10.159,1.563,15.629,16.020,-13.675,-2.344,1.172,22.662,-21.490,2.344,-7.033,34.383,5.861,30.867,1.172,11.331,-10.159,-4.298,-7.033
'[12:42:57.727 06/11/2076]',1.954,-4.298,2.344,39.072,-19.927,-6.642,21.099,44.933,-23.834,3.516,-15.629,42.198,-31.258,15.629,-7.814,29.695,12.503,30.867,-1.563,-8.596,16.020,1.172,-7.814
'[12:42:57.730 06/11/2076]',-28.913,-1.954,10.159,28.132,-54.310,-1.954,32.039,31.648,-28.523,9.377,-7.424,34.774,-32.039,28.132,-3.126,14.847,20.708,31.648,-9.377,-20.317,42.198,5.861,-3.126
'[12:42:57.734 06/11/2076]',-21.490,7.424,16.801,8.987,-49.231,16.410,35.946,7.814,-22.271,14.457,7.424,26.960,-21.880,28.913,4.689,14.457,28.523,39.853,-16.020,-14.457,32.039,4.689,4.689
'[12:42:57.738 06/11/2076]',-17.582,17.192,9.768,11.722,-45.714,35.946,27.350,3.516,-12.503,9.377,20.708,19.145,-16.020,25.397,10.549,17.192,26.178,42.198,-8.987,-4.298,2.344,0.391,10.549
'[12:42:57.742 06/11/2076]',-22.662,20.708,5.079,-0.781,-53.919,44.542,19.536,-8.205,-17.192,6.252,28.132,8.205,-18.364,23.443,7.814,12.503,25.788,43.761,-4.298,0.391,-9.768,-0.781,7.814
'[12:42:57.746 06/11/2076]',-1.172,10.940,-5.079,-1.172,-34.774,39.463,11.331,-14.066,-14.847,2.344,30.867,20.708,-0.781,3.907,2.344,34.383,25.397,44.933,5.861,21.880,-28.523,-10.159,2.344
'[12:42:57.750 06/11/2076]',23.834,-1.172,-12.894,1.172,-7.814,25.397,3.516,-11.722,-10.940,-1.563,25.788,30.085,9.768,-7.424,-5.079,47.277,19.927,38.291,13.675,32.430,-32.821,-16.410,-5.079
'[12:42:57.754 06/11/2076]',18.755,-6.642,-6.252,-0.781,-10.940,14.066,0.781,-0.391,-13.675,-4.298,18.364,23.834,-2.344,0.391,-2.735,29.695,13.675,33.211,7.033,15.629,-19.145,-14.457,-2.735
'[12:42:57.758 06/11/2076]',8.987,-9.768,-5.079,-1.172,-21.490,9.377,-0.781,3.516,-11.722,-4.298,21.099,20.317,-2.344,1.954,2.735,22.662,10.159,31.648,5.861,11.331,-19.927,-14.847,2.735
'[12:42:57.762 06/11/2076]',26.178,0.391,1.563,-3.907,5.861,13.675,3.907,0.391,-1.563,1.172,25.788,21.880,8.205,5.470,7.033,26.569,12.503,34.774,-0.781,8.987,-18.364,-14.847,7.033
'[12:42:57.766 06/11/2076]',29.304,12.894,7.033,6.252,16.410,19.927,9.768,9.377,-5.861,8.205,26.178,27.741,4.689,10.159,10.549,29.695,19.536,37.509,-6.252,1.954,-9.377,-13.284,10.549
'[12:42:57.770 06/11/2076]',25.006,15.238,3.126,-1.563,9.377,21.099,13.675,-3.126,-1.563,8.205,28.523,26.960,14.847,8.205,10.159,28.523,22.271,36.728,-2.344,5.470,-7.814,-15.238,10.159
'[12:42:57.773 06/11/2076]',36.728,16.410,0.000,-0.781,19.927,24.225,14.457,-7.814,0.391,6.252,28.132,25.006,22.662,-3.907,5.861,35.165,21.099,39.463,0.781,18.755,-14.457,-24.225,5.861
'[12:42:57.777 06/11/2076]',34.774,16.020,1.172,9.768,19.536,23.834,12.112,5.861,-10.940,5.470,19.536,26.178,12.503,-11.722,4.689,35.556,17.973,35.165,-0.391,17.192,-9.768,-27.741,4.689
'[12:42:57.781 06/11/2076]',22.271,12.894,7.033,18.755,7.814,19.145,13.284,20.317,-6.252,7.033,10.940,34.383,18.364,-14.847,5.079,38.291,16.410,27.741,-6.252,11.331,0.781,-25.788,5.079
'[12:42:57.785 06/11/2076]',18.364,12.112,10.159,24.225,8.205,15.629,14.457,25.788,5.079,11.331,2.735,41.807,30.476,-11.722,5.470,38.291,18.364,22.271,-9.377,1.563,19.145,-20.317,5.470
'[12:42:57.789 06/11/2076]',4.298,12.112,13.675,38.681,0.000,2.735,19.536,47.668,4.298,16.410,-17.582,43.370,16.410,8.205,6.642,15.629,21.490,14.457,-12.894,-23.443,52.357,-7.033,6.642
'[12:42:57.793 06/11/2076]',-16.801,16.801,26.569,23.443,-21.490,2.735,35.556,33.602,7.424,28.913,-9.377,13.284,11.331,27.350,14.847,-12.894,32.430,14.847,-25.788,-35.165,68.376,-0.781,14.847
'[12:42:57.797 06/11/2076]',-3.126,22.662,25.397,10.549,-10.159,19.536,33.602,12.894,16.020,30.476,0.781,15.629,26.178,13.675,16.801,7.033,37.900,21.490,-24.615,-17.973,42.198,-7.814,16.801
'[12:42:57.801 06/11/2076]',20.317,21.490,23.834,10.940,12.503,31.648,24.225,9.377,3.516,30.476,7.033,30.085,22.271,-3.126,15.629,37.118,35.165,19.145,-23.053,0.391,13.284,-14.457,15.629
'[12:42:57.805 06/11/2076]',22.271,29.304,23.053,9.768,15.238,40.635,19.145,9.768,-7.424,33.602,16.020,11.331,4.689,0.781,23.443,23.834,37.118,15.629,-22.271,-2.344,-5.470,-11.722,23.443
'[12:42:57.809 06/11/2076]',29.695,32.821,13.675,10.940,30.085,41.807,10.159,6.252,8.205,29.304,17.973,6.642,15.238,2.735,26.569,19.145,37.509,12.894,-12.894,-6.642,-10.159,-8.596,26.569
'[12:42:57.813 06/11/2076]',44.151,26.569,5.470,15.238,46.105,37.118,6.252,1.954,19.145,25.397,15.238,17.582,29.304,-3.907,24.615,27.741,37.900,9.768,-4.689,1.954,-9.377,-8.596,24.615
'[12:42:57.816 06/11/2076]',19.927,22.271,3.126,13.675,25.397,30.867,8.987,-5.861,28.913,22.271,15.238,13.284,36.337,-7.033,27.350,24.615,40.244,6.252,-2.344,0.391,-4.298,-7.424,27.350
'[12:42:57.820 06/11/2076]',0.391,23.053,5.470,8.596,9.768,31.258,7.033,-10.549,42.589,14.066,15.238,6.252,37.118,-5.861,30.867,17.973,44.151,1.563,-4.689,-7.033,-0.391,-6.642,30.867
'[12:42:57.824 06/11/2076]',-4.689,21.490,7.033,10.549,2.344,35.165,4.689,-7.814,40.244,8.205,10.159,11.722,29.304,-12.112,31.258,23.834,44.542,-1.954,-6.252,-8.205,-6.642,-8.987,31.258
'[12:42:57.828 06/11/2076]',-10.940,14.847,8.987,14.457,-7.814,32.430,6.252,-2.344,21.099,6.252,5.470,7.033,9.377,-17.973,29.304,20.317,43.761,-5.079,-8.205,-6.252,-7.814,-14.066,29.304
'[12:42:57.832 06/11/2076]',-8.205,16.801,17.973,0.000,-7.424,37.509,10.549,-13.284,4.298,5.470,8.205,-3.126,-7.424,-20.317,30.085,13.675,44.542,-6.642,-17.192,-8.205,-8.596,-14.066,30.085
'[12:42:57.836 06/11/2076]',8.987,18.755,13.675,-7.424,7.814,41.807,6.252,-21.880,17.973,2.344,8.205,-3.907,4.689,-23.834,29.695,14.847,39.463,-7.424,-12.894,-3.516,-20.317,-14.847,29.695
'[12:42:57.840 06/11/2076]',31.258,14.457,2.344,-13.284,30.867,35.165,-0.391,-29.695,17.192,-2.344,0.781,-6.252,3.516,-28.913,26.569,7.033,30.085,-13.675,-1.563,1.563,-26.960,-16.410,26.569
'[12:42:57.844 06/11/2076]',19.927,12.894,0.391,-17.973,25.788,24.225,-2.344,-32.039,23.053,-5.079,-7.424,-14.847,6.252,-25.006,20.708,-6.252,25.006,-21.099,0.391,-5.470,-18.364,-10.549,20.708
'[12:42:57.848 06/11/2076]',8.205,10.159,5.079,-8.205,19.145,14.847,-3.126,-15.629,37.118,-0.391,-16.801,-1.563,18.755,-16.020,17.582,-2.344,23.834,-25.788,-4.298,-14.457,-2.344,-5.079,17.582
'[12:42:57.852 06/11/2076]',-12.112,0.000,-0.781,1.563,-2.735,-5.079,-5.079,1.563,18.755,4.298,-40.635,19.927,4.298,-8.596,10.940,-3.126,22.271,-38.681,1.563,-30.867,23.053,3.516,10.940
'[12:42:57.855 06/11/2076]',-20.708,1.954,18.364,-5.861,-9.377,-5.861,8.596,0.391,-5.470,18.364,-30.867,-11.331,-19.145,3.907,14.847,-30.085,30.867,-35.946,-17.582,-39.853,42.979,7.424,14.847
'[12:42:57.859 06/11/2076]',-5.861,14.066,21.099,-16.410,7.814,6.642,7.814,-10.549,-3.907,23.053,-19.536,-33.602,-23.443,8.596,20.708,-40.635,37.900,-28.523,-20.317,-31.258,25.397,6.252,20.708
'[12:42:57.863 06/11/2076]',-12.503,10.940,10.940,-19.145,5.079,7.424,-1.954,-21.490,4.689,15.238,-11.722,-13.284,-3.126,-17.192,21.099,-5.861,29.304,-27.350,-10.159,-6.252,-8.987,-3.126,21.099
'[12:42:57.867 06/11/2076]',-2.344,9.377,9.377,-21.099,17.973,9.377,-3.907,-28.132,21.490,5.470,-3.126,-8.987,14.847,-28.913,17.582,10.159,21.490,-21.490,-8.596,11.722,-30.085,-7.814,17.582
'[12:42:57.871 06/11/2076]',-10.549,14.847,1.954,-28.523,8.205,11.722,-10.940,-31.258,18.364,-1.563,-5.079,-21.490,2.344,-18.755,12.112,-5.079,11.722,-22.662,-1.172,5.470,-34.383,-5.079,12.112
'[12:42:57.875 06/11/2076]',-21.880,12.503,0.000,-25.006,-8.205,7.424,-12.112,-21.880,17.973,-8.205,-12.503,-14.847,-0.391,-16.801,8.205,-9.768,2.344,-23.834,0.781,-4.298,-24.225,-2.735,8.205
'[12:42:57.879 06/11/2076]',1.563,7.033,1.172,-29.304,6.252,5.861,-5.079,-25.397,9.377,-7.814,-15.238,-13.675,2.735,-22.662,0.000,-7.424,0.781,-20.317,-0.391,1.954,-14.847,-7.424,0.000
'[12:42:57.883 06/11/2076]',17.973,8.596,1.172,-40.244,18.364,8.987,-2.344,-38.291,7.814,-6.642,-12.503,-23.834,5.470,-27.350,0.781,-14.847,1.954,-18.364,-0.391,5.861,-16.410,-10.159,0.781
'[12:42:57.887 06/11/2076]',7.424,7.033,-1.563,-29.695,10.940,5.861,-5.470,-28.132,25.397,-9.377,-14.847,-11.722,18.364,-24.615,5.470,-10.940,1.563,-17.582,2.344,1.172,-15.238,-7.424,5.470
'[12:42:57.891 06/11/2076]',-1.563,4.689,-4.689,-32.821,3.907,-1.172,-7.814,-30.476,32.821,-10.159,-15.629,-7.424,24.615,-22.271,7.424,-11.331,2.344,-19.145,5.470,0.391,-17.582,-6.252,7.424
'[12:42:57.895 06/11/2076]',-18.364,4.298,-0.781,-25.397,-7.033,-1.563,-5.079,-25.006,27.350,-6.252,-9.768,-22.662,17.973,-15.629,5.470,-20.317,2.735,-16.020,1.563,1.954,-14.457,-8.205,5.470
'[12:42:57.898 06/11/2076]',-35.165,5.470,-6.252,-22.662,-23.834,3.126,-9.377,-29.304,14.847,-7.814,-3.516,-25.006,7.033,-14.066,0.391,-16.410,0.000,-14.847,7.033,4.689,-14.847,-9.768,0.391
'[12:42:57.902 06/11/2076]',-21.880,1.954,-4.298,-25.006,-12.894,0.391,-10.940,-25.397,-5.470,-9.377,-5.079,-9.377,-2.344,-19.145,-7.424,-1.954,-5.470,-14.847,5.079,6.642,-16.020,-11.331,-7.424
'[12:42:57.906 06/11/2076]',-3.516,-0.781,-4.689,-14.847,4.689,-7.814,-8.205,-12.894,-23.443,-8.987,-7.814,-11.331,-14.457,-17.192,-10.940,-10.549,-6.642,-12.503,5.470,4.298,-7.033,-11.331,-10.940
'[12:42:57.910 06/11/2076]',-20.317,-0.781,-7.033,-12.894,-8.596,-17.582,-6.252,-8.987,-28.913,-9.768,-11.331,-12.112,-21.490,-6.642,-8.596,-27.350,-5.470,-10.159,7.814,-8.205,12.503,-6.642,-8.596
'[12:42:57.914 06/11/2076]',-40.244,-11.722,-5.079,3.126,-30.867,-38.291,-1.563,16.410,-27.350,-14.066,-27.350,28.913,-17.582,0.000,-8.205,-15.238,-10.940,-8.987,5.861,-23.834,40.635,3.516,-8.205
'[12:42:57.918 06/11/2076]',-29.304,-11.722,6.252,-2.735,-19.536,-43.761,13.675,11.722,-22.271,-10.940,-17.973,13.675,-12.112,8.987,-2.735,-32.821,-9.768,-0.781,-5.470,-31.258,65.641,3.516,-2.735
'[12:42:57.922 06/11/2076]',-38.681,-6.642,6.642,-14.066,-29.304,-31.258,14.066,-6.252,-26.569,-11.722,-4.689,-21.490,-21.880,8.987,-1.172,-51.966,-15.238,9.768,-5.861,-21.880,53.919,-3.126,-1.172
'[12:42:57.926 06/11/2076]',-33.602,-6.642,0.000,-9.377,-26.569,-21.880,7.424,-9.377,-26.960,-16.020,1.954,-21.490,-23.053,-3.516,-3.126,-33.602,-28.523,14.457,0.781,-5.861,20.708,-10.940,-3.126
'[12:42:57.930 06/11/2076]',-9.377,-11.722,-1.172,-11.331,-2.735,-17.973,5.861,-19.145,-22.271,-13.675,9.768,-8.205,-3.907,-23.443,-5.470,-3.126,-30.085,20.317,1.954,17.973,-3.126,-23.443,-5.470
'[12:42:57.934 06/11/2076]',5.079,-16.410,-3.516,-7.424,11.722,-12.894,1.563,-22.662,-10.940,-14.847,11.722,3.907,13.675,-36.337,-5.470,17.973,-30.476,21.880,4.298,32.821,-20.317,-26.960,-5.470
'[12:42:57.938 06/11/2076]',4.298,-14.066,-5.470,-1.172,7.033,-11.331,-0.781,-11.722,1.172,-21.099,6.252,9.377,8.596,-22.271,0.781,8.596,-33.211,17.192,6.252,17.973,-18.364,-17.582,0.781
'[12:42:57.941 06/11/2076]',10.549,-14.457,-1.563,-1.172,9.377,-12.894,2.735,-5.861,11.722,-23.053,3.516,12.894,12.503,-12.112,5.861,-1.172,-31.648,16.020,2.344,7.814,-7.424,-9.768,5.861
'[12:42:57.945 06/11/2076]',7.033,-14.066,0.000,-1.172,1.563,-7.814,5.861,-7.814,8.205,-20.708,8.205,7.814,11.722,-11.331,4.689,-1.563,-29.304,19.927,0.781,17.192,-12.112,-7.814,4.689
'[12:42:57.949 06/11/2076]',-3.126,-14.847,-3.126,1.172,-8.987,-5.861,1.563,-6.642,0.781,-17.582,8.596,12.112,7.814,-9.377,0.781,3.907,-30.476,20.317,3.907,19.536,-14.457,-5.079,0.781
'[12:42:57.953 06/11/2076]',-36.728,-16.801,-2.735,8.596,-39.072,-11.331,-4.298,7.424,-6.252,-16.020,2.735,26.569,3.516,-6.252,-1.954,11.722,-31.648,16.410,3.516,15.238,-9.768,-1.954,-1.954
'[12:42:57.957 06/11/2076]',-26.178,-15.238,-8.205,-3.907,-27.741,-10.940,-12.894,-2.344,-14.066,-14.066,4.689,17.973,-1.172,-5.470,-1.954,2.735,-28.132,16.020,8.987,16.801,-11.331,-4.298,-1.954
'[12:42:57.961 06/11/2076]',-21.880,-10.549,-10.940,-8.987,-19.927,-10.549,-18.364,-3.516,-18.364,-15.238,10.549,4.689,-7.033,-7.033,1.172,-5.861,-28.132,16.020,11.722,16.410,-17.192,-7.424,1.172
'[12:42:57.965 06/11/2076]',-12.894,-10.159,-13.675,0.391,-12.503,-10.549,-23.443,8.987,-12.894,-18.364,8.205,16.801,-3.516,-11.722,5.079,3.126,-34.383,14.457,14.457,14.066,-19.145,-7.814,5.079
'[12:42:57.969 06/11/2076]',8.596,-12.112,-17.973,7.814,8.987,-14.847,-25.006,17.582,-8.596,-15.629,0.391,29.304,1.954,-12.894,5.079,9.377,-35.165,13.284,18.755,14.847,-17.582,-3.126,5.079
'[12:42:57.973 06/11/2076]',14.457,-10.940,-15.629,12.894,9.377,-17.582,-16.410,25.397,-5.861,-7.033,-8.987,23.053,4.298,-4.689,3.516,-3.516,-31.648,13.675,16.410,7.033,-2.735,2.344,3.516
'[12:42:57.977 06/11/2076]',-1.563,-19.145,-14.066,45.324,-11.331,-34.774,-8.596,65.250,2.344,-7.033,-33.993,43.761,9.768,5.079,-4.689,-5.861,-32.039,5.861,14.847,-8.205,28.913,10.549,-4.689
'[12:42:57.980 06/11/2076]',-17.192,-18.755,-11.331,27.741,-28.132,-39.463,-3.126,50.794,9.768,-4.689,-39.853,40.635,14.457,10.159,-8.987,-10.549,-23.053,2.735,12.112,-11.331,35.946,11.722,-8.987
'[12:42:57.984 06/11/2076]',-9.768,-12.894,-3.516,5.470,-23.053,-29.304,5.861,25.006,7.814,2.735,-25.788,17.973,17.973,9.768,-8.596,-17.192,-12.894,4.298,4.298,-5.861,33.993,5.861,-8.596
'[12:42:57.988 06/11/2076]',-21.880,-8.596,-12.894,-1.172,-35.946,-17.582,-5.861,13.675,-1.954,-3.126,-12.894,0.000,3.126,-1.563,-7.033,-14.457,-18.755,2.344,13.675,7.033,-1.954,-5.470,-7.033
'[12:42:57.992 06/11/2076]',-0.781,-2.344,-8.596,-2.735,-11.722,-7.814,-8.596,13.675,-14.847,-4.298,1.172,-7.814,-18.364,3.516,0.391,-12.894,-18.755,5.470,9.377,6.252,-17.973,-7.424,0.391
'[12:42:57.996 06/11/2076]',27.350,0.391,-6.642,-2.344,15.238,1.954,-8.596,10.159,-9.768,3.126,13.284,3.907,1.172,-3.516,4.298,6.642,-13.284,10.549,7.424,21.880,-31.648,-11.331,4.298
'[12:42:58.000 06/11/2076]',30.476,0.391,-8.205,1.172,10.549,3.907,-7.814,16.410,-11.331,6.642,18.364,15.629,10.940,-6.252,8.987,15.629,-9.377,14.066,8.987,26.960,-39.463,-10.940,8.987
'[12:42:58.004 06/11/2076]',17.582,2.735,-6.642,0.781,-4.298,2.344,-7.033,23.834,-19.536,7.814,14.847,12.112,-3.126,5.470,11.331,0.391,-3.907,12.894,7.424,12.503,-27.350,-4.298,11.331
'[12:42:58.008 06/11/2076]',13.675,7.424,-4.298,-3.516,-7.033,2.735,-3.516,20.708,-24.615,11.331,14.847,2.735,-5.470,8.596,10.940,-8.987,5.079,13.284,5.079,8.987,-23.834,-2.344,10.940
'[12:42:58.012 06/11/2076]',-14.847,5.079,-5.079,-0.391,-35.556,3.907,-0.391,16.801,-23.443,16.020,15.629,-4.298,-1.172,2.735,8.205,-7.033,8.987,14.066,5.861,15.238,-28.132,-4.689,8.205
'[12:42:58.016 06/11/2076]',-8.205,5.470,1.563,8.596,-30.867,10.549,2.735,24.615,-24.615,16.801,9.377,-0.781,-4.298,1.563,4.298,-1.172,11.331,11.331,-0.781,12.503,-23.053,-5.079,4.298
'[12:42:58.020 06/11/2076]',14.847,12.112,7.033,6.642,-8.205,21.099,5.470,22.662,-9.768,18.364,10.549,3.516,6.642,5.079,7.424,2.344,16.410,10.940,-6.252,8.205,-28.523,0.391,7.424
'[12:42:58.023 06/11/2076]',12.503,17.973,11.331,-1.954,-12.503,31.648,6.642,13.675,4.298,21.880,19.536,-3.126,26.178,3.907,12.894,0.000,17.582,17.973,-10.549,11.722,-37.118,-1.563,12.894
'[12:42:58.027 06/11/2076]',19.927,17.192,9.377,-2.735,-5.861,29.695,5.079,15.238,0.391,20.317,23.443,-3.516,17.582,8.987,18.755,-3.907,15.238,21.880,-8.596,6.642,-38.291,-0.391,18.755
'[12:42:58.031 06/11/2076]',25.006,13.284,6.252,0.781,1.954,21.490,3.516,18.364,-10.940,18.364,22.271,11.331,3.907,12.894,20.708,3.126,18.364,22.271,-5.470,1.172,-30.476,2.735,20.708
'[12:42:58.035 06/11/2076]',16.020,8.596,12.112,7.814,-3.126,11.722,6.252,30.085,-10.940,20.317,19.536,23.834,1.563,16.801,24.225,8.987,23.834,23.053,-11.331,-6.252,-14.066,4.298,24.225
'[12:42:58.039 06/11/2076]',-0.391,-5.470,14.847,30.867,-23.053,-12.503,12.894,61.734,-14.457,19.927,1.172,33.211,-15.238,34.383,26.569,-6.252,23.053,14.457,-14.066,-26.960,14.457,12.503,26.569
'[12:42:58.043 06/11/2076]',4.689,1.563,19.927,30.085,-18.364,-5.861,18.755,62.906,-9.377,19.927,-1.954,26.569,-14.457,37.509,25.006,-13.284,32.039,14.066,-19.145,-30.085,15.629,14.847,25.006
'[12:42:58.047 06/11/2076]',16.801,7.814,32.039,9.377,-7.033,8.596,23.834,41.807,-4.298,22.662,8.596,19.536,1.954,24.615,23.834,-5.079,37.118,19.927,-31.258,-18.364,11.722,8.987,23.834
'[12:42:58.051 06/11/2076]',-5.861,0.781,28.523,2.344,-33.993,21.099,12.503,25.006,-7.814,14.847,13.675,28.523,7.033,0.391,20.708,21.099,27.350,22.662,-27.741,5.861,-12.112,-0.391,20.708
'[12:42:58.055 06/11/2076]',-11.331,2.344,20.317,-0.391,-36.337,31.258,4.298,11.722,-6.642,12.112,16.020,8.596,-0.781,0.000,21.880,9.768,24.225,19.145,-19.536,10.159,-19.145,0.000,21.880
'[12:42:58.059 06/11/2076]',-28.132,-0.781,21.099,-5.470,-50.794,36.728,-2.344,1.563,0.391,12.503,13.675,3.907,-3.907,2.344,25.397,7.033,26.178,14.457,-20.317,9.377,-13.284,1.172,25.397
'[12:42:58.063 06/11/2076]',-45.714,-12.894,20.708,4.689,-70.720,33.211,-1.563,4.298,5.079,16.020,7.814,20.317,5.079,-10.159,27.350,26.960,28.132,10.549,-19.927,20.708,-15.238,-3.907,27.350
'[12:42:58.066 06/11/2076]',-38.681,-14.066,17.192,12.894,-60.562,28.523,3.126,6.252,15.238,23.053,5.861,22.271,16.801,-12.503,28.523,33.993,34.383,7.033,-16.410,20.708,-12.894,-4.298,28.523
'[12:42:58.070 06/11/2076]',-2.344,-1.954,19.927,10.940,-20.708,31.258,6.642,8.596,13.284,25.397,7.814,17.973,7.424,-6.252,35.165,28.523,38.681,6.642,-19.145,7.814,-11.331,-2.344,35.165
'[12:42:58.074 06/11/2076]',7.814,-0.781,29.304,15.629,-5.861,25.397,10.940,21.880,0.391,23.053,9.768,25.397,-5.079,-9.768,39.853,34.383,35.556,10.940,-28.523,3.516,-12.503,-1.954,39.853
'[12:42:58.078 06/11/2076]',6.642,1.954,24.615,27.741,0.781,14.847,12.894,32.430,-1.172,18.755,13.284,20.708,-8.987,-8.987,37.900,32.039,31.258,13.675,-23.834,2.735,-13.284,-1.563,37.900
'[12:42:58.082 06/11/2076]',14.457,6.252,28.132,28.132,13.284,15.629,13.675,33.602,-3.126,14.847,16.801,21.490,-11.331,-4.298,37.509,29.695,28.523,13.284,-27.350,3.907,-10.549,-1.563,37.509
'[12:42:58.086 06/11/2076]',-17.582,3.126,30.476,17.192,-15.629,15.238,8.205,23.443,0.781,8.205,21.099,25.006,-3.126,-10.940,34.774,34.383,23.834,12.894,-29.695,10.549,-17.582,-1.172,34.774
'[12:42:58.090 06/11/2076]',-21.099,-6.642,18.755,24.225,-17.582,4.689,2.735,25.788,-2.344,1.563,21.099,27.350,-6.642,-12.112,32.039,34.774,19.145,12.503,-17.973,17.973,-26.960,-1.563,32.039
'[12:42:58.094 06/11/2076]',-7.424,-10.159,12.112,17.582,-3.126,-3.516,-0.781,20.708,0.781,-2.344,16.020,25.397,-7.424,-4.298,28.523,23.053,19.536,6.252,-11.331,10.549,-21.099,3.516,28.523
'[12:42:58.098 06/11/2076]',-2.344,-15.238,14.457,16.801,1.563,-11.722,2.344,21.880,9.768,-3.126,10.159,33.602,-2.344,1.954,30.085,20.708,23.053,2.735,-13.675,0.391,-8.596,9.768,30.085
'[12:42:58.102 06/11/2076]',-11.331,-28.523,12.503,44.933,-7.033,-35.556,4.689,55.482,8.596,-3.907,-4.689,56.654,-10.159,15.629,27.741,22.271,22.271,-1.954,-11.722,-21.880,17.192,21.880,27.741
'[12:42:58.105 06/11/2076]',-8.987,-20.317,13.675,32.821,-9.768,-28.523,12.894,42.589,9.768,1.563,-3.907,22.271,-14.066,31.258,23.834,-10.549,28.913,-7.033,-12.894,-26.178,32.430,23.053,23.834
'[12:42:58.109 06/11/2076]',-14.457,-11.722,19.536,14.066,-17.192,-12.894,18.364,18.755,8.596,3.516,2.735,-12.112,-16.801,32.039,20.708,-33.993,29.695,-6.252,-18.755,-20.708,33.602,18.364,20.708
'[12:42:58.113 06/11/2076]',-6.252,-13.675,19.145,12.503,-11.331,0.000,8.987,13.675,2.344,0.000,7.814,3.516,-11.331,5.861,17.192,1.563,18.755,-3.907,-18.364,7.814,0.781,8.987,17.192
'[12:42:58.117 06/11/2076]',16.020,-14.847,16.801,-1.172,6.642,7.033,4.298,-1.563,-10.159,-1.954,9.377,0.781,-12.503,-12.112,10.940,11.722,12.894,-4.689,-16.020,26.178,-15.238,2.735,10.940
'[12:42:58.121 06/11/2076]',9.768,-8.987,15.238,-7.033,4.298,8.205,1.172,-5.079,-3.516,-2.735,7.033,-13.675,-15.238,-5.861,13.284,-5.079,10.549,-9.377,-14.457,16.410,-19.145,6.252,13.284
'[12:42:58.125 06/11/2076]',-17.582,-4.689,13.675,0.781,-21.490,5.861,-1.563,9.377,3.126,0.000,5.470,-5.470,-15.629,3.907,18.755,-5.079,13.675,-7.814,-12.894,5.079,-23.834,13.284,18.755
'[12:42:58.129 06/11/2076]',-15.238,-5.470,10.940,3.126,-21.880,3.907,1.954,8.205,-3.126,6.642,6.642,-1.563,-9.768,4.689,17.973,-2.735,22.271,-2.344,-10.159,7.814,-21.490,12.894,17.973
'[12:42:58.133 06/11/2076]',-23.834,0.391,10.159,3.126,-28.913,10.159,4.298,4.298,-0.391,14.847,12.894,-3.126,0.391,8.987,17.582,-2.735,29.304,-0.391,-9.377,9.377,-19.927,13.284,17.582
'[12:42:58.137 06/11/2076]',-3.516,5.470,9.768,7.033,-5.470,15.238,-1.563,10.940,-9.377,17.192,10.159,8.987,-8.987,12.112,20.317,3.907,26.569,1.172,-8.987,3.907,-18.364,14.066,20.317
'[12:42:58.141 06/11/2076]',25.788,3.907,13.675,13.675,22.662,16.801,-3.907,21.880,-8.205,17.192,5.079,19.927,-7.424,10.940,19.145,10.940,21.490,2.735,-12.894,4.298,-19.927,14.847,19.145
'[12:42:58.145 06/11/2076]',30.476,7.424,15.238,12.503,30.085,21.099,-0.781,16.410,4.689,13.284,5.861,8.987,0.000,11.331,17.582,4.689,13.284,1.172,-14.457,1.172,-14.457,10.940,17.582
'[12:42:58.148 06/11/2076]',3.907,13.675,17.973,12.503,8.205,27.741,0.391,11.722,24.225,8.596,10.159,9.377,9.768,10.940,18.755,13.675,7.424,4.298,-17.192,1.954,-20.317,7.424,18.755
'[12:42:58.152 06/11/2076]',1.563,13.675,19.145,17.973,5.470,32.430,-1.172,16.020,18.364,1.563,8.987,30.085,2.344,4.689,17.582,35.165,4.689,5.861,-18.364,2.735,-24.615,7.033,17.582
'[12:42:58.156 06/11/2076]',-9.377,15.629,18.364,24.615,-1.954,26.569,2.344,22.271,14.066,-2.344,5.470,33.993,-3.907,4.298,17.582,32.821,3.126,4.689,-17.582,-3.516,-16.410,7.033,17.582
'[12:42:58.160 06/11/2076]',-27.350,14.847,24.615,32.821,-12.503,15.629,7.033,35.165,16.801,-0.391,-0.781,36.728,-7.814,15.238,18.755,25.788,7.033,2.344,-23.834,-14.847,0.781,11.331,18.755
'[12:42:58.164 06/11/2076]',-5.079,6.252,25.006,60.562,10.940,-1.563,7.033,70.330,-3.126,3.516,-21.880,80.098,-20.708,19.145,12.112,46.886,11.722,-2.735,-24.225,-32.039,28.913,20.317,12.112
'[12:42:58.168 06/11/2076]',3.907,8.596,37.509,47.668,20.708,-4.298,20.708,60.562,-1.563,12.503,-25.006,68.767,-16.410,26.960,10.940,31.648,18.364,-1.563,-36.728,-39.463,46.105,23.443,10.940
'[12:42:58.172 06/11/2076]',-1.563,12.894,42.979,27.350,17.973,0.000,28.132,36.337,2.735,20.317,-16.410,18.755,-10.549,32.039,9.768,-4.298,22.662,0.781,-42.198,-37.509,53.138,19.927,9.768
'[12:42:58.176 06/11/2076]',-8.205,16.410,27.741,19.927,6.642,12.112,16.410,20.708,4.298,16.020,-11.722,4.689,-10.159,16.410,6.642,0.391,20.317,1.563,-26.960,-17.973,19.536,12.503,6.642
'[12:42:58.180 06/11/2076]',-9.768,12.112,26.960,5.861,-3.516,23.834,14.066,1.954,9.768,16.410,-12.112,3.907,8.205,-3.516,2.344,10.940,20.708,0.781,-26.178,2.344,7.033,5.470,2.344
'[12:42:58.184 06/11/2076]',-16.020,9.377,28.132,2.344,-12.894,26.178,12.894,-1.954,33.993,14.457,-12.894,8.205,37.118,-13.675,-0.781,21.099,17.973,-0.391,-27.350,13.675,-2.344,1.954,-0.781
'[12:42:58.188 06/11/2076]',-17.582,9.768,19.536,19.927,-13.675,19.927,6.642,19.145,42.589,8.205,-20.708,10.549,33.602,-3.126,-4.298,14.457,14.066,-5.861,-18.755,1.954,-1.172,7.033,-4.298
'[12:42:58.191 06/11/2076]',10.549,11.722,16.020,17.192,13.284,18.364,7.814,16.801,32.821,4.689,-24.615,8.205,17.973,7.424,-8.596,3.516,7.424,-4.298,-15.238,-10.940,10.940,12.894,-8.596
'[12:42:58.195 06/11/2076]',25.788,11.722,15.629,9.377,31.258,12.894,15.629,3.126,31.258,2.735,-18.755,-2.344,17.192,8.987,-12.112,-0.781,0.000,3.126,-14.847,-5.079,9.377,9.768,-12.112
'[12:42:58.199 06/11/2076]',31.258,12.503,4.689,12.894,39.072,7.814,14.066,0.391,19.536,-1.954,-12.894,-2.735,7.424,5.470,-17.973,5.861,-8.205,5.861,-3.907,0.000,0.391,9.377,-17.973
'[12:42:58.203 06/11/2076]',2.735,11.722,-2.344,4.298,11.722,3.516,8.205,-7.424,-2.735,-4.298,-15.238,5.470,-14.066,4.689,-14.457,6.642,-15.629,2.344,3.126,-4.298,-1.563,10.159,-14.457
'[12:42:58.207 06/11/2076]',-14.066,16.020,3.907,-10.549,-5.470,3.126,10.549,-13.284,-1.563,-2.735,-9.768,4.689,-11.722,4.298,-6.642,2.344,-14.457,4.298,-3.126,-5.861,-12.112,9.768,-6.642
'[12:42:58.211 06/11/2076]',-17.973,15.629,3.126,-6.252,-7.033,1.563,7.424,-7.424,4.298,-8.205,-1.954,-1.172,-7.033,0.391,-3.126,1.172,-16.410,3.907,-2.344,0.391,-23.834,5.079,-3.126
'[12:42:58.215 06/11/2076]',-25.006,10.549,-4.689,-3.516,-10.940,-6.252,0.000,-4.298,1.954,-14.457,-3.907,10.159,-7.424,-4.689,-5.861,11.331,-23.834,-0.781,5.470,1.954,-27.741,3.907,-5.861
'[12:42:58.219 06/11/2076]',-12.894,4.298,-7.424,-3.907,0.391,-11.331,-3.126,-5.079,12.894,-20.708,-10.940,25.788,3.126,-8.596,-9.768,22.271,-28.913,-3.907,8.205,1.954,-26.960,5.470,-9.768
'[12:42:58.223 06/11/2076]',14.066,-3.907,-11.331,0.000,28.132,-21.099,-3.907,-2.344,6.252,-22.271,-19.927,16.410,-3.516,-3.907,-19.145,7.033,-30.867,-9.377,12.112,0.391,-12.894,4.298,-19.145
'[12:42:58.227 06/11/2076]',-19.536,-13.284,-13.675,14.066,-6.252,-37.900,-4.689,16.801,-19.145,-17.192,-39.072,29.304,-28.913,10.940,-27.741,-1.172,-30.476,-16.410,14.457,-19.536,14.847,14.066,-27.741
'[12:42:58.230 06/11/2076]',-29.304,-7.814,-3.907,-1.563,-19.145,-32.430,1.563,6.252,-25.397,-7.814,-40.244,27.350,-35.165,18.364,-19.927,-10.549,-14.847,-14.457,4.689,-30.476,19.145,14.847,-19.927
'[12:42:58.234 06/11/2076]',-16.410,-0.781,2.344,-26.178,-8.596,-16.410,7.033,-22.662,-29.304,2.735,-23.053,3.126,-32.430,17.192,-10.940,-21.099,0.391,-7.033,-1.563,-23.834,8.987,11.331,-10.940
'[12:42:58.238 06/11/2076]',-23.053,1.954,-9.377,-32.039,-18.364,-0.781,-6.252,-37.118,-32.039,1.954,-10.549,-17.582,-40.635,13.675,-4.689,-28.132,-1.563,-4.689,10.159,-12.894,-24.225,6.642,-4.689
'[12:42:58.242 06/11/2076]',-21.490,5.470,-17.973,-42.589,-16.801,8.987,-15.629,-53.529,-18.364,0.000,-1.563,-29.304,-35.556,14.066,2.735,-32.821,-3.126,-5.470,18.755,-7.424,-48.059,6.252,2.735
'[12:42:58.246 06/11/2076]',0.000,-2.344,-26.178,-46.105,5.079,11.331,-23.053,-69.158,-7.424,-2.344,1.954,-19.145,-18.755,1.563,1.954,-12.894,-7.033,-6.252,26.960,11.722,-64.078,0.000,1.954
'[12:42:58.250 06/11/2076]',8.596,-9.377,-28.913,-39.853,11.722,11.331,-27.350,-65.641,-4.689,-4.298,0.781,-6.252,-15.629,-0.781,0.000,1.172,-13.675,-7.814,29.695,18.755,-66.422,-3.126,0.000
'[12:42:58.254 06/11/2076]',0.000,-3.907,-25.397,-37.900,4.689,8.987,-27.741,-54.701,-10.549,-5.470,-2.344,-8.987,-35.946,11.722,4.298,-9.768,-16.801,-12.112,26.178,1.563,-60.171,2.735,4.298
'[12:42:58.258 06/11/2076]',8.205,1.172,-19.536,-41.807,13.675,12.894,-21.099,-57.436,-10.549,-5.470,-1.954,-13.675,-41.416,12.894,8.596,-12.503,-14.066,-5.470,20.317,-3.516,-54.310,1.172,8.596
'[12:42:58.262 06/11/2076]',1.954,2.344,-17.192,-38.681,8.987,14.457,-14.066,-60.952,-16.410,-3.126,0.781,-21.490,-40.244,1.172,7.424,-10.549,-13.284,0.391,17.973,1.172,-51.966,-4.689,7.424
'[12:42:58.266 06/11/2076]',2.735,3.126,-10.549,-28.913,10.940,12.894,-6.252,-52.357,-13.284,-1.172,1.954,-19.145,-32.821,-3.516,11.722,-6.642,-8.987,2.344,11.331,-1.563,-49.621,-3.126,11.722
'[12:42:58.270 06/11/2076]',-1.172,8.205,0.391,-28.132,5.079,20.708,3.126,-49.621,-5.079,0.391,5.470,-12.503,-22.662,-6.252,19.536,-1.172,0.391,8.596,0.391,-3.907,-48.449,-1.172,19.536
'[12:42:58.273 06/11/2076]',-5.861,14.457,3.907,-32.430,-5.861,33.993,8.596,-57.045,-7.814,4.689,14.066,-12.894,-16.801,-13.284,26.569,1.172,9.377,14.847,-3.126,5.861,-59.389,-5.470,26.569
'[12:42:58.277 06/11/2076]',-16.020,16.410,8.205,-12.112,-23.834,40.635,14.847,-34.383,-12.112,10.940,17.973,-2.735,-21.099,-4.298,34.774,4.689,12.503,22.271,-7.424,1.563,-58.217,-1.172,34.774
'[12:42:58.281 06/11/2076]',-23.834,21.099,7.424,-8.205,-36.337,40.244,19.927,-27.350,-11.722,16.410,16.801,11.722,-21.490,4.689,37.509,12.503,13.675,28.523,-6.642,-6.642,-50.012,4.298,37.509
'[12:42:58.285 06/11/2076]',-25.788,16.801,13.675,11.331,-35.165,32.039,27.350,-6.642,-22.271,25.788,14.847,29.304,-25.788,11.331,37.509,25.006,16.801,33.602,-12.894,-10.549,-28.913,7.033,37.509
'[12:42:58.289 06/11/2076]',-25.397,3.126,20.708,40.635,-29.695,2.344,35.946,30.476,-19.145,30.476,-2.735,37.118,-33.993,30.476,37.900,10.159,13.675,26.960,-19.927,-34.774,7.814,18.364,37.900
'[12:42:58.293 06/11/2076]',-10.549,4.298,33.211,42.979,-9.377,0.391,44.542,35.946,5.861,28.523,-1.172,18.755,-24.225,38.291,39.853,-1.954,18.364,26.960,-32.430,-39.463,19.536,20.708,39.853
'[12:42:58.297 06/11/2076]',12.503,3.516,42.589,32.821,19.927,5.861,44.933,21.490,21.880,25.397,4.298,17.973,-8.596,23.834,39.853,14.457,24.225,24.225,-41.807,-20.317,10.940,10.940,39.853
'[12:42:58.301 06/11/2076]',10.549,3.516,41.026,24.615,14.847,19.536,32.430,13.284,33.602,16.801,8.596,28.913,6.642,-0.781,36.728,45.714,17.582,19.145,-40.244,4.298,-26.178,4.298,36.728
'[12:42:58.305 06/11/2076]',2.735,10.940,37.118,16.410,4.298,28.132,26.178,8.596,32.430,14.066,10.940,6.252,0.000,1.563,33.211,30.085,14.457,16.020,-36.337,3.907,-34.383,6.642,33.211
'[12:42:58.309 06/11/2076]',1.563,16.801,32.430,11.722,7.033,25.788,21.099,8.596,7.033,16.801,11.331,2.735,-19.536,3.126,29.695,25.006,14.847,14.457,-31.648,3.516,-33.602,8.205,29.695
'[12:42:58.313 06/11/2076]',-4.298,12.503,30.085,19.145,-1.563,22.662,21.099,15.629,4.689,18.364,10.940,17.192,-5.079,-1.954,22.271,36.337,16.801,17.192,-29.304,12.894,-31.258,10.159,22.271
'[12:42:58.316 06/11/2076]',0.391,9.377,26.178,23.443,-1.563,18.755,22.271,19.927,19.536,16.410,11.331,18.364,17.192,-2.344,17.973,33.211,17.973,19.145,-25.397,15.238,-14.847,7.033,17.973
'[12:42:58.320 06/11/2076]',11.331,9.377,19.536,19.927,8.987,13.284,16.020,22.662,22.662,11.722,12.503,14.457,16.410,5.079,19.536,20.317,17.582,16.020,-18.755,10.549,-4.689,5.861,19.536
'[12:42:58.324 06/11/2076]',11.331,5.079,16.410,21.099,7.814,7.424,8.205,30.867,24.225,6.252,12.503,17.192,18.364,5.470,20.708,16.801,12.112,14.457,-15.629,11.722,-2.344,5.079,20.708
'[12:42:58.328 06/11/2076]',-7.814,-2.735,5.079,25.397,-13.284,-4.298,2.344,35.946,14.847,4.689,7.424,10.940,10.159,6.252,13.284,10.159,6.642,8.205,-4.298,14.847,3.516,1.172,13.284
'[12:42:58.332 06/11/2076]',-24.615,-6.642,3.516,17.973,-23.834,-16.410,0.781,29.695,-9.768,6.642,6.252,0.391,-13.675,8.987,6.642,1.954,2.344,2.344,-2.735,17.973,10.549,0.391,6.642
'[12:42:58.336 06/11/2076]',-23.443,-7.424,10.940,19.927,-10.549,-19.927,0.391,31.648,-6.642,6.642,10.159,0.781,-12.503,7.033,5.861,11.331,0.781,0.000,-10.159,25.006,3.126,0.391,5.861
'[12:42:58.340 06/11/2076]',-3.516,-12.503,6.252,23.834,7.033,-15.629,-4.689,27.350,2.735,3.126,7.424,-1.954,-5.861,3.907,3.126,8.987,2.735,-2.735,-5.470,28.523,3.907,-0.391,3.126
'[12:42:58.344 06/11/2076]',-6.642,-12.112,4.689,29.304,1.563,-12.112,-7.424,33.993,-1.954,2.735,1.563,-5.079,-14.457,7.814,3.126,0.391,8.205,-8.596,-3.907,18.755,11.722,1.172,3.126
'[12:42:58.348 06/11/2076]',-5.470,-10.159,4.689,36.728,1.954,-11.722,-8.596,44.933,0.000,6.642,-1.172,3.516,-9.377,12.503,5.861,-0.391,14.457,-14.457,-3.907,3.126,24.225,8.205,5.861
'[12:42:58.352 06/11/2076]',-7.814,-20.317,-4.298,55.482,-3.516,-26.569,-14.066,66.813,-18.364,5.079,-18.364,26.178,-24.615,21.880,3.126,-5.861,15.629,-25.788,5.079,-24.225,60.562,21.099,3.126
'[12:42:58.355 06/11/2076]',-34.383,-12.503,-14.457,44.151,-26.569,-27.350,-14.457,52.357,-21.099,14.847,-20.317,1.954,-22.662,30.085,-0.391,-31.648,22.662,-30.476,15.238,-26.569,65.641,19.927,-0.391
'[12:42:58.359 06/11/2076]',-35.946,-4.298,-5.079,23.834,-17.582,-24.225,-8.987,29.304,-13.284,19.927,-6.642,-28.523,-15.238,32.039,2.735,-48.840,26.960,-27.741,5.861,-24.615,61.343,18.364,2.735
'[12:42:58.363 06/11/2076]',-23.443,-11.331,-2.344,18.755,0.391,-8.596,-19.536,8.987,7.033,14.066,4.689,-10.159,10.549,8.596,5.079,-8.987,27.350,-19.536,3.126,7.814,19.927,12.112,5.079
'[12:42:58.367 06/11/2076]',-21.099,-14.457,-1.172,4.689,0.000,3.516,-21.880,-12.894,22.271,15.629,13.675,-7.424,28.523,0.781,4.689,9.768,28.523,-11.331,1.954,28.132,-4.689,7.033,4.689
'[12:42:58.371 06/11/2076]',-16.801,-7.033,5.079,1.563,5.861,8.596,-18.755,-12.894,17.192,14.066,19.145,-20.708,13.675,10.159,4.689,0.391,24.615,-7.033,-4.298,16.020,-6.252,8.596,4.689
'[12:42:58.375 06/11/2076]',-3.126,-10.549,5.861,8.987,12.112,9.768,-17.973,-1.563,0.000,7.424,14.847,-14.457,-4.689,10.940,1.954,0.000,14.066,-2.344,-5.079,8.205,3.516,6.252,1.954
'[12:42:58.379 06/11/2076]',16.801,-12.112,-0.781,12.112,23.053,7.424,-10.940,-3.907,0.391,7.814,10.549,-9.768,6.252,3.907,-8.205,7.814,7.814,1.563,1.563,16.410,10.940,-3.907,-8.205
'[12:42:58.383 06/11/2076]',20.317,-11.331,0.391,7.814,26.960,3.907,-3.907,-10.159,-3.516,11.722,6.252,-14.847,13.675,-7.424,-16.410,10.159,5.079,0.391,0.391,18.364,19.927,-13.284,-16.410
'[12:42:58.387 06/11/2076]',12.894,-9.768,-2.344,11.331,14.847,10.549,-7.424,-5.861,-1.563,11.722,0.000,-9.768,-0.781,-1.563,-10.549,13.284,3.907,-0.781,3.126,12.894,4.689,-4.298,-10.549
'[12:42:58.391 06/11/2076]',-0.781,-7.424,0.391,8.987,4.689,11.331,-8.596,-6.642,19.145,15.238,-5.470,0.391,-3.516,15.238,-1.563,20.317,7.033,0.781,0.391,8.987,-14.847,12.112,-1.563
'[12:42:58.395 06/11/2076]',2.344,0.391,7.033,9.377,12.894,11.331,-1.563,-3.126,36.337,21.099,-0.781,-7.814,-6.252,33.993,7.424,13.284,7.814,8.205,-6.252,1.563,-28.913,25.006,7.424
'[12:42:58.398 06/11/2076]',12.112,0.781,8.987,8.205,19.145,15.629,0.391,-5.079,34.774,16.020,6.642,-9.768,-13.675,37.118,11.331,12.894,1.954,17.973,-8.205,6.642,-39.463,27.741,11.331
'[12:42:58.402 06/11/2076]',19.536,-12.503,0.391,14.847,19.145,7.033,-2.735,-1.172,22.271,7.033,5.079,9.377,-14.847,26.178,7.814,25.788,-5.470,23.443,0.391,19.145,-42.589,25.788,7.814
'[12:42:58.406 06/11/2076]',9.377,-25.006,-7.033,20.708,2.344,-4.298,-0.781,1.172,13.675,5.861,0.781,6.252,-7.814,21.880,0.000,14.457,-6.252,23.834,7.814,21.880,-26.178,22.271,0.000
'[12:42:58.410 06/11/2076]',-26.178,-32.430,-13.284,21.099,-40.635,-13.284,1.172,2.344,-5.079,4.298,-6.252,-1.172,-19.927,23.443,-5.079,-6.642,-2.344,22.271,14.066,15.629,-8.205,23.834,-5.079
'[12:42:58.414 06/11/2076]',-45.324,-40.244,-19.536,38.681,-63.687,-31.258,0.391,28.132,-12.503,3.126,-25.397,33.602,-24.225,29.695,-10.159,2.344,-1.563,16.410,20.317,-2.344,17.192,32.821,-10.159
'[12:42:58.418 06/11/2076]',-26.178,-33.602,-3.907,30.867,-41.807,-33.211,15.629,26.569,7.424,10.940,-24.615,24.225,-8.205,44.542,-7.033,-10.549,2.344,21.880,4.689,-11.722,31.648,38.681,-7.033
'[12:42:58.422 06/11/2076]',-8.205,-17.192,5.861,10.940,-26.569,-19.536,26.569,10.940,32.430,11.722,-7.424,-21.880,0.781,56.264,1.563,-44.151,1.563,30.085,-5.079,-12.503,21.490,37.118,1.563
'[12:42:58.426 06/11/2076]',14.847,-16.020,0.391,14.066,-10.940,-6.252,17.582,13.284,37.118,1.563,0.781,-22.271,5.079,39.853,2.344,-28.913,-10.940,31.648,0.391,4.298,-9.377,26.178,2.344
'[12:42:58.430 06/11/2076]',16.410,-19.145,4.298,7.033,-8.205,-2.344,15.238,4.298,30.867,1.172,7.814,-10.940,13.284,18.364,1.172,-3.126,-11.722,30.867,-3.516,23.053,-29.304,16.020,1.172
'[12:42:58.434 06/11/2076]',1.172,-26.178,1.172,3.126,-18.364,-5.861,9.768,-4.689,14.066,0.781,12.894,-6.252,9.377,1.172,0.391,11.331,-8.205,24.225,-0.391,37.509,-41.026,7.814,0.391
'[12:42:58.438 06/11/2076]',-16.020,-26.569,-6.252,-1.172,-31.648,-14.847,-0.391,-2.344,-26.960,0.000,5.861,-5.861,-33.993,3.126,1.172,1.954,-7.033,9.768,7.033,24.225,-43.370,7.814,1.172
'[12:42:58.441 06/11/2076]',-10.940,-25.006,-4.298,3.907,-19.927,-21.880,-2.735,8.205,-40.635,2.344,4.298,-4.298,-50.403,11.722,3.907,-3.907,1.563,1.954,5.079,13.675,-36.728,12.503,3.907
'[12:42:58.445 06/11/2076]',7.424,-26.178,-0.781,-0.781,3.516,-25.788,2.735,-0.391,-28.132,3.516,12.503,-14.457,-37.118,12.112,8.987,-10.940,6.252,2.735,1.563,21.099,-41.416,10.940,8.987
'[12:42:58.449 06/11/2076]',13.675,-25.788,0.781,5.470,-1.563,-14.457,2.735,7.814,-12.894,1.172,16.410,-7.424,-20.708,10.159,10.159,-1.954,7.814,4.298,0.000,23.053,-47.277,9.768,10.159
'[12:42:58.453 06/11/2076]',10.940,-21.880,3.516,10.940,-3.907,-10.159,0.781,17.582,-9.768,0.391,16.410,6.252,-17.582,13.284,9.768,7.424,11.722,2.735,-2.735,15.238,-42.198,12.894,9.768
'[12:42:58.457 06/11/2076]',32.039,-16.020,8.596,0.781,21.490,-5.861,3.126,6.642,3.907,-1.954,20.317,0.781,-3.907,11.722,8.205,7.033,17.973,6.252,-7.814,16.020,-42.979,11.331,8.205
'[12:42:58.461 06/11/2076]',27.741,-7.814,3.126,-9.768,17.973,3.516,0.000,-9.377,2.735,0.391,23.834,-14.457,-5.079,12.112,3.907,0.781,19.927,6.252,-2.344,16.020,-48.840,6.642,3.907
'[12:42:58.465 06/11/2076]',17.582,-3.907,-5.470,-19.145,14.457,2.344,-8.205,-21.099,-4.298,-1.954,17.973,-12.503,-10.940,8.205,-1.563,3.126,15.629,0.391,6.252,12.503,-47.668,6.252,-1.563
'[12:42:58.469 06/11/2076]',5.861,-3.516,-4.689,-11.331,7.424,0.391,-10.940,-10.940,-3.516,-1.563,9.768,0.391,-9.377,8.205,-3.516,9.768,14.847,-1.954,5.470,7.424,-41.416,9.377,-3.516
'[12:42:58.473 06/11/2076]',-9.377,-1.172,-3.126,0.391,-10.159,0.781,-7.814,2.344,-7.424,5.470,1.172,-5.470,-14.066,18.364,-3.907,-5.861,19.145,-2.735,3.907,-4.298,-23.834,14.066,-3.907
'[12:42:58.477 06/11/2076]',-28.913,-8.596,-8.596,15.629,-33.211,-15.629,-10.549,28.523,-37.509,12.112,-22.662,11.722,-41.026,29.304,-8.596,-14.847,21.490,-11.722,9.377,-24.615,7.033,23.443,-8.596
'[12:42:58.480 06/11/2076]',-25.397,-8.596,-3.516,16.801,-30.085,-16.020,-4.689,29.695,-41.807,18.364,-23.834,9.377,-45.714,37.509,-7.424,-21.099,29.304,-15.238,4.298,-30.085,25.397,27.741,-7.424
'[12:42:58.484 06/11/2076]',0.781,-2.735,3.907,-1.172,-4.298,-4.298,0.391,8.205,-28.523,23.443,-12.503,-13.284,-33.602,38.681,-6.642,-29.695,34.774,-12.503,-3.126,-21.099,20.708,26.178,-6.642
'[12:42:58.488 06/11/2076]',3.516,-2.735,-16.410,-7.033,1.954,0.000,-16.801,-8.205,-18.364,12.503,-8.596,-42.198,-34.774,30.867,-8.205,-44.151,17.582,-19.536,17.192,-5.079,-5.470,19.145,-8.205
'[12:42:58.492 06/11/2076]',-3.907,-5.470,-22.271,-16.801,-0.781,-0.781,-24.615,-22.271,-0.781,1.954,-5.470,-62.906,-28.523,28.132,-8.205,-59.389,3.907,-22.662,23.053,0.391,-12.503,17.582,-8.205
'[12:42:58.496 06/11/2076]',-0.781,-12.112,-22.271,-17.582,3.126,-2.735,-27.741,-26.569,9.377,-2.735,-5.079,-55.092,-9.768,10.549,-10.159,-44.542,-5.079,-19.536,23.053,18.364,-24.615,11.331,-10.159
'[12:42:58.500 06/11/2076]',-19.536,-19.145,-27.741,-23.053,-17.582,-7.033,-32.039,-33.602,7.814,-7.424,-9.377,-45.324,-7.424,3.907,-13.284,-37.900,-13.675,-21.490,28.523,28.523,-29.304,8.205,-13.284
'[12:42:58.504 06/11/2076]',-12.894,-22.662,-31.648,-27.350,-13.284,-11.331,-35.556,-34.383,1.954,-8.987,-16.020,-50.012,-16.020,9.768,-13.675,-53.919,-17.192,-29.695,32.430,17.973,-16.020,11.331,-13.675
'[12:42:58.508 06/11/2076]',-10.549,-18.364,-28.913,-34.774,-13.284,-7.033,-34.774,-38.681,3.907,-7.814,-14.066,-55.482,-17.973,12.894,-10.159,-58.999,-16.020,-29.695,29.695,17.973,-22.271,13.675,-10.159
'[12:42:58.512 06/11/2076]',-4.689,-18.755,-31.258,-38.681,-3.907,-8.987,-35.165,-45.324,5.470,-5.470,-12.112,-61.343,-14.847,8.987,-9.377,-59.389,-16.410,-28.913,32.039,23.834,-27.741,9.377,-9.377
'[12:42:58.516 06/11/2076]',19.536,-17.582,-35.556,-30.476,20.317,-10.549,-34.774,-39.072,7.814,-4.689,-12.894,-59.389,-9.768,4.298,-7.033,-58.217,-21.880,-28.913,36.337,23.443,-26.569,8.987,-7.033
'[12:42:58.520 06/11/2076]',13.675,-12.503,-28.132,-41.416,14.066,-9.768,-31.258,-42.198,-7.033,-3.907,-10.159,-53.138,-22.662,3.126,-1.563,-54.701,-23.834,-21.490,28.913,20.708,-26.960,10.940,-1.563
'[12:42:58.523 06/11/2076]',6.252,-6.252,-22.271,-47.668,1.563,0.391,-25.788,-46.105,-3.516,-3.126,-1.563,-50.403,-16.020,-1.172,8.987,-51.575,-25.788,-9.768,23.053,24.615,-35.946,7.814,8.987
'[12:42:58.527 06/11/2076]',8.205,-0.781,-15.238,-37.118,-0.781,6.642,-22.271,-28.913,-4.689,-1.563,-0.391,-38.681,-14.066,-1.172,15.629,-46.886,-28.132,-1.954,16.020,19.145,-37.118,7.814,15.629
'[12:42:58.531 06/11/2076]',5.861,3.516,-9.768,-29.304,-6.252,8.596,-17.192,-14.066,-7.033,0.391,-2.344,-18.364,-11.331,0.391,20.708,-37.118,-26.178,1.954,10.549,8.205,-30.085,10.940,20.708
'[12:42:58.535 06/11/2076]',4.689,5.079,0.391,-20.708,-9.768,7.033,-8.205,1.172,1.172,5.470,-3.126,0.391,0.391,5.861,26.569,-29.304,-19.536,4.689,0.391,-3.126,-17.582,13.284,26.569
'[12:42:58.539 06/11/2076]',8.596,2.344,0.391,-1.563,-3.907,-8.205,-4.689,26.569,0.781,8.205,-22.271,6.252,-6.252,22.271,26.960,-49.621,-18.755,1.172,0.391,-28.523,12.503,21.880,26.960
'[12:42:58.543 06/11/2076]',17.973,4.689,3.907,-8.987,3.907,-11.331,5.861,17.973,1.954,15.629,-20.708,-11.331,-10.159,37.118,26.178,-67.595,-12.503,2.344,-3.126,-37.900,32.430,24.225,26.178
'[12:42:58.547 06/11/2076]',26.178,10.940,4.689,-33.211,13.675,0.000,9.768,-14.457,17.582,21.880,-8.596,-17.192,6.642,32.430,30.085,-57.045,-3.907,5.079,-3.907,-23.053,16.801,19.927,30.085
'[12:42:58.551 06/11/2076]',28.913,10.940,0.000,-36.337,22.271,8.987,-0.391,-28.523,28.523,20.708,-1.563,-3.516,21.880,12.894,34.383,-25.788,-3.516,1.172,0.781,-0.781,-13.675,10.940,34.383
'[12:42:58.555 06/11/2076]',14.457,17.192,-1.172,-32.039,15.238,10.549,-3.126,-24.225,25.006,17.973,6.252,-18.755,7.814,12.894,40.635,-30.085,1.563,-4.689,1.954,-2.344,-26.960,7.033,40.635
'[12:42:58.559 06/11/2076]',14.066,19.927,-1.172,-22.271,15.238,13.675,-7.033,-12.112,16.801,13.284,10.159,-18.755,-5.861,12.894,44.151,-28.132,3.126,-7.424,1.954,-1.954,-36.728,7.033,44.151
'[12:42:58.563 06/11/2076]',10.549,10.549,-1.172,-10.159,13.675,6.642,-8.596,-2.735,5.861,5.861,5.470,-5.470,-6.252,-1.563,34.774,-12.894,0.781,-7.814,1.954,8.596,-33.602,3.126,34.774
'[12:42:58.566 06/11/2076]',14.066,-2.344,0.391,-10.940,10.940,-0.391,-6.252,-3.516,0.000,-1.563,1.954,-7.424,-8.596,-7.424,20.317,-11.331,-7.424,-7.033,0.391,12.503,-24.225,2.735,20.317
'[12:42:58.570 06/11/2076]',33.993,-1.954,1.563,-20.708,34.383,-0.781,-7.424,-12.503,-7.424,-9.768,0.391,-19.145,-20.708,-2.735,8.596,-21.099,-13.284,-7.033,-0.781,6.252,-17.582,8.205,8.596
'[12:42:58.574 06/11/2076]',36.728,-5.470,3.516,-30.867,41.807,-4.298,-10.159,-23.053,0.000,-16.020,-1.563,-16.801,-14.847,-5.861,3.907,-18.755,-15.629,-7.424,-2.735,5.470,-19.927,9.768,3.907
'[12:42:58.578 06/11/2076]',27.350,-7.424,0.781,-19.927,35.165,-6.642,-7.814,-18.755,14.457,-18.755,0.391,-17.582,-1.563,-4.689,2.344,-17.582,-13.284,-10.549,0.000,5.470,-17.582,6.252,2.344
'[12:42:58.582 06/11/2076]',31.258,-2.344,-3.516,-19.927,39.072,-2.735,-5.861,-25.397,18.755,-20.708,7.424,-21.099,1.954,-2.735,3.126,-17.973,-7.033,-10.940,4.298,4.298,-19.536,2.735,3.126
'[12:42:58.586 06/11/2076]',20.708,-2.344,-8.205,-16.801,24.225,4.298,-7.424,-29.304,21.880,-19.145,13.675,-13.284,10.159,-6.252,8.205,-7.814,-1.954,-8.987,8.987,11.722,-28.523,-1.954,8.205
'[12:42:58.590 06/11/2076]',10.940,-7.424,-17.192,-9.377,6.642,6.642,-9.768,-28.132,16.020,-19.145,12.112,-8.205,10.159,-10.549,6.642,-5.470,-1.954,-6.642,17.973,16.801,-29.695,-6.252,6.642
'[12:42:58.594 06/11/2076]',18.755,-8.987,-12.503,-7.033,11.722,1.172,-5.861,-18.364,-6.252,-16.020,8.596,-6.252,-9.377,-5.861,2.344,-7.033,1.954,-3.126,13.284,10.159,-21.099,-4.298,2.344
'[12:42:58.598 06/11/2076]',19.927,-11.331,-4.298,0.391,11.722,-5.861,0.391,-2.344,-17.582,-11.331,3.516,6.252,-14.847,-3.126,0.391,-1.563,7.814,-2.344,5.079,0.391,-4.689,-0.391,0.391
'[12:42:58.602 06/11/2076]',16.410,-22.271,-6.252,23.834,8.987,-26.960,0.781,28.132,-30.476,-11.331,-19.927,34.774,-26.178,3.126,-8.205,2.344,5.861,-9.377,7.033,-19.145,27.741,8.987,-8.205
'[12:42:58.605 06/11/2076]',19.536,-19.927,3.126,19.927,17.582,-33.602,13.284,25.397,-17.192,-9.768,-14.847,6.252,-20.708,17.582,-8.596,-23.834,9.377,-13.284,-2.344,-27.350,53.529,11.331,-8.596
'[12:42:58.609 06/11/2076]',5.861,-12.503,-1.563,9.377,8.596,-26.178,11.331,5.079,6.642,-11.331,-7.033,-21.880,-7.424,23.053,-9.377,-41.026,6.252,-12.894,2.344,-20.708,50.403,7.814,-9.377
'[12:42:58.613 06/11/2076]',12.112,-17.192,-8.987,1.563,16.801,-16.801,-2.344,-10.159,17.973,-17.973,-4.689,-4.298,11.722,-3.126,-12.503,-4.298,-6.642,-12.503,9.768,8.596,18.364,-2.344,-12.503
'[12:42:58.617 06/11/2076]',5.470,-23.053,-13.675,-4.298,8.205,-14.457,-7.033,-23.053,37.118,-17.973,0.391,-0.781,37.509,-17.973,-16.020,15.629,-12.112,-11.722,14.457,30.085,0.391,-12.894,-16.020
'[12:42:58.621 06/11/2076]',3.516,-17.973,-19.145,-4.298,3.907,-8.987,-13.675,-19.536,25.788,-15.238,-0.781,-12.894,15.238,-12.112,-13.675,7.033,-14.066,-12.894,19.927,24.615,-7.424,-13.675,-13.675
'[12:42:58.625 06/11/2076]',0.781,-20.317,-28.132,3.126,-3.907,-13.675,-17.582,-9.377,13.284,-14.457,-8.205,-6.252,3.907,-15.629,-14.847,11.331,-17.582,-13.675,28.913,19.927,-8.987,-13.284,-14.847
'[12:42:58.629 06/11/2076]',-5.470,-19.927,-29.304,14.457,-8.596,-14.066,-9.377,-8.205,21.099,-8.205,-7.814,-4.298,16.410,-18.364,-16.801,19.536,-13.284,-7.814,30.085,23.053,0.391,-14.457,-16.801
'[12:42:58.633 06/11/2076]',1.563,-7.814,-25.006,14.066,11.331,-7.033,-3.126,-17.192,37.118,-5.861,-3.907,-10.549,31.648,-16.801,-20.317,22.271,-9.768,-1.954,25.788,19.536,16.410,-11.331,-20.317
'[12:42:58.637 06/11/2076]',-3.126,-3.907,-28.132,17.192,14.066,-9.768,-5.470,-16.410,37.118,-10.549,-8.596,-2.344,36.728,-21.099,-25.397,25.788,-16.020,1.172,28.913,14.847,26.569,-10.159,-25.397
'[12:42:58.641 06/11/2076]',1.954,-4.298,-32.430,18.364,17.582,-12.503,-5.079,-15.238,23.443,-14.066,-12.112,5.470,33.602,-27.741,-31.258,28.132,-19.145,4.298,33.211,13.284,35.946,-11.722,-31.258
'[12:42:58.645 06/11/2076]',-4.298,-3.907,-32.430,14.066,8.205,-12.112,-1.954,-20.708,7.033,-13.675,-5.861,-7.033,23.834,-26.178,-32.821,14.847,-18.755,7.814,33.211,12.894,43.370,-15.629,-32.821
'[12:42:58.648 06/11/2076]',-11.331,-3.126,-32.430,12.503,-1.563,-8.205,-2.344,-21.880,-12.894,-14.066,1.954,-13.284,7.424,-26.960,-32.430,13.284,-21.099,12.503,33.211,17.582,36.337,-19.145,-32.430
'[12:42:58.652 06/11/2076]',-22.271,-5.470,-31.648,17.582,-17.582,-1.954,-2.735,-19.536,-7.033,-16.020,4.298,1.954,15.238,-29.695,-30.867,29.304,-24.615,16.410,32.430,19.145,30.476,-18.755,-30.867
'[12:42:58.656 06/11/2076]',-22.271,-2.735,-26.178,23.834,-11.722,-1.954,-0.391,-12.503,4.298,-13.675,5.861,0.391,21.490,-18.364,-29.304,24.615,-23.834,19.536,26.960,12.894,37.118,-14.847,-29.304
'[12:42:58.660 06/11/2076]',-8.596,-1.563,-19.536,29.695,4.298,-5.470,5.079,-3.126,10.940,-12.112,1.563,0.000,25.006,-7.424,-30.085,14.066,-21.490,20.708,20.317,1.172,54.701,-10.940,-30.085
'[12:42:58.664 06/11/2076]',-11.331,-8.987,-16.410,46.886,-3.907,-19.145,9.768,22.662,0.781,-13.675,-16.410,41.416,19.145,-5.079,-33.211,30.085,-20.708,12.894,17.192,-17.192,78.535,-3.516,-33.211
'[12:42:58.668 06/11/2076]',-8.987,-2.735,-16.801,33.993,-7.033,-16.020,16.410,10.940,-6.252,-9.768,-15.238,32.430,14.066,0.391,-29.304,14.457,-11.722,12.112,17.582,-21.880,84.786,-1.172,-29.304
'[12:42:58.672 06/11/2076]',-21.880,6.642,-17.582,12.112,-25.006,-3.907,19.927,-12.112,-1.954,-8.205,-4.298,-12.503,12.503,6.642,-21.880,-25.006,-3.516,10.159,18.364,-18.755,73.065,-5.470,-21.880
'[12:42:58.676 06/11/2076]',-33.211,7.033,-25.006,13.284,-37.118,4.689,9.377,-16.020,-2.735,-13.675,2.735,-14.847,10.940,-8.205,-14.457,-17.582,-8.987,8.205,25.788,-2.735,37.509,-10.159,-14.457
'[12:42:58.680 06/11/2076]',-21.099,5.079,-33.211,7.033,-23.053,5.861,3.907,-29.304,1.172,-12.112,8.205,-7.814,27.741,-23.443,-12.112,-1.954,-8.596,7.814,33.993,18.755,15.238,-19.536,-12.112
'[12:42:58.684 06/11/2076]',-11.331,0.391,-27.350,3.516,-10.940,3.126,4.298,-31.648,-1.563,-8.205,14.066,2.735,34.774,-35.165,-9.377,17.973,-5.470,8.596,28.132,31.258,1.563,-25.788,-9.377
'[12:42:58.688 06/11/2076]',-7.033,0.781,-12.112,10.159,-7.424,0.391,4.689,-5.470,-15.238,-7.814,11.722,8.205,12.112,-28.132,-3.516,17.192,-2.344,5.861,12.894,13.284,1.563,-19.536,-3.516
'[12:42:58.691 06/11/2076]',-5.470,10.940,-9.377,12.894,-7.033,2.735,5.861,6.642,-25.788,-3.907,10.549,14.457,-3.907,-20.317,0.391,18.755,4.298,8.596,10.159,0.000,0.781,-15.238,0.391
'[12:42:58.695 06/11/2076]',-12.894,12.112,-7.424,7.424,-22.662,15.238,8.987,-2.344,-18.755,0.000,14.847,6.252,5.079,-21.880,0.781,18.755,10.159,14.847,8.205,4.689,-1.954,-17.192,0.781
'[12:42:58.699 06/11/2076]',-4.689,10.159,-4.689,7.424,-14.847,19.927,8.205,-4.689,-21.099,-4.298,12.503,5.861,1.172,-27.350,-1.172,19.927,11.331,13.284,5.470,7.033,-1.172,-16.801,-1.172
'[12:42:58.703 06/11/2076]',-5.079,5.861,-10.940,12.503,-11.331,16.801,0.781,-4.298,-19.927,-10.159,2.735,12.894,-4.689,-24.615,-2.735,17.582,8.987,3.516,11.722,3.516,10.159,-15.238,-2.735
'[12:42:58.707 06/11/2076]',3.516,2.344,-18.364,0.391,3.126,12.894,-1.563,-26.960,-12.503,-12.112,0.391,-1.954,0.000,-22.662,-8.205,3.907,11.722,-5.861,19.145,9.768,15.629,-16.410,-8.205
'[12:42:58.711 06/11/2076]',-1.172,1.954,-14.066,-8.987,5.079,10.940,-4.298,-35.165,-2.344,-16.410,0.391,-17.582,2.344,-23.834,-11.722,-3.907,12.894,-16.020,14.847,13.284,8.987,-17.973,-11.722
'[12:42:58.715 06/11/2076]',-7.814,-0.391,-14.066,-2.735,3.516,3.516,-10.940,-22.662,5.861,-21.490,-3.126,-7.033,6.642,-24.615,-16.020,6.252,9.768,-23.834,14.847,12.894,-0.391,-15.629,-16.020
'[12:42:58.719 06/11/2076]',-1.954,-3.516,-14.847,-1.172,8.596,-3.516,-12.894,-14.457,14.066,-22.662,-7.033,7.424,21.880,-24.615,-21.099,15.238,7.033,-26.960,15.629,12.112,3.126,-14.066,-21.099
'[12:42:58.723 06/11/2076]',-8.596,-4.689,-3.907,-3.907,-2.735,-8.205,-6.252,-3.126,6.642,-19.536,-11.331,3.516,15.629,-17.192,-20.317,1.954,6.642,-25.397,4.689,1.172,14.847,-8.205,-20.317
'[12:42:58.727 06/11/2076]',-18.755,-13.675,-2.735,14.457,-15.629,-27.350,-4.298,26.569,-6.642,-17.582,-28.913,22.271,0.781,-4.298,-21.880,-6.642,7.424,-24.225,3.516,-15.629,43.761,0.391,-21.880
'[12:42:58.730 06/11/2076]',-27.350,-9.377,6.642,1.172,-29.695,-22.662,7.033,17.192,-6.252,-10.159,-23.443,12.503,3.126,7.814,-17.582,-21.099,14.457,-19.536,-5.861,-23.443,64.860,6.642,-17.582
'[12:42:58.734 06/11/2076]',-39.072,-2.344,12.112,-19.927,-46.105,-7.033,12.894,-9.377,-3.907,-3.907,-12.112,-5.861,9.377,5.861,-14.847,-27.350,19.927,-10.159,-11.331,-14.847,57.827,5.079,-14.847
'[12:42:58.738 06/11/2076]',-26.960,3.126,3.516,-28.132,-30.476,5.470,2.344,-25.788,-6.252,-10.159,-3.516,-28.913,2.735,-5.861,-14.847,-30.867,11.722,-6.252,-2.735,-2.344,25.006,-1.563,-14.847
'[12:42:58.742 06/11/2076]',-20.317,5.861,6.642,-29.695,-21.490,11.331,1.954,-28.523,0.391,-11.722,1.954,-37.900,3.907,-6.642,-14.847,-30.085,7.033,-1.172,-5.861,0.391,8.987,-3.126,-14.847
'[12:42:58.746 06/11/2076]',0.000,3.126,8.987,-33.993,5.470,7.814,1.172,-36.728,-7.814,-11.722,1.563,-25.397,7.033,-24.225,-17.973,-7.424,0.391,3.907,-8.205,11.722,-2.735,-11.331,-17.973
'[12:42:58.750 06/11/2076]',18.364,-1.954,5.079,-32.039,32.821,-3.907,0.000,-38.291,-8.987,-9.768,-0.781,-14.457,8.987,-31.648,-18.755,6.642,-8.205,6.252,-4.298,16.020,-13.284,-11.331,-18.755
'[12:42:58.754 06/11/2076]',14.847,-3.907,7.814,-29.695,32.821,-13.284,-0.781,-28.913,1.954,-6.252,-5.079,-15.238,5.470,-11.722,-11.331,-7.033,-14.457,4.689,-7.033,-1.172,-1.954,-2.344,-11.331
'[12:42:58.758 06/11/2076]',5.861,-1.954,14.457,-33.993,23.834,-12.503,-1.563,-25.006,-3.516,-4.689,-4.298,-19.927,-6.642,-7.424,-6.642,-13.284,-16.020,5.861,-13.675,-7.033,-3.126,1.563,-6.642
'[12:42:58.762 06/11/2076]',2.735,-0.391,9.768,-35.556,19.145,-7.424,-4.298,-28.523,-7.424,-2.735,-5.470,-27.350,-7.424,-12.894,-10.940,-12.112,-16.020,5.470,-8.987,-1.563,-5.861,-1.954,-10.940
'[12:42:58.766 06/11/2076]',-0.781,0.391,11.331,-25.397,6.642,2.735,-4.298,-19.536,7.033,-5.470,-8.987,-27.350,6.252,-15.238,-16.410,-10.159,-15.238,3.126,-10.549,-3.516,5.079,-5.470,-16.410
'[12:42:58.770 06/11/2076]',-11.331,5.079,16.020,-26.178,-6.642,12.503,-1.563,-19.145,11.331,-6.252,-9.768,-25.397,14.066,-20.708,-19.536,-4.298,-12.112,5.470,-15.238,-5.861,10.549,-5.470,-19.536
'[12:42:58.773 06/11/2076]',-1.172,8.205,10.940,-33.211,2.735,20.708,-3.126,-33.602,10.940,-6.642,-7.033,-33.211,22.662,-32.430,-21.490,-4.689,-13.675,9.377,-10.159,3.126,8.987,-14.066,-21.490
'[12:42:58.777 06/11/2076]',-4.689,7.424,1.563,-12.503,1.563,14.847,-5.079,-19.145,16.020,-7.814,-4.298,-23.443,29.304,-33.602,-17.192,1.172,-18.755,11.331,-0.781,1.954,8.205,-11.722,-17.192
'[12:42:58.781 06/11/2076]',-6.642,0.781,3.907,-8.987,5.079,-1.172,-5.861,-8.596,12.894,-7.033,-2.344,-8.596,28.523,-26.960,-14.066,6.642,-21.490,10.940,-3.126,-3.126,12.894,-5.470,-14.066
'[12:42:58.785 06/11/2076]',-3.907,-3.516,7.033,-0.781,7.814,-11.722,-2.344,5.470,0.391,-2.344,1.172,9.768,23.443,-19.145,-11.722,16.801,-18.364,13.675,-6.252,-5.861,17.192,0.000,-11.722
'[12:42:58.789 06/11/2076]',-10.940,-12.112,1.954,26.178,-1.563,-33.993,0.000,41.807,-16.801,-1.954,-10.940,23.834,-1.563,6.252,-12.503,0.781,-18.364,9.377,-1.172,-26.569,41.416,10.940,-12.503
'[12:42:58.793 06/11/2076]',-8.987,-6.252,10.159,17.582,-0.781,-37.900,14.457,37.900,-21.099,0.781,-0.781,0.391,-14.457,30.085,-10.549,-25.788,-10.159,11.331,-9.377,-37.509,58.608,16.410,-10.549
'[12:42:58.797 06/11/2076]',1.954,1.954,10.940,0.391,4.689,-18.364,15.629,14.457,-15.629,1.563,9.377,0.781,-1.563,21.490,-8.987,-14.066,-1.954,21.099,-10.159,-18.755,41.807,9.377,-8.987
'[12:42:58.801 06/11/2076]',7.033,1.954,4.298,-0.781,4.689,-4.689,8.205,4.689,-16.801,-5.470,12.894,14.066,5.470,0.000,-11.331,10.549,-10.549,23.834,-3.516,4.689,16.801,0.391,-11.331
'[12:42:58.805 06/11/2076]',0.391,7.033,0.781,-6.642,-5.861,5.470,5.079,-2.735,-8.987,-8.596,16.410,-8.596,6.642,-0.391,-8.596,-7.424,-13.284,21.099,0.000,7.033,9.768,-2.735,-8.596
'[12:42:58.809 06/11/2076]',1.954,9.377,1.563,-4.298,-8.205,13.675,2.735,0.000,-7.033,-8.596,14.457,-7.033,6.642,-2.735,-4.298,-7.814,-12.112,21.099,-0.781,9.768,-0.391,-2.735,-4.298
'[12:42:58.813 06/11/2076]',-0.391,-1.172,-1.563,3.907,-17.582,9.377,3.907,3.907,-8.987,-7.424,7.814,8.596,12.894,-11.722,-8.596,7.424,-15.629,19.536,2.344,21.880,-3.516,-5.861,-8.596
'[12:42:58.816 06/11/2076]',-8.987,-6.252,-5.861,11.331,-32.821,6.252,9.377,7.424,-13.675,-5.861,7.033,10.159,9.768,-12.503,-8.205,9.377,-11.722,16.020,6.642,22.271,0.781,-8.205,-8.205
'[12:42:58.820 06/11/2076]',-7.814,0.391,-9.377,8.987,-29.695,6.252,8.596,6.252,-16.020,-4.298,6.642,5.079,-0.781,-3.516,-5.861,2.735,-7.424,16.801,10.159,14.066,0.391,-3.516,-5.861
'[12:42:58.824 06/11/2076]',-8.596,-1.954,-15.238,5.861,-30.476,1.172,5.470,3.126,-13.675,-3.907,6.252,6.252,3.516,-4.689,-9.768,5.470,-7.814,17.192,16.020,16.020,-3.907,-3.516,-9.768
'[12:42:58.828 06/11/2076]',-3.126,-2.344,-17.582,15.238,-23.443,-2.735,7.424,10.549,-13.284,-5.470,6.252,0.781,4.298,-7.033,-14.066,5.079,-5.470,19.145,18.364,17.973,-0.781,-6.252,-14.066
'[12:42:58.832 06/11/2076]',-14.066,3.126,-4.298,14.457,-31.258,0.391,13.284,15.629,-14.457,-3.516,8.596,-5.079,5.079,-6.642,-17.192,5.079,-1.563,21.490,5.079,17.582,5.861,-6.642,-17.192
'[12:42:58.836 06/11/2076]',-6.642,3.907,2.344,12.112,-25.788,9.768,16.801,10.940,-7.033,-6.642,14.847,-0.391,18.364,-16.410,-18.364,17.582,-2.344,25.397,-1.563,24.225,3.126,-11.331,-18.364
'[12:42:58.840 06/11/2076]',3.516,5.470,4.298,16.410,-17.192,12.894,16.801,17.582,-12.503,-14.847,11.722,8.205,13.284,-25.397,-19.145,24.615,-6.642,25.788,-3.516,25.397,2.344,-16.801,-19.145
'[12:42:58.844 06/11/2076]',-7.424,5.861,6.252,17.973,-25.397,8.987,16.410,23.053,-27.350,-18.364,7.033,13.675,-3.126,-22.662,-18.364,20.317,-7.424,21.880,-5.470,15.238,13.284,-16.801,-18.364
'[12:42:58.848 06/11/2076]',6.252,5.079,8.596,19.145,-9.768,3.907,17.192,29.695,-9.768,-22.662,5.470,26.178,7.814,-14.066,-15.238,21.880,-7.033,18.364,-7.814,2.735,20.708,-9.768,-15.238
'[12:42:58.852 06/11/2076]',-4.298,-9.768,4.689,33.602,-16.410,-21.099,11.331,51.575,-12.112,-29.695,-14.457,53.138,-2.735,-2.735,-17.973,19.927,-10.940,6.252,-3.907,-16.410,46.105,1.172,-17.973
'[12:42:58.855 06/11/2076]',-17.192,-8.205,9.768,23.834,-18.755,-32.039,18.755,40.635,-18.364,-26.569,-6.252,20.708,-16.020,14.066,-15.238,-12.503,-5.861,3.126,-8.987,-23.443,63.687,5.470,-15.238
'[12:42:58.859 06/11/2076]',-21.099,-4.689,12.112,12.112,-19.927,-21.099,22.662,18.364,-2.344,-23.053,9.768,-10.549,-4.298,18.755,-10.159,-29.695,-3.907,8.205,-11.331,-15.238,56.654,3.516,-10.159
'[12:42:58.863 06/11/2076]',-13.675,-12.112,9.377,16.801,-8.596,-14.847,16.410,8.596,-3.516,-26.178,21.099,14.457,9.377,-10.549,-7.814,15.629,-10.940,12.112,-8.596,15.238,23.443,-10.159,-7.814
'[12:42:58.867 06/11/2076]',-5.861,-12.894,8.205,16.020,3.516,-7.814,15.238,-4.298,-12.894,-22.271,30.476,26.178,14.847,-27.350,-4.298,39.463,-10.159,16.020,-7.424,34.774,7.814,-19.927,-4.298
'[12:42:58.871 06/11/2076]',-10.940,-5.079,8.596,18.364,-1.954,-0.391,14.066,0.391,-12.894,-19.145,33.211,21.880,4.298,-17.582,1.954,34.774,-8.205,16.801,-7.814,23.443,-0.391,-16.801,1.954
'[12:42:58.875 06/11/2076]',-8.987,-1.172,7.814,33.602,-2.735,0.781,12.503,20.317,-17.192,-19.927,29.695,35.556,-4.689,-13.284,5.861,39.463,-7.033,19.536,-7.033,10.940,1.563,-14.066,5.861
'[12:42:58.879 06/11/2076]',1.563,3.126,3.126,30.476,12.112,0.391,14.847,12.503,-17.973,-16.020,29.304,34.774,1.172,-13.284,3.516,37.900,-1.563,20.317,-2.344,9.377,10.159,-13.284,3.516
'[12:42:58.883 06/11/2076]',8.596,10.549,-3.126,18.755,19.145,5.470,15.238,-5.079,-13.284,-13.675,34.383,22.662,7.424,-9.768,-0.391,33.211,1.563,21.099,3.907,7.424,12.503,-10.940,-0.391
'[12:42:58.887 06/11/2076]',8.205,8.987,-5.470,26.569,18.755,7.814,8.987,3.516,-10.940,-15.238,34.774,30.476,8.205,-9.768,1.563,38.291,-1.172,21.099,6.252,4.298,12.894,-8.987,1.563
'[12:42:58.891 06/11/2076]',8.205,5.079,-8.596,25.788,15.629,3.907,6.642,4.298,-16.410,-14.847,32.039,34.774,2.735,-7.424,1.172,37.900,-3.516,19.145,9.377,4.689,12.503,-5.861,1.172
'[12:42:58.895 06/11/2076]',-5.079,6.642,-8.205,17.582,-0.391,5.470,6.642,-0.391,-12.503,-10.159,34.774,18.755,4.689,-1.172,3.516,23.443,-3.126,18.364,8.987,5.079,11.722,-6.642,3.516
'[12:42:58.898 06/11/2076]',-14.847,9.768,-2.344,23.443,-18.364,17.582,7.814,8.987,-5.861,-5.470,39.463,18.364,10.940,-0.391,10.549,25.397,-1.954,21.099,3.126,3.907,5.861,-8.205,10.549
'[12:42:58.902 06/11/2076]',-8.205,8.987,-5.470,23.443,-16.410,21.099,3.516,9.768,-4.689,-1.954,34.774,32.821,21.880,-9.377,10.549,37.509,-1.954,17.582,6.252,7.424,-1.172,-10.159,10.549
'[12:42:58.906 06/11/2076]',2.735,8.596,-8.596,24.615,-3.516,17.973,3.516,8.987,-2.735,3.516,27.350,30.476,28.913,-7.814,10.549,27.350,1.172,14.457,9.377,1.172,6.252,-7.424,10.549
'[12:42:58.910 06/11/2076]',10.159,7.814,-3.126,18.755,4.298,12.894,6.252,10.549,-9.377,8.596,18.755,21.490,20.708,-0.391,7.814,10.940,7.033,13.284,3.907,-10.940,18.364,-2.735,7.814
'[12:42:58.914 06/11/2076]',-4.689,-0.391,-1.172,29.695,-10.159,-4.689,8.596,30.085,-22.662,9.768,-3.516,57.045,9.768,3.516,1.563,25.397,8.596,9.377,1.954,-28.913,44.151,7.033,1.563
'[12:42:58.918 06/11/2076]',-9.768,2.344,7.814,19.927,-15.629,-7.424,20.708,24.615,-23.834,17.973,-2.344,43.370,3.126,16.801,3.126,10.940,18.755,11.722,-7.033,-38.291,59.780,12.112,3.126
'[12:42:58.922 06/11/2076]',-3.516,12.503,16.801,0.000,-11.331,6.642,24.615,5.470,-36.337,22.662,11.722,-4.689,-17.973,23.834,9.377,-21.099,26.569,19.536,-16.020,-34.774,49.621,7.033,9.377
'[12:42:58.926 06/11/2076]',11.331,16.410,15.238,7.814,0.000,22.662,17.973,11.331,-35.165,16.410,21.099,-3.907,-22.271,11.722,13.675,-4.298,19.927,21.880,-14.457,-23.443,20.317,0.000,13.675
'[12:42:58.930 06/11/2076]',31.258,16.410,13.284,4.298,19.536,32.821,13.675,0.391,-19.145,14.457,29.304,4.298,1.172,-3.126,14.066,16.410,19.145,27.350,-12.503,-2.735,-1.954,-7.033,14.066
'[12:42:58.934 06/11/2076]',61.734,14.066,22.271,5.861,53.529,35.946,14.457,1.172,-1.563,12.503,33.211,12.894,25.788,-15.238,12.503,34.383,19.145,35.556,-21.490,8.987,-14.457,-12.894,12.503
'[12:42:58.938 06/11/2076]',39.463,14.066,18.755,9.768,28.913,33.602,8.596,12.112,17.192,7.424,27.741,14.457,32.821,-5.470,14.457,26.960,15.238,30.476,-17.973,-3.516,-13.284,-8.987,14.457
'[12:42:58.941 06/11/2076]',16.801,16.020,18.364,5.470,5.861,30.085,9.768,10.940,31.648,8.596,21.490,16.020,42.979,1.563,15.238,19.145,16.801,28.132,-17.582,-12.112,-7.814,-5.470,15.238
'[12:42:58.945 06/11/2076]',-2.735,15.629,21.099,5.079,-11.722,27.350,13.284,10.549,26.569,11.331,21.490,5.861,43.761,-4.689,12.112,15.629,21.099,26.178,-20.317,-2.344,-8.596,-13.675,12.112
'[12:42:58.949 06/11/2076]',-7.033,14.457,18.364,4.298,-14.457,23.834,10.159,10.159,20.317,10.159,17.582,2.344,38.681,-10.549,9.377,14.847,18.364,17.582,-17.582,1.954,-14.457,-15.629,9.377
'[12:42:58.953 06/11/2076]',-11.722,14.847,17.582,4.298,-17.973,23.053,7.424,11.722,-0.391,8.205,8.987,11.331,20.708,-13.675,3.907,18.364,16.801,9.377,-16.801,-1.172,-7.424,-13.675,3.907
'[12:42:58.957 06/11/2076]',-1.954,12.894,22.662,0.391,-4.298,22.271,11.722,3.516,-6.642,7.424,8.596,5.079,17.192,-14.066,-1.563,14.066,20.708,8.205,-21.880,2.735,0.781,-14.847,-1.563
'[12:42:58.961 06/11/2076]',21.490,14.847,28.523,3.907,18.755,31.648,17.192,1.172,-6.252,7.033,14.847,-5.861,16.020,-11.722,-3.516,10.159,24.615,8.987,-27.741,3.126,2.344,-14.066,-3.516
'[12:42:58.965 06/11/2076]',28.913,15.238,30.476,6.252,25.006,39.072,16.801,1.172,-10.549,6.642,16.801,4.689,15.238,-13.284,-5.079,22.271,26.178,9.768,-29.695,3.516,4.298,-14.847,-5.079
'[12:42:58.969 06/11/2076]',26.178,11.331,29.695,13.284,20.708,37.900,18.755,3.907,-12.503,5.079,12.503,23.053,16.410,-16.020,-6.642,35.946,23.834,10.159,-28.913,2.735,11.331,-15.629,-6.642
'[12:42:58.973 06/11/2076]',13.284,10.940,30.085,14.457,8.987,31.258,21.099,7.814,-13.675,1.954,5.861,17.192,7.424,-10.549,-3.907,19.536,22.271,7.814,-29.304,-6.642,19.145,-12.894,-3.907
'[12:42:58.977 06/11/2076]',1.172,-0.781,23.053,29.304,0.391,5.079,17.973,29.695,-26.178,-0.391,-14.457,35.946,-10.549,-0.391,-3.907,9.768,12.894,3.126,-22.271,-26.960,40.635,-5.861,-3.907
'[12:42:58.980 06/11/2076]',-13.284,-3.126,23.834,16.410,-11.722,-1.954,20.317,17.582,-17.582,0.391,-16.020,32.039,-4.689,4.689,-3.907,2.735,12.503,0.391,-23.053,-31.258,49.621,-3.516,-3.907
'[12:42:58.984 06/11/2076]',-14.847,-3.907,29.695,4.298,-16.801,2.735,24.225,4.689,-5.861,2.344,-5.861,15.629,6.642,3.907,-2.735,-1.563,15.629,0.391,-28.913,-25.006,41.416,-2.735,-2.735
'[12:42:58.988 06/11/2076]',8.987,-2.735,19.536,-4.689,10.159,9.377,8.205,-6.642,-6.252,-0.781,1.563,-12.894,3.907,-3.516,-4.689,-12.894,7.033,-0.781,-18.755,-10.549,14.066,-8.987,-4.689
'[12:42:58.992 06/11/2076]',16.020,0.781,14.066,-15.629,17.582,11.722,1.954,-15.238,-10.940,2.735,6.642,-29.304,2.344,-4.689,-7.424,-21.099,2.735,-2.344,-13.284,-3.126,-1.172,-8.205,-7.424
'[12:42:58.996 06/11/2076]',21.490,0.391,14.847,-16.020,24.225,10.159,1.954,-16.410,-16.410,6.642,6.642,-17.192,14.066,-16.020,-11.331,-5.079,0.391,-0.781,-14.066,12.112,-9.768,-12.112,-11.331
'[12:42:59.000 06/11/2076]',36.728,-1.172,10.940,-14.457,41.026,7.033,3.126,-19.927,-22.271,5.861,0.781,-1.172,17.582,-22.271,-16.801,5.470,-3.907,0.781,-10.159,20.317,-7.814,-13.675,-16.801
'[12:42:59.004 06/11/2076]',17.192,2.344,11.331,-16.020,21.490,1.954,4.689,-13.675,-23.834,6.642,-3.907,5.470,9.377,-9.377,-11.722,-3.126,-6.252,-1.563,-10.549,3.907,0.391,-7.033,-11.722
'[12:42:59.008 06/11/2076]',17.582,7.033,14.457,-13.284,19.145,5.861,8.596,-7.814,-12.503,5.079,-0.781,12.894,13.284,-1.954,-4.689,-1.172,-2.735,0.391,-13.675,-1.954,-1.172,-4.298,-4.689
'[12:42:59.012 06/11/2076]',23.053,6.252,4.689,-10.159,15.238,10.549,5.861,-8.205,-2.344,-2.344,0.391,11.722,16.801,-8.596,-1.172,0.781,-1.563,0.000,-3.907,5.079,-9.377,-12.894,-1.172
'[12:42:59.016 06/11/2076]',5.470,1.172,0.391,-10.549,-8.596,5.470,3.516,-4.689,2.735,-6.252,1.954,8.596,18.755,-12.894,5.079,-2.735,-3.126,-1.954,0.391,7.814,-14.457,-17.192,5.079
'[12:42:59.020 06/11/2076]',-20.317,0.391,6.642,-11.722,-41.416,8.205,3.907,1.954,3.516,-8.987,3.126,10.159,18.364,-15.238,6.642,-1.172,-0.391,-2.735,-5.861,8.987,-15.629,-18.364,6.642
'[12:42:59.023 06/11/2076]',-26.569,-1.563,0.391,-19.145,-53.919,12.503,0.781,-8.205,-10.549,-13.284,4.689,-1.172,5.079,-25.006,6.252,-6.642,-0.781,-1.954,0.391,21.490,-23.443,-25.006,6.252
'[12:42:59.027 06/11/2076]',-25.397,-6.252,-4.298,-13.284,-51.575,8.205,-1.954,-5.861,-32.039,-13.675,1.954,-2.344,-17.192,-26.178,5.079,-8.205,-2.344,-3.907,5.079,22.662,-26.178,-23.834,5.079
'[12:42:59.031 06/11/2076]',-33.211,-7.424,0.000,-7.033,-53.138,1.563,-1.954,5.079,-33.602,-5.470,-1.172,6.642,-17.973,-17.582,5.861,-3.516,-0.391,-8.596,0.781,11.722,-14.457,-17.192,5.861
'[12:42:59.035 06/11/2076]',0.781,-10.159,-2.735,1.172,-10.940,-10.940,-2.735,13.675,-30.085,0.000,-4.689,20.708,-13.675,-11.722,8.205,2.735,3.516,-12.894,3.516,5.079,-1.954,-14.066,8.205
'[12:42:59.039 06/11/2076]',7.033,-15.238,-12.894,15.238,0.781,-35.946,-3.907,33.211,-21.099,4.298,-23.053,24.615,-14.847,9.768,7.814,-17.973,5.861,-22.662,13.675,-14.847,21.099,-3.516,7.814
'[12:42:59.043 06/11/2076]',-10.940,-12.503,-1.563,8.205,-14.457,-45.714,6.642,35.946,-5.861,11.722,-18.364,2.735,-7.424,28.523,8.987,-40.244,13.284,-24.615,2.344,-26.178,39.072,0.391,8.987
'[12:42:59.047 06/11/2076]',7.033,-10.549,-3.907,-8.205,0.781,-35.556,1.563,16.020,8.596,8.596,-12.503,1.563,12.894,13.284,5.079,-25.788,17.973,-23.443,4.689,-5.470,15.629,-5.079,5.079
'[12:42:59.051 06/11/2076]',18.755,-12.503,-17.192,-8.205,10.159,-26.178,-10.940,5.861,17.192,-1.563,-11.331,11.722,28.523,-12.503,-3.907,3.907,7.424,-26.960,17.973,19.536,-14.847,-13.284,-3.907
'[12:42:59.055 06/11/2076]',6.642,-10.940,-13.675,-11.722,0.391,-18.755,-17.973,5.470,8.205,-5.861,-9.377,-10.940,8.987,-13.284,-8.205,-5.470,0.000,-32.039,14.457,15.629,-19.536,-13.284,-8.205
'[12:42:59.059 06/11/2076]',20.708,-8.987,-8.596,-11.331,15.238,-9.377,-25.006,10.549,-3.516,-12.894,-9.768,-13.284,-7.424,-17.973,-10.549,-3.907,-5.861,-33.993,9.377,13.675,-22.271,-13.284,-10.549
'[12:42:59.063 06/11/2076]',21.490,-10.159,-6.642,-7.033,14.457,-9.377,-22.662,14.066,-4.298,-15.629,-13.675,4.689,1.563,-28.913,-15.629,14.457,-12.112,-30.476,7.424,17.192,-17.973,-17.582,-15.629
'[12:42:59.066 06/11/2076]',-4.689,-12.112,0.781,-9.377,-3.126,-18.364,-16.801,13.284,-17.192,-17.582,-11.331,8.596,-5.470,-29.304,-17.973,13.675,-19.536,-26.178,0.000,14.457,-0.781,-18.755,-17.973
'[12:42:59.070 06/11/2076]',-3.516,-7.814,-0.391,-12.894,-3.907,-17.973,-13.675,9.377,-21.099,-19.927,-6.642,9.377,-8.205,-23.443,-11.331,5.079,-24.615,-19.927,1.172,6.642,1.563,-16.020,-11.331
'[12:42:59.074 06/11/2076]',6.252,-7.033,-0.781,-17.192,6.642,-21.099,-11.331,6.252,-8.987,-17.973,-5.861,18.755,10.549,-25.006,-7.814,7.033,-28.913,-13.284,1.563,7.033,0.000,-16.801,-7.814
'[12:42:59.078 06/11/2076]',-31.258,-11.331,-3.126,-4.689,-23.053,-30.085,-8.987,10.549,-10.549,-12.894,-5.470,16.801,11.722,-19.536,-7.814,2.735,-28.913,-10.940,3.907,6.252,6.642,-14.066,-7.814
'[12:42:59.082 06/11/2076]',-21.490,-13.675,-2.735,-5.470,-16.020,-28.132,-6.252,5.861,-9.768,-8.596,-2.735,6.252,16.410,-17.582,-10.159,-3.126,-23.834,-12.112,3.516,8.987,11.331,-13.675,-10.159
'[12:42:59.086 06/11/2076]',-13.284,-13.284,0.391,-3.907,-8.596,-21.490,-5.861,5.079,-1.954,-8.987,0.391,7.424,24.615,-19.536,-13.675,4.689,-17.582,-10.159,0.391,15.629,12.503,-15.629,-13.675
'[12:42:59.090 06/11/2076]',-21.490,-15.238,-2.735,1.563,-14.457,-22.662,-10.549,8.596,-5.079,-15.238,-4.298,6.252,17.582,-19.927,-22.271,4.689,-21.490,-8.205,3.516,20.317,18.755,-19.536,-22.271
'[12:42:59.094 06/11/2076]',-22.271,-21.099,-9.377,7.814,-14.847,-30.476,-12.894,13.284,-1.954,-23.834,-12.112,6.642,14.457,-17.582,-28.913,0.391,-30.476,-7.814,10.159,18.755,33.211,-21.880,-28.913
'[12:42:59.098 06/11/2076]',-0.781,-23.834,-1.172,16.801,7.033,-40.244,-7.814,32.039,4.689,-25.397,-19.536,24.225,18.755,-12.894,-27.741,5.861,-38.681,-6.642,1.954,8.205,51.184,-20.317,-27.741
'[12:42:59.102 06/11/2076]',-18.364,-29.695,-1.172,35.165,-6.252,-64.469,-5.470,61.343,-1.954,-22.662,-38.681,58.999,8.987,-0.781,-25.788,12.894,-46.886,-8.987,1.954,-14.457,74.237,-8.987,-25.788
'[12:42:59.105 06/11/2076]',-38.291,-21.099,1.954,30.476,-21.490,-68.767,4.689,58.999,-9.377,-15.238,-31.258,38.681,-2.344,7.814,-16.020,-5.861,-46.105,-4.298,-1.172,-20.317,67.595,-3.516,-16.020
'[12:42:59.109 06/11/2076]',-28.523,-13.675,2.735,17.582,-17.582,-64.469,16.801,43.761,-19.536,-7.033,-13.675,10.159,-17.582,14.066,-3.907,-23.053,-42.198,2.344,-1.954,-18.364,43.761,0.391,-3.907
'[12:42:59.113 06/11/2076]',-15.238,-10.549,-9.377,3.126,-17.973,-40.244,8.596,16.410,-15.238,-10.549,0.391,18.755,-4.689,-13.284,0.781,10.159,-46.105,17.582,10.159,13.284,-13.675,-8.205,0.781
'[12:42:59.117 06/11/2076]',-5.079,-8.987,-10.159,0.391,-16.801,-20.708,8.596,4.689,-24.225,-10.940,10.940,20.317,-5.079,-30.867,-1.563,32.821,-46.105,30.085,10.940,31.258,-39.853,-13.284,-1.563
'[12:42:59.121 06/11/2076]',3.126,-8.987,-13.675,1.172,-19.536,-6.642,3.516,4.298,-27.350,-14.066,12.894,1.563,-15.238,-23.443,-3.126,16.020,-47.277,32.430,14.457,23.834,-37.900,-10.940,-3.126
'[12:42:59.125 06/11/2076]',9.377,-10.159,-12.112,3.126,-12.503,-1.563,-5.079,8.987,-21.099,-17.582,8.596,6.252,-10.549,-20.708,-5.470,12.112,-44.151,32.821,12.894,13.675,-19.536,-11.722,-5.470
'[12:42:59.129 06/11/2076]',1.954,-6.642,-3.126,11.722,-8.205,-3.126,-1.172,16.801,-16.020,-9.768,7.033,14.457,2.344,-17.192,-7.033,17.582,-34.774,34.383,3.907,9.768,-1.172,-12.894,-7.033
'[12:42:59.133 06/11/2076]',11.331,-4.298,-0.781,7.424,12.112,-7.424,0.781,8.205,-2.344,-7.033,10.159,9.377,16.410,-14.847,-6.252,14.066,-28.913,32.430,1.563,8.596,3.516,-12.112,-6.252
'[12:42:59.137 06/11/2076]',23.834,-3.126,-4.689,0.000,33.602,-16.801,-2.344,1.172,18.364,-10.940,3.907,16.801,32.430,-14.847,-3.516,14.847,-30.085,26.960,5.470,3.907,1.172,-13.284,-3.516
'[12:42:59.141 06/11/2076]',31.648,1.172,-1.954,-4.298,43.761,-18.755,0.391,0.781,24.615,-11.331,0.391,26.178,38.681,-18.364,-3.516,22.662,-28.132,25.788,2.735,1.172,-5.861,-12.894,-3.516
'[12:42:59.145 06/11/2076]',32.821,8.596,0.391,-9.377,40.244,-10.159,6.642,-4.298,19.927,-9.768,4.689,11.331,32.821,-16.801,-6.252,16.020,-23.443,24.615,0.391,-0.781,-8.596,-14.847,-6.252
'[12:42:59.148 06/11/2076]',29.304,12.112,-3.516,-13.675,29.695,0.781,5.470,-12.894,10.940,-10.940,10.159,1.954,21.880,-17.973,-7.814,16.410,-18.364,21.880,4.298,3.907,-19.927,-16.020,-7.814
'[12:42:59.152 06/11/2076]',7.033,9.768,-5.861,-10.940,-1.172,11.722,1.563,-12.894,-5.079,-7.424,7.814,14.457,12.112,-23.443,-9.768,30.085,-10.549,16.801,6.642,7.424,-22.271,-15.629,-9.768
'[12:42:59.156 06/11/2076]',7.033,9.377,-3.907,-7.814,-7.814,19.145,5.079,-12.503,-16.801,0.391,4.298,3.516,0.000,-14.457,-10.159,16.801,-1.954,15.238,4.689,3.907,-12.503,-11.722,-10.159
'[12:42:59.160 06/11/2076]',-10.549,3.516,-6.642,-6.642,-22.662,8.205,5.470,-12.112,-13.675,1.954,-1.563,-7.814,-7.033,-1.954,-10.159,-1.954,3.516,9.768,7.424,-3.907,-1.563,-6.252,-10.159
'[12:42:59.164 06/11/2076]',-16.801,-4.689,-10.159,3.907,-26.960,-10.940,3.126,5.470,-17.192,6.642,-24.615,29.304,-5.470,3.907,-13.284,8.987,8.596,-1.172,10.940,-21.099,21.099,0.781,-13.284
'[12:42:59.168 06/11/2076]',-6.642,-1.954,7.814,-10.549,-16.020,-10.549,19.927,-5.079,-16.020,18.364,-16.410,13.284,-1.172,16.020,-7.424,-8.596,22.662,-2.344,-7.033,-30.867,44.933,0.781,-7.424
'[12:42:59.172 06/11/2076]',-1.172,7.033,5.861,-7.814,-7.814,-1.172,16.020,-3.126,-10.159,18.364,-5.861,-14.066,-0.781,16.410,-0.781,-26.178,32.039,-2.344,-5.079,-27.350,26.178,-4.689,-0.781
'[12:42:59.176 06/11/2076]',-1.172,12.503,-5.470,-10.549,-6.642,8.205,1.172,-8.205,-7.814,16.020,-1.954,-16.020,1.172,5.470,2.735,-19.927,30.867,-9.768,6.252,-17.192,-2.344,-8.987,2.735
'[12:42:59.180 06/11/2076]',33.993,16.020,-2.735,-16.020,21.880,22.662,-1.563,-13.284,-16.410,20.317,1.954,-8.596,9.768,-11.331,2.344,-2.344,37.118,-11.722,3.516,-1.563,-19.927,-14.457,2.344
'[12:42:59.184 06/11/2076]',22.271,13.675,-7.424,-15.238,9.377,23.443,-8.596,-12.112,-14.457,19.536,3.516,-3.907,23.443,-23.443,-3.126,7.814,35.556,-16.801,8.205,10.940,-32.430,-16.801,-3.126
'[12:42:59.188 06/11/2076]',18.755,12.894,-16.801,-19.927,7.033,15.238,-18.364,-9.377,-20.317,17.582,-5.470,-8.987,9.377,-12.503,-6.642,-7.033,27.350,-30.867,17.582,0.000,-28.913,-6.642,-6.642
'[12:42:59.191 06/11/2076]',8.987,13.284,-16.801,-24.225,0.000,9.768,-18.364,-9.768,-23.443,17.192,-11.331,-13.675,0.781,-2.344,-10.940,-19.145,25.006,-38.291,17.582,-8.987,-11.722,-1.172,-10.940
'[12:42:59.195 06/11/2076]',-0.781,7.033,-14.847,-24.225,-6.642,6.252,-15.238,-16.410,-16.410,15.238,-7.814,-26.569,4.689,-5.861,-12.112,-21.880,21.880,-38.291,15.629,0.781,-7.424,-5.470,-12.112
'[12:42:59.199 06/11/2076]',0.781,6.642,-16.801,-16.020,0.391,3.516,-17.192,-12.112,-3.907,9.377,-8.596,-26.569,4.689,-8.596,-10.159,-15.238,15.238,-36.728,17.582,3.126,-12.503,-4.298,-10.159
'[12:42:59.203 06/11/2076]',8.205,7.814,-11.722,-9.768,14.847,0.391,-16.020,-3.907,-4.689,7.033,-11.722,-17.192,-7.033,-7.033,-1.172,-10.549,12.503,-35.165,12.503,-3.516,-5.861,-0.781,-1.172
'[12:42:59.207 06/11/2076]',17.973,8.596,0.000,-11.331,25.788,0.000,-8.596,-1.954,-10.549,8.596,-4.689,-24.615,-18.755,-5.470,7.033,-14.457,9.768,-26.178,0.781,-2.735,-3.516,-0.391,7.033
'[12:42:59.211 06/11/2076]',10.549,10.940,4.689,-16.410,20.708,3.126,-3.907,-8.987,-0.781,8.987,3.907,-39.072,-13.675,-4.298,12.112,-21.490,7.424,-19.536,-3.907,0.391,-1.563,-0.391,12.112
'[12:42:59.215 06/11/2076]',3.907,8.596,6.642,-6.642,19.536,0.391,-3.907,-1.954,15.629,8.987,3.126,-30.476,1.563,-3.907,10.549,-10.940,2.344,-15.629,-5.861,2.344,3.907,1.954,10.549
'[12:42:59.219 06/11/2076]',-37.509,1.954,2.344,-0.391,-24.225,-7.033,-3.126,1.954,4.689,7.814,-1.563,-16.801,-1.563,-7.814,3.907,0.391,-1.954,-12.894,-1.563,3.126,13.675,3.516,3.907
'[12:42:59.223 06/11/2076]',-52.747,-3.516,-1.563,4.298,-41.026,-17.192,-0.391,5.470,14.066,5.470,-6.642,-25.397,8.205,-4.689,0.391,-16.801,-2.735,-11.331,2.344,-1.563,30.476,4.298,0.391
'[12:42:59.227 06/11/2076]',-58.999,-12.112,-7.424,30.867,-46.496,-41.416,0.781,39.463,3.516,4.298,-25.397,-0.391,-3.516,1.563,-0.391,-15.629,-6.252,-10.940,8.205,-17.582,49.231,14.066,-0.391
'[12:42:59.230 06/11/2076]',-45.324,-8.987,-3.907,27.350,-36.728,-42.979,7.033,40.635,-10.549,7.814,-19.536,5.470,-14.457,6.252,7.814,-17.192,-5.079,-5.470,4.689,-26.569,57.045,16.801,7.814
'[12:42:59.234 06/11/2076]',-9.768,-5.470,2.735,3.516,0.781,-36.728,15.629,11.331,-1.172,8.596,0.781,-8.596,-0.391,4.298,17.973,-22.271,-2.735,4.689,-1.954,-18.364,55.092,11.722,17.973
'[12:42:59.238 06/11/2076]',2.735,-0.391,3.126,3.907,21.880,-22.662,5.861,5.861,8.987,0.391,18.364,-16.801,-0.391,-2.735,29.695,-14.847,-12.894,12.894,-2.344,-7.424,23.053,7.033,29.695
'[12:42:59.242 06/11/2076]',3.516,7.033,9.377,3.126,29.695,-14.066,4.689,3.907,12.112,-6.642,29.695,-22.662,-7.033,-1.563,33.993,-12.894,-20.317,20.708,-8.596,-8.205,12.894,4.689,33.993
'[12:42:59.246 06/11/2076]',2.735,1.563,13.284,-4.298,31.648,-11.722,2.344,-7.424,24.225,-13.284,33.602,-12.112,10.940,-15.238,30.476,6.642,-27.741,25.788,-12.503,7.424,0.391,-3.516,30.476
'[12:42:59.250 06/11/2076]',-12.112,-5.079,12.503,-0.781,16.801,-13.675,0.000,-7.424,30.476,-14.457,28.132,-0.391,21.490,-22.662,23.053,20.708,-35.946,23.053,-11.722,13.675,-2.735,-4.689,23.053
'[12:42:59.254 06/11/2076]',-0.391,0.000,9.377,-7.424,26.960,-15.629,-2.735,-6.252,19.927,-17.973,19.145,-5.470,0.000,-10.940,19.145,6.642,-39.853,14.847,-8.596,-1.563,0.781,1.172,19.145
'[12:42:59.258 06/11/2076]',21.490,1.172,1.172,-15.629,50.012,-14.847,-5.079,-19.927,14.066,-18.364,15.629,-12.112,-8.596,-6.252,15.629,-1.172,-39.072,12.894,-0.391,-3.907,1.563,1.172,15.629
'[12:42:59.262 06/11/2076]',10.159,0.781,-6.642,-17.582,36.337,-12.112,-6.252,-29.304,0.000,-19.536,13.284,-13.284,-15.629,-13.675,8.987,0.781,-39.072,10.549,7.424,5.470,-7.033,-3.126,8.987
'[12:42:59.266 06/11/2076]',-3.516,2.735,-5.470,-6.642,21.490,-9.768,-5.861,-18.364,-5.079,-24.225,10.940,-7.424,-20.317,-15.238,6.252,3.907,-35.946,7.814,6.252,3.516,-5.861,-3.516,6.252
'[12:42:59.270 06/11/2076]',-8.205,7.033,0.391,-8.596,14.847,-1.954,-3.126,-18.755,-0.391,-23.443,10.940,0.391,-8.987,-14.457,5.470,5.470,-26.569,8.987,0.391,1.563,0.000,-4.298,5.470
'[12:42:59.273 06/11/2076]',-16.410,10.159,1.563,-19.145,-2.344,9.768,-2.735,-28.132,7.424,-21.490,14.847,-0.391,6.642,-18.755,4.689,7.033,-20.317,10.549,-0.781,7.424,-12.894,-7.814,4.689
'[12:42:59.277 06/11/2076]',-9.768,8.987,-1.563,-13.284,-0.391,12.112,-6.642,-20.317,2.735,-18.755,10.549,-0.391,3.907,-17.582,0.391,6.642,-14.066,5.861,2.344,2.344,-13.675,-7.033,0.391
'[12:42:59.281 06/11/2076]',10.549,7.814,-5.079,-14.457,18.364,9.377,-8.987,-21.099,17.192,-14.847,5.470,0.391,13.284,-7.814,-2.344,5.861,-6.642,-0.781,5.861,-6.642,-7.033,-3.126,-2.344
'[12:42:59.285 06/11/2076]',26.960,3.907,-11.331,-10.940,35.165,3.126,-11.331,-18.755,18.364,-8.596,-2.344,7.814,14.847,-2.735,-8.205,12.112,-3.516,-7.424,12.112,-8.987,-3.516,0.391,-8.205
'[12:42:59.289 06/11/2076]',9.377,-7.033,-23.053,8.205,19.927,-22.662,-13.675,3.126,-4.689,-7.814,-22.662,6.642,-16.410,12.112,-17.192,-7.033,-4.689,-21.490,23.834,-26.569,21.099,7.814,-17.192
'[12:42:59.293 06/11/2076]',0.391,-1.172,-15.238,6.252,12.503,-23.443,1.563,0.000,-7.814,0.000,-12.112,-21.490,-26.569,31.258,-12.503,-34.383,2.735,-21.490,16.020,-34.774,41.416,8.987,-12.503
'[12:42:59.297 06/11/2076]',6.642,1.563,-10.940,-8.205,15.629,-12.112,1.172,-15.629,-10.159,1.172,-5.470,-11.722,-18.755,17.192,-11.331,-13.284,7.033,-14.847,11.722,-15.629,21.880,1.954,-11.331
'[12:42:59.301 06/11/2076]',-4.298,0.000,-15.629,-3.907,-2.735,-2.735,-3.126,-16.020,-23.443,-3.516,1.563,3.907,-23.443,-6.252,-10.159,17.973,0.391,-10.159,16.410,7.033,-5.079,-8.596,-10.159
'[12:42:59.305 06/11/2076]',-14.066,4.298,-19.536,-5.861,-22.662,7.424,-6.252,-13.675,-3.516,-6.252,5.470,-14.847,-12.112,-3.516,-4.298,1.954,-4.689,-9.377,20.317,8.987,-16.020,-11.331,-4.298
'[12:42:59.309 06/11/2076]',-5.470,8.987,-22.271,-10.549,-17.192,10.940,-13.675,-9.768,13.284,-12.112,2.344,-15.238,0.781,-6.642,-4.298,-1.172,-12.894,-11.331,23.053,8.596,-24.225,-9.768,-4.298
'[12:42:59.313 06/11/2076]',2.735,3.126,-26.178,-0.391,-13.284,5.861,-13.284,0.391,7.814,-14.066,-2.735,-1.563,7.033,-14.847,-11.722,8.596,-17.973,-10.940,26.960,18.755,-22.271,-10.159,-11.722
'[12:42:59.316 06/11/2076]',1.172,3.126,-30.867,1.172,-14.457,-0.391,-10.159,1.172,7.424,-13.675,-4.298,-2.344,16.410,-13.675,-19.927,3.516,-16.020,-14.457,31.648,19.536,-9.768,-8.596,-19.927
'[12:42:59.320 06/11/2076]',0.000,5.470,-21.490,-3.907,-10.940,-4.298,-8.987,5.079,4.689,-12.503,-7.033,-3.126,13.675,-5.079,-24.615,-1.954,-12.503,-17.192,22.271,12.503,0.000,-4.298,-24.615
'[12:42:59.324 06/11/2076]',-6.642,0.000,-21.880,1.563,-14.847,-12.112,-9.768,9.768,-2.344,-13.675,-12.503,1.563,3.516,-2.735,-29.304,0.391,-12.894,-18.364,22.662,13.675,6.642,-4.689,-29.304
'[12:42:59.328 06/11/2076]',-7.814,-7.033,-21.099,3.126,-14.066,-19.536,-6.642,7.424,-1.563,-14.847,-17.582,-4.689,0.391,-2.344,-35.946,-1.563,-14.066,-20.708,21.880,16.020,15.629,-9.768,-35.946
'[12:42:59.332 06/11/2076]',7.424,-8.987,-13.675,-3.907,10.159,-24.615,-3.907,-0.391,4.298,-14.457,-15.629,-16.020,-3.907,1.563,-34.383,-4.689,-17.973,-23.834,14.457,18.755,12.503,-11.331,-34.383
'[12:42:59.336 06/11/2076]',31.648,-8.596,-12.503,-10.549,45.324,-25.788,-6.252,-13.284,3.126,-17.192,-11.331,-11.722,-12.894,-5.861,-24.615,5.861,-23.443,-26.569,13.284,24.225,-1.172,-13.284,-24.615
'[12:42:59.340 06/11/2076]',43.761,-7.424,-13.675,-1.172,63.297,-26.960,-7.424,-6.642,-1.172,-18.755,-9.377,-5.079,-22.662,-11.331,-15.629,14.066,-28.523,-26.569,14.457,23.443,-15.629,-13.675,-15.629
'[12:42:59.344 06/11/2076]',27.350,-4.298,-11.722,3.907,52.747,-32.430,-3.516,0.000,-8.596,-16.801,-9.377,-7.033,-33.602,-7.033,-8.205,6.252,-31.258,-26.569,12.503,12.503,-15.629,-8.596,-8.205
'[12:42:59.348 06/11/2076]',0.391,-1.563,-6.642,8.205,20.317,-31.648,1.172,10.159,-12.894,-14.847,-13.675,4.689,-40.244,-1.172,-4.689,8.987,-29.695,-25.788,7.424,-4.689,-3.126,-0.391,-4.689
'[12:42:59.352 06/11/2076]',-17.582,-5.861,-7.814,30.085,-5.470,-41.026,5.079,39.853,-18.755,-13.675,-33.602,32.039,-42.589,6.642,-14.457,14.457,-28.132,-26.569,8.596,-30.085,27.741,9.377,-14.457
'[12:42:59.355 06/11/2076]',-16.410,-0.391,-0.391,6.642,-7.033,-37.509,15.629,17.973,-23.443,-6.252,-26.569,-10.940,-44.542,20.317,-19.927,-23.834,-14.847,-25.788,1.172,-38.291,49.621,10.940,-19.927
'[12:42:59.359 06/11/2076]',-23.443,7.033,0.000,-7.814,-14.847,-20.317,12.503,-1.954,-14.066,-1.954,-16.801,-33.993,-35.556,21.880,-17.582,-36.337,-4.298,-21.880,0.781,-31.258,41.807,8.987,-17.582
'[12:42:59.363 06/11/2076]',-14.457,3.126,-7.814,-8.596,-3.907,-7.424,0.391,-15.238,-4.298,-3.516,-6.642,-9.768,-6.252,-5.470,-14.457,1.563,-1.954,-18.755,8.596,-1.563,15.238,-3.516,-14.457
'[12:42:59.367 06/11/2076]',-13.675,-0.781,0.391,-10.159,-1.954,4.298,-1.172,-25.788,16.020,-2.735,5.079,-2.344,22.662,-20.708,-5.861,19.927,3.907,-14.847,0.391,16.410,4.689,-10.549,-5.861
'[12:42:59.371 06/11/2076]',-35.165,2.344,7.424,1.563,-19.927,12.112,-1.954,-12.503,23.834,-6.252,7.814,-6.642,12.503,-12.894,4.689,14.066,3.907,-14.847,-6.642,8.596,0.781,-5.470,4.689
'[12:42:59.375 06/11/2076]',-41.416,4.298,9.768,14.847,-20.708,11.331,-1.172,-0.391,23.443,-8.205,0.781,0.391,-0.391,-6.642,7.033,16.410,5.079,-15.238,-8.987,-4.298,7.814,0.391,7.033
'[12:42:59.379 06/11/2076]',-30.476,0.391,13.675,17.973,-5.861,9.377,3.126,-3.126,23.443,-12.112,-2.735,-1.563,-5.470,-10.549,0.391,23.443,5.861,-14.847,-12.894,0.391,7.424,0.781,0.391
'[12:42:59.383 06/11/2076]',-10.940,2.344,15.629,14.457,16.410,12.894,3.126,-10.159,24.615,-11.722,-5.079,-13.675,-9.768,-14.457,-7.424,25.006,7.033,-17.192,-14.847,0.781,1.954,2.735,-7.424
'[12:42:59.387 06/11/2076]',-1.172,2.735,5.079,14.457,33.211,10.940,-5.079,-16.410,17.973,-11.331,-14.066,-8.596,-21.880,-10.940,-10.940,28.523,5.470,-21.490,-4.298,-3.126,0.391,5.079,-10.940
'[12:42:59.391 06/11/2076]',8.987,0.391,1.954,12.894,42.979,11.331,-10.549,-18.364,21.880,-7.033,-19.145,-1.563,-15.629,-12.894,-9.377,31.648,7.424,-21.880,-1.172,-4.298,-1.172,7.033,-9.377
'[12:42:59.395 06/11/2076]',2.735,3.126,6.642,10.159,35.556,15.629,-7.033,-20.317,16.020,-0.781,-13.675,-10.549,-17.192,-10.549,-3.907,22.662,12.503,-19.536,-5.861,-6.252,3.516,3.126,-3.907
'[12:42:59.398 06/11/2076]',-3.907,7.814,5.861,10.940,32.039,20.708,-6.252,-24.615,8.596,0.391,-3.907,-12.503,-22.271,-10.549,2.735,23.053,13.284,-12.894,-5.079,-5.861,2.344,-0.781,2.735
'[12:42:59.402 06/11/2076]',-18.755,2.735,6.642,15.629,13.675,19.536,-7.424,-18.755,2.735,-2.344,-1.954,7.424,-17.973,-21.880,4.689,41.416,8.987,-9.768,-5.861,1.172,-5.861,-5.861,4.689
'[12:42:59.406 06/11/2076]',-27.741,-0.391,4.689,19.927,3.126,12.503,-7.424,-10.940,3.907,-2.735,-4.689,5.861,-10.549,-19.536,-0.391,32.430,7.814,-10.159,-3.907,0.391,3.516,-7.814,-0.391
'[12:42:59.410 06/11/2076]',-12.894,-4.298,-0.391,16.410,15.238,0.391,-7.033,-8.987,15.238,-8.596,-12.112,-4.689,-1.954,-10.159,-8.987,11.722,6.642,-14.457,1.172,-5.470,19.145,-4.689,-8.987
'[12:42:59.414 06/11/2076]',-10.159,-15.629,-6.252,32.821,11.722,-19.536,-7.033,14.847,26.960,-7.814,-35.946,31.648,10.549,-1.563,-16.801,21.880,3.907,-24.615,7.033,-18.755,41.416,7.424,-16.801
'[12:42:59.418 06/11/2076]',-9.377,-10.940,0.781,19.927,8.987,-23.053,1.563,12.503,31.258,-1.954,-33.602,19.145,14.847,10.159,-14.457,2.735,9.377,-26.178,0.000,-28.132,62.125,12.894,-14.457
'[12:42:59.422 06/11/2076]',-0.781,1.563,4.298,11.331,17.192,-13.284,9.768,3.516,19.536,2.735,-19.145,-20.317,-3.516,14.847,-3.516,-25.006,12.894,-22.662,-3.516,-23.834,50.403,8.987,-3.516
'[12:42:59.426 06/11/2076]',-12.503,7.424,0.781,14.066,1.563,0.781,2.344,4.689,8.205,-0.781,-9.768,-22.271,-18.364,0.000,5.861,-12.894,2.344,-18.364,0.000,-8.987,16.801,-1.563,5.861
'[12:42:59.430 06/11/2076]',-11.722,7.033,0.391,9.377,-0.391,7.424,1.954,-3.907,4.689,-0.391,-1.172,-7.814,-7.814,-19.536,10.549,9.768,-0.781,-8.596,0.391,10.159,0.781,-14.847,10.549
'[12:42:59.434 06/11/2076]',5.861,5.861,0.391,5.079,12.112,11.331,4.298,-9.768,10.159,-1.954,3.516,1.172,8.596,-32.039,13.284,23.443,-3.516,-0.391,0.391,25.006,-16.020,-23.053,13.284
'[12:42:59.438 06/11/2076]',12.503,6.642,0.000,8.596,16.020,9.768,1.172,1.563,9.377,-1.954,1.172,5.470,3.516,-19.927,15.629,13.675,-5.861,0.391,0.781,10.940,-12.112,-14.457,15.629
'[12:42:59.441 06/11/2076]',21.490,10.159,0.781,4.689,25.397,3.126,4.298,3.516,13.675,1.563,1.172,9.377,11.331,-7.033,16.020,4.298,-3.907,5.861,0.000,-1.172,-1.954,-7.033,16.020
'[12:42:59.445 06/11/2076]',28.913,12.894,7.424,7.033,31.258,4.689,11.722,9.377,12.503,8.987,8.596,3.516,17.192,-1.954,16.020,2.735,0.391,11.722,-6.642,4.298,-7.033,-5.861,16.020
'[12:42:59.449 06/11/2076]',20.317,16.020,4.689,14.457,24.225,6.642,8.987,16.410,19.536,13.284,10.159,4.298,25.397,0.000,13.284,7.814,0.391,12.894,-3.907,8.596,-16.801,-2.344,13.284
'[12:42:59.453 06/11/2076]',6.642,17.192,2.735,13.675,1.172,9.768,7.033,21.880,25.788,11.722,3.907,19.145,26.178,2.735,14.457,16.020,-0.391,10.549,-1.954,5.861,-18.364,-3.126,14.457
'[12:42:59.457 06/11/2076]',9.768,18.364,5.861,3.516,-8.987,18.364,12.894,15.629,17.582,8.987,6.642,17.973,14.457,3.907,21.490,12.503,-2.344,17.192,-5.079,9.377,-24.615,-7.424,21.490
