'Time and date','FP1-F7','F7-T7','T7-P7','P7-O1','FP1-F3','F3-C3','C3-P3','P3-O1','FP2-F4','F4-C4','C4-P4','P4-O2','FP2-F8','F8-T8','T8-P8','P8-O2','FZ-CZ','CZ-PZ','P7-T7','T7-FT9','FT9-FT10','FT10-T8','T8-P8'
'hh:mm:ss.mmm dd/mm/yyyy','uV','uV','uV','uV','uV','uV','uV','uV','uV','uV','uV','uV','uV','uV','uV','uV','uV','uV','uV','uV','uV','uV','uV'
'[11:34:14.000 07/11/2076]',-5.861,23.834,20.708,23.443,2.735,25.397,19.145,14.847,3.907,19.927,35.946,9.377,1.172,22.271,11.331,34.383,9.768,42.589,-19.927,-14.066,-20.708,55.092,11.331
'[11:34:14.004 07/11/2076]',0.391,0.391,0.391,0.391,0.391,0.391,0.391,0.391,0.391,0.391,0.391,0.391,0.391,0.391,0.391,0.391,0.391,0.391,0.391,0.391,0.391,0.391,0.391
'[11:34:14.008 07/11/2076]',0.391,0.391,0.391,0.391,0.391,0.391,0.391,0.391,0.391,0.391,0.391,0.391,0.391,0.391,0.391,0.391,0.391,0.391,0.391,0.391,0.391,0.391,0.391
'[11:34:14.012 07/11/2076]',-0.391,0.391,0.391,0.391,0.000,0.391,0.391,0.391,0.391,0.391,0.391,0.391,0.000,0.391,0.000,0.391,0.391,0.000,0.391,0.391,0.391,0.391,0.000
'[11:34:14.016 07/11/2076]',1.563,0.391,0.391,0.391,1.563,0.391,0.391,0.391,0.781,0.391,0.391,0.391,0.781,0.391,0.391,0.391,0.781,0.000,0.391,0.391,0.391,0.391,0.391
'[11:34:14.020 07/11/2076]',3.516,0.391,1.172,0.391,3.126,0.781,0.391,0.391,1.172,0.391,1.172,1.172,1.563,0.391,2.344,0.391,0.391,1.954,-0.391,1.563,0.391,-0.781,2.344
'[11:34:14.023 07/11/2076]',0.781,0.391,0.781,0.391,0.391,0.781,0.391,0.781,0.391,0.000,2.344,2.735,0.781,0.000,3.126,0.781,-0.781,3.516,0.000,2.344,0.000,-1.954,3.126
'[11:34:14.027 07/11/2076]',-3.516,0.391,-0.391,0.391,-3.907,0.391,0.000,0.781,0.391,-0.391,0.391,0.391,0.000,1.172,-0.391,0.391,-1.172,0.000,1.172,0.391,0.391,0.781,-0.391
'[11:34:14.031 07/11/2076]',-0.781,0.000,-0.391,0.391,-0.781,-0.781,0.391,0.391,1.172,0.391,-1.954,-3.126,0.391,1.563,-4.298,-0.781,1.172,-3.907,1.172,-1.954,1.954,3.516,-4.298
'[11:34:14.035 07/11/2076]',4.689,0.000,1.172,0.000,5.470,-0.391,0.391,-0.391,0.781,1.172,-0.391,-0.781,1.563,-0.391,0.391,-0.781,2.735,0.391,-0.391,1.172,1.563,-0.781,0.391
'[11:34:14.039 07/11/2076]',10.159,0.000,1.954,0.391,10.159,0.391,0.000,1.172,3.516,-0.391,4.689,6.252,5.470,-1.563,8.205,1.954,-0.781,7.424,-1.172,6.642,-1.172,-6.642,8.205
'[11:34:14.043 07/11/2076]',23.443,0.000,5.079,1.172,21.490,3.907,1.172,2.344,13.675,-1.954,10.940,11.722,14.847,0.781,16.410,2.735,-3.126,13.675,-4.298,14.066,-1.563,-9.768,16.410
'[11:34:14.047 07/11/2076]',17.973,-3.126,6.642,-0.391,11.331,4.689,0.391,2.344,10.940,-5.470,16.020,14.847,11.722,0.391,22.662,0.781,-8.205,23.834,-5.861,21.099,0.391,-16.410,22.662
'[11:34:14.051 07/11/2076]',14.847,-5.079,1.954,0.391,7.033,1.954,-3.126,6.252,25.006,-8.987,16.020,15.238,23.443,3.907,17.582,1.172,-13.284,22.271,-1.172,24.225,1.563,-17.582,17.582
'[11:34:14.055 07/11/2076]',8.596,-9.377,-1.563,-1.172,0.781,-3.907,-6.642,5.470,23.053,-11.722,12.503,6.642,20.317,4.689,8.596,-2.735,-14.457,11.722,2.344,23.443,5.470,-17.192,8.596
'[11:34:14.059 07/11/2076]',1.563,-15.238,-3.516,-3.126,-1.172,-12.503,-11.331,4.298,13.675,-13.675,7.033,1.954,15.629,0.000,-3.126,-3.907,-11.722,6.252,4.298,25.006,12.894,-19.927,-3.126
'[11:34:14.063 07/11/2076]',5.861,-16.410,-6.642,-4.689,11.722,-21.490,-18.364,5.470,13.675,-14.847,5.470,5.861,20.317,-4.689,-3.516,-0.391,-13.284,2.735,7.424,30.476,8.987,-26.178,-3.516
'[11:34:14.066 07/11/2076]',-2.735,-17.973,-8.987,-3.907,2.735,-23.443,-20.708,5.861,5.079,-16.410,7.033,6.252,13.675,-2.735,-7.033,-0.391,-16.801,-3.516,9.768,31.648,1.563,-23.443,-7.033
'[11:34:14.070 07/11/2076]',-14.066,-13.284,-9.377,-8.596,-10.549,-20.317,-19.927,3.516,-2.344,-13.284,4.689,1.563,7.033,-1.954,-7.033,-5.861,-11.722,-12.894,10.159,27.741,-1.172,-19.927,-7.033
'[11:34:14.074 07/11/2076]',3.907,-4.689,-6.252,-9.768,3.126,-14.457,-14.847,7.424,-1.563,-3.126,4.689,2.344,7.424,0.781,1.954,-8.596,-3.516,-12.503,7.033,23.053,-10.940,-15.629,1.954
'[11:34:14.078 07/11/2076]',8.596,1.563,-5.470,-9.768,-1.563,-5.861,-10.940,13.284,-4.689,0.391,11.331,5.861,7.814,0.391,12.112,-7.033,0.391,-7.033,6.252,22.271,-21.490,-20.708,12.112
'[11:34:14.082 07/11/2076]',15.238,8.987,-0.391,-8.987,-0.391,0.391,-5.861,19.927,-16.410,4.689,18.755,12.503,1.954,1.172,21.880,-3.907,5.861,-2.735,1.172,17.582,-21.490,-23.834,21.880
'[11:34:14.086 07/11/2076]',23.834,11.722,4.298,-3.516,6.252,0.781,0.391,28.132,-15.238,8.987,17.192,16.801,5.079,4.689,19.145,-1.172,12.894,-1.172,-3.516,14.066,-17.973,-17.973,19.145
'[11:34:14.090 07/11/2076]',25.006,12.112,6.642,-0.781,7.033,-0.391,4.298,32.821,-19.927,10.159,15.238,16.801,3.126,8.205,8.987,1.172,17.192,-0.391,-5.861,12.503,-11.722,-14.847,8.987
'[11:34:14.094 07/11/2076]',24.615,10.940,6.642,1.954,3.126,0.781,5.079,34.774,-14.457,6.252,15.238,19.145,8.205,9.377,5.861,2.344,17.582,-6.642,-5.861,14.066,-8.205,-17.192,5.861
'[11:34:14.098 07/11/2076]',20.317,10.159,9.377,2.344,-1.954,6.642,7.033,30.476,-2.344,1.172,16.020,21.099,18.364,5.470,5.079,5.861,21.099,-9.377,-8.596,17.192,-7.424,-16.801,5.079
'[11:34:14.102 07/11/2076]',18.364,4.689,8.205,7.033,-1.954,4.298,5.861,30.085,-0.391,-4.298,13.675,21.490,17.582,1.563,-4.298,14.847,21.099,-5.079,-7.424,21.099,-7.424,-16.410,-4.298
'[11:34:14.105 07/11/2076]',12.112,-0.391,5.861,12.894,-0.391,-3.516,6.252,28.913,21.099,-13.284,12.503,19.536,32.430,2.344,-7.814,13.675,19.927,-3.907,-5.079,19.536,0.000,-13.675,-7.814
'[11:34:14.109 07/11/2076]',-3.126,-7.033,7.424,14.847,-12.503,-8.596,6.252,27.350,28.523,-15.629,9.768,14.847,33.211,2.735,-7.424,9.377,16.410,-3.907,-6.642,22.662,3.126,-10.159,-7.424
'[11:34:14.113 07/11/2076]',4.298,-10.159,7.424,13.284,-0.781,-15.629,5.470,25.788,25.788,-14.847,5.470,7.814,30.867,4.689,-10.159,0.000,13.284,-1.563,-6.642,19.145,14.066,-7.033,-10.159
'[11:34:14.117 07/11/2076]',10.940,-12.894,2.735,15.629,6.642,-19.536,2.344,27.350,24.615,-13.675,-3.126,7.033,31.258,1.954,-13.675,-4.298,8.987,-9.768,-1.954,13.284,22.271,-5.079,-13.675
'[11:34:14.121 07/11/2076]',8.205,-13.284,2.735,8.987,2.735,-8.205,-3.126,14.847,19.536,-14.457,0.781,-1.563,28.132,-8.987,-8.987,-5.861,7.814,-16.410,-1.954,20.708,15.629,-11.331,-8.987
'[11:34:14.125 07/11/2076]',6.642,-17.973,4.298,5.470,0.781,-1.172,-6.642,6.642,6.642,-11.722,-1.172,-3.907,20.317,-16.410,-10.549,-3.516,12.112,-17.192,-3.516,22.271,17.973,-12.894,-10.549
'[11:34:14.129 07/11/2076]',6.642,-17.582,1.954,6.252,3.907,1.563,-9.377,0.781,6.642,-8.596,-1.954,-1.954,18.364,-16.410,-10.549,1.954,14.457,-8.205,-1.172,21.490,15.238,-12.894,-10.549
'[11:34:14.133 07/11/2076]',7.424,-13.675,-1.954,3.516,7.814,6.252,-11.331,-6.252,-8.205,-7.424,1.563,-2.735,-0.391,-12.503,-7.814,3.907,8.987,-5.079,2.735,20.708,7.033,-11.722,-7.814
'[11:34:14.137 07/11/2076]',10.549,-8.596,-8.987,0.781,13.675,6.642,-15.629,-11.331,-14.066,-4.689,-2.735,-7.424,-9.768,-7.814,-12.503,0.781,7.814,-7.814,9.768,12.894,5.861,-6.642,-12.503
'[11:34:14.141 07/11/2076]',7.814,1.172,-19.536,-1.172,13.675,8.205,-17.973,-15.238,3.907,-2.735,-9.377,-10.940,1.563,-8.596,-12.503,0.391,10.159,-10.549,20.317,1.172,0.391,-3.126,-12.503
'[11:34:14.145 07/11/2076]',-0.781,2.735,-18.364,-6.252,5.470,12.503,-21.490,-19.536,17.582,-5.470,-10.549,-12.503,9.377,-16.020,-6.642,1.172,9.768,-16.801,19.145,2.735,-7.814,-8.987,-6.642
'[11:34:14.148 07/11/2076]',-8.987,1.172,-8.205,-8.596,3.126,17.582,-22.662,-23.834,22.271,-10.940,-8.596,-15.238,11.722,-24.615,-3.126,2.735,7.814,-17.582,8.987,5.079,-4.689,-13.675,-3.126
'[11:34:14.152 07/11/2076]',-13.675,-0.391,-0.781,-5.861,3.516,17.973,-19.927,-23.834,32.039,-10.940,-13.284,-15.629,17.192,-27.741,-1.172,2.735,6.252,-14.847,1.563,5.470,-2.735,-12.894,-1.172
'[11:34:14.156 07/11/2076]',-0.391,0.000,5.470,-0.781,26.178,14.066,-14.847,-21.880,31.648,-8.987,-18.364,-14.066,14.066,-23.834,-4.689,3.907,0.391,-12.112,-4.689,0.781,5.470,-6.642,-4.689
'[11:34:14.160 07/11/2076]',7.424,-2.735,10.549,3.907,42.198,3.516,-8.205,-18.364,4.298,-8.205,-18.364,-12.894,-12.112,-21.880,-0.391,-0.781,-10.159,-10.159,-9.768,-1.563,14.847,-7.033,-0.391
'[11:34:14.164 07/11/2076]',4.298,-4.689,12.112,12.112,41.807,-1.954,-3.126,-10.549,3.516,-2.735,-21.490,-9.377,-11.331,-18.755,5.861,-6.252,-16.801,-5.470,-11.331,-8.596,29.695,-7.814,5.861
'[11:34:14.168 07/11/2076]',-3.516,-8.596,10.549,16.020,31.648,-7.033,0.781,-10.549,23.443,0.781,-22.662,-9.377,3.907,-11.722,5.079,-5.470,-15.629,-1.172,-9.768,-13.675,33.602,-2.344,5.079
'[11:34:14.172 07/11/2076]',-5.079,-9.377,14.457,9.768,26.569,-2.735,5.079,-19.145,18.755,3.907,-14.066,-15.238,-1.172,-8.596,9.768,-6.252,-13.284,5.470,-13.675,-12.112,29.304,-3.126,9.768
'[11:34:14.176 07/11/2076]',-0.781,-8.205,13.675,8.205,29.695,0.391,5.079,-22.662,17.192,2.735,-5.861,-13.675,-2.735,-10.159,14.457,-0.781,-11.331,8.987,-12.894,-4.689,13.675,-5.861,14.457
'[11:34:14.180 07/11/2076]',12.112,-4.689,9.768,4.689,41.807,1.563,4.689,-25.397,22.662,2.735,0.781,-10.159,1.954,-7.033,14.457,7.033,-10.940,18.364,-8.987,-0.781,-4.298,-1.954,14.457
'[11:34:14.184 07/11/2076]',15.629,-0.781,8.205,4.298,43.370,1.954,5.470,-23.443,14.847,2.344,8.987,-7.424,-5.470,-4.689,18.364,11.331,-16.020,22.271,-7.424,-0.781,-13.675,-1.954,18.364
'[11:34:14.188 07/11/2076]',10.159,1.563,8.205,4.298,39.463,1.172,4.298,-18.364,14.066,2.735,14.066,-5.470,-3.126,-5.079,22.271,12.112,-17.582,21.490,-7.424,-0.781,-19.145,-1.563,22.271
'[11:34:14.191 07/11/2076]',5.470,3.907,5.861,5.470,31.648,2.344,5.470,-16.801,20.317,7.033,14.457,-5.470,7.424,-5.861,25.788,9.377,-11.331,23.443,-5.079,-4.298,-15.629,-1.954,25.788
'[11:34:14.195 07/11/2076]',-1.954,7.424,6.252,4.298,12.503,11.331,7.033,-14.457,17.192,10.940,14.847,1.172,7.814,-6.642,30.867,13.284,-6.642,27.350,-5.470,-5.470,-15.238,-6.642,30.867
'[11:34:14.199 07/11/2076]',3.126,9.377,6.642,5.861,13.675,16.020,7.814,-10.940,14.457,9.768,16.801,8.205,8.205,-6.252,33.993,14.457,-6.252,22.662,-5.861,-5.470,-13.284,-10.159,33.993
'[11:34:14.203 07/11/2076]',4.298,10.159,3.126,9.768,10.549,12.894,10.940,-6.252,0.781,8.205,10.549,10.549,-3.126,-3.516,23.053,14.847,-1.954,14.847,-2.344,-6.252,-5.470,-8.205,23.053
'[11:34:14.207 07/11/2076]',6.252,5.470,1.563,10.159,8.596,9.377,11.722,-4.689,-1.563,6.252,5.470,9.377,-5.861,0.781,10.159,14.847,1.172,5.861,-0.781,-5.079,1.172,-3.516,10.159
'[11:34:14.211 07/11/2076]',5.079,2.735,-0.781,9.768,2.735,7.814,10.549,-3.516,2.344,3.126,4.298,9.377,0.000,1.563,5.470,12.503,0.391,0.391,1.563,3.516,0.000,-5.470,5.470
'[11:34:14.215 07/11/2076]',9.377,-0.391,-4.689,10.159,10.159,-0.391,6.252,-2.344,2.344,-1.563,1.954,10.549,3.126,0.391,-1.563,11.722,-0.391,-6.642,5.470,10.159,1.954,-6.252,-1.563
'[11:34:14.219 07/11/2076]',8.987,-7.033,-8.205,10.159,7.033,-3.907,2.735,-1.172,11.722,-2.735,-4.298,10.159,12.894,-1.563,-5.470,8.987,0.391,-11.722,8.987,10.940,4.689,-6.252,-5.470
'[11:34:14.223 07/11/2076]',-6.642,-11.722,-8.987,8.205,-8.987,-7.033,0.391,-2.344,11.331,-4.689,-9.377,4.689,13.675,-2.344,-8.596,-0.391,-1.563,-13.675,9.768,9.768,11.331,-7.033,-8.596
'[11:34:14.227 07/11/2076]',-7.424,-13.284,-10.159,7.424,-3.907,-15.629,-3.126,-0.391,5.079,-3.126,-14.066,3.126,11.331,-3.516,-6.642,-9.768,-1.563,-23.053,10.940,3.907,20.708,-10.549,-6.642
'[11:34:14.230 07/11/2076]',-17.973,-12.503,-3.516,-1.954,-10.940,-15.629,0.000,-7.814,-1.954,2.344,-14.066,-8.987,9.768,-3.126,-9.377,-18.364,3.907,-26.960,4.298,-1.954,30.476,-10.159,-9.377
'[11:34:14.234 07/11/2076]',-17.582,-6.252,-2.344,-11.331,-6.252,-8.987,-1.563,-20.317,-19.145,8.205,-12.112,-19.927,-1.172,-5.470,-12.112,-22.662,8.987,-26.569,3.126,0.391,23.443,-8.596,-12.112
'[11:34:14.238 07/11/2076]',-9.768,-0.781,-3.126,-13.284,2.344,-1.954,-1.563,-25.788,-34.774,10.940,-6.252,-25.006,-12.503,-10.549,-13.675,-17.192,10.549,-25.788,3.907,2.735,15.629,-9.377,-13.675
'[11:34:14.242 07/11/2076]',1.563,1.563,0.391,-14.066,15.629,1.954,1.563,-29.304,-33.993,15.238,-3.126,-26.569,-10.940,-8.987,-12.894,-13.284,17.582,-21.880,0.391,3.907,11.722,-6.252,-12.894
'[11:34:14.246 07/11/2076]',-8.205,0.391,2.344,-10.549,6.252,3.126,3.126,-28.523,-50.012,17.192,0.000,-23.443,-27.741,-5.861,-10.940,-10.549,19.536,-10.940,-1.563,7.814,9.377,-4.689,-10.940
'[11:34:14.250 07/11/2076]',-8.205,-2.735,3.907,-5.470,7.033,1.172,3.126,-24.615,-28.913,14.847,3.126,-22.271,-12.503,0.391,-5.861,-12.894,17.192,-12.503,-3.126,3.516,14.066,-2.735,-5.861
'[11:34:14.254 07/11/2076]',-5.079,-1.563,7.033,-7.814,10.159,1.172,6.642,-26.569,-1.563,15.629,4.689,-23.053,7.424,7.033,0.000,-17.582,19.536,-13.675,-6.252,0.781,15.238,1.172,0.000
'[11:34:14.258 07/11/2076]',-18.364,-0.781,8.205,-8.596,-0.781,0.391,7.814,-27.741,15.238,17.582,4.689,-25.397,19.927,7.424,3.907,-18.364,24.615,-13.675,-7.424,-1.172,13.284,3.516,3.907
'[11:34:14.262 07/11/2076]',-26.569,0.391,10.159,-7.814,-13.675,6.252,10.549,-27.350,19.536,23.053,8.987,-19.145,21.880,9.768,12.112,-11.722,28.523,-4.689,-9.377,-0.781,6.642,5.470,12.112
'[11:34:14.266 07/11/2076]',-20.317,5.079,15.629,-4.298,-8.596,11.331,17.192,-24.225,11.331,25.788,14.066,-10.940,11.331,12.112,18.364,-1.172,30.476,3.516,-14.847,-3.126,4.689,7.424,18.364
'[11:34:14.270 07/11/2076]',-16.020,6.252,17.582,-2.344,-7.033,15.629,21.880,-25.788,10.940,32.039,12.503,-11.331,10.159,14.847,15.629,3.126,36.728,6.642,-16.801,-7.814,8.205,10.940,15.629
'[11:34:14.273 07/11/2076]',8.596,7.814,19.145,-1.172,22.662,17.973,23.443,-28.913,16.020,37.900,11.722,-10.940,13.675,16.801,16.410,7.424,37.118,10.159,-18.364,-11.331,7.814,14.457,16.410
'[11:34:14.277 07/11/2076]',26.569,12.112,22.271,1.172,36.728,26.178,25.006,-25.788,1.954,39.072,14.847,-5.079,0.391,20.317,17.582,11.722,33.602,12.894,-21.490,-11.722,6.252,15.238,17.582
'[11:34:14.281 07/11/2076]',27.350,11.331,24.225,2.735,33.602,28.523,25.006,-21.490,12.894,41.026,14.847,0.000,14.066,21.099,20.317,12.112,32.821,13.284,-23.443,-16.410,10.940,16.020,20.317
'[11:34:14.285 07/11/2076]',18.755,11.331,25.006,4.689,24.225,25.006,24.225,-12.894,16.410,44.151,13.284,6.642,18.364,23.834,22.662,16.020,34.383,16.020,-24.225,-19.536,8.987,18.755,22.662
'[11:34:14.289 07/11/2076]',-2.735,17.192,27.741,9.377,2.735,18.364,28.132,0.781,4.689,41.807,12.112,14.847,0.781,35.946,20.317,17.973,37.900,20.317,-26.960,-30.476,12.503,29.695,20.317
'[11:34:14.293 07/11/2076]',-4.689,23.443,26.569,5.861,0.781,13.284,30.085,5.079,10.549,34.383,14.066,13.284,0.391,31.648,31.258,10.940,33.993,19.927,-25.788,-34.383,14.457,19.927,31.258
'[11:34:14.297 07/11/2076]',7.033,26.178,23.834,-2.735,16.410,10.159,27.350,0.000,20.317,28.523,16.801,7.424,7.424,21.490,37.118,7.424,29.304,22.662,-23.053,-31.258,10.549,8.596,37.118
'[11:34:14.301 07/11/2076]',19.536,28.132,17.973,-1.954,28.132,7.814,23.834,2.735,22.662,16.410,19.536,10.159,7.424,12.894,37.118,11.722,12.112,26.178,-17.192,-23.053,-0.391,3.907,37.118
'[11:34:14.305 07/11/2076]',26.960,26.569,16.801,-4.689,28.132,11.331,21.490,3.907,22.271,11.331,20.708,5.861,12.503,7.424,34.383,6.252,-0.781,25.788,-16.020,-16.020,0.391,1.172,34.383
'[11:34:14.309 07/11/2076]',10.159,20.708,15.238,-7.814,9.768,3.516,19.145,4.689,28.523,15.238,19.927,6.642,27.350,7.424,31.258,3.126,-5.470,26.178,-14.457,-10.940,0.000,3.907,31.258
'[11:34:14.313 07/11/2076]',3.516,19.536,13.284,-5.861,0.781,3.126,15.629,10.159,12.894,19.927,17.582,10.159,17.973,11.331,26.960,5.079,-7.424,33.602,-12.503,-8.987,-0.391,8.987,26.960
'[11:34:14.316 07/11/2076]',-5.079,21.099,14.847,-7.033,-8.987,5.861,13.675,11.722,-12.503,20.708,18.755,10.549,-6.642,17.582,22.271,5.079,-7.424,28.913,-14.066,-12.503,1.172,11.722,22.271
'[11:34:14.320 07/11/2076]',-4.298,21.880,12.894,-14.066,-6.252,8.205,9.768,3.126,-6.642,17.582,16.410,1.954,-4.689,17.973,15.629,0.391,-3.907,18.364,-12.112,-14.457,0.000,10.549,15.629
'[11:34:14.324 07/11/2076]',12.894,17.973,8.987,-17.973,12.894,7.424,3.516,-1.954,-10.549,7.033,10.940,-5.079,-15.629,12.112,7.424,-1.172,-1.172,14.066,-8.205,-15.238,-3.907,8.596,7.424
'[11:34:14.328 07/11/2076]',22.271,14.066,7.814,-19.536,24.615,5.861,-1.954,-2.735,-9.377,-4.689,7.424,-6.252,-17.973,4.689,1.954,-1.954,-2.735,6.252,-7.033,-12.112,-4.689,4.689,1.954
'[11:34:14.332 07/11/2076]',17.192,12.112,5.861,-24.615,29.695,-3.907,-7.424,-7.033,21.490,-14.847,3.907,-12.503,7.814,-0.391,-1.563,-7.424,-6.252,-5.861,-5.079,-10.549,-2.735,1.563,-1.563
'[11:34:14.336 07/11/2076]',9.768,6.252,1.172,-24.615,30.085,-13.284,-13.675,-9.768,37.118,-18.755,-5.079,-21.099,18.755,-7.033,-4.298,-14.847,-4.298,-16.801,-0.391,-10.159,1.563,1.172,-4.298
'[11:34:14.340 07/11/2076]',-1.563,5.861,0.391,-23.834,23.834,-15.238,-17.192,-10.549,47.277,-19.536,-12.894,-26.569,27.350,-8.987,-15.629,-14.066,-6.642,-23.053,0.391,-11.331,9.377,3.126,-15.629
'[11:34:14.344 07/11/2076]',-22.271,5.470,-2.344,-19.536,2.344,-16.020,-17.973,-7.424,39.463,-16.020,-15.629,-27.741,22.271,-7.814,-14.066,-19.145,-8.596,-30.085,3.126,-12.503,14.457,2.735,-14.066
'[11:34:14.348 07/11/2076]',-23.053,3.126,-4.298,-14.847,-1.954,-16.801,-14.847,-5.079,17.582,-8.987,-16.410,-26.960,5.470,-4.689,-15.238,-20.317,-5.470,-26.569,5.079,-13.675,21.490,2.344,-15.238
'[11:34:14.352 07/11/2076]',-5.861,0.781,-8.205,-2.344,10.159,-21.880,-11.331,7.033,-8.205,-1.563,-20.317,-19.145,-11.722,0.391,-23.053,-14.457,-3.516,-18.755,8.987,-18.755,29.304,6.642,-23.053
'[11:34:14.355 07/11/2076]',3.126,2.344,-9.377,3.907,17.192,-22.271,-6.252,12.112,-28.523,7.033,-14.066,-16.801,-23.443,5.079,-20.317,-13.675,0.391,-10.940,10.159,-21.099,32.430,10.159,-20.317
'[11:34:14.359 07/11/2076]',11.722,8.205,-3.126,0.781,19.536,-11.722,1.954,6.642,-24.225,16.801,-1.563,-23.053,-14.457,10.940,-11.722,-16.801,13.675,-11.722,3.907,-18.755,28.132,10.940,-11.722
'[11:34:14.363 07/11/2076]',9.768,12.112,0.000,1.954,9.768,5.470,2.344,5.079,-13.675,18.364,7.033,-21.880,-0.391,7.814,-8.205,-8.987,23.443,-1.563,0.781,-12.503,15.238,13.284,-8.205
'[11:34:14.367 07/11/2076]',-21.880,15.629,3.907,1.954,-29.695,19.145,5.861,3.516,4.689,15.238,16.801,-19.145,14.066,13.284,-3.907,-5.861,28.523,-2.344,-3.126,-10.549,10.159,17.582,-3.907
'[11:34:14.371 07/11/2076]',-16.801,19.145,3.907,1.563,-28.523,23.834,8.596,2.344,20.317,15.629,19.927,-19.536,23.443,19.145,-1.172,-3.516,35.946,-9.768,-3.126,-8.987,2.344,20.317,-1.172
'[11:34:14.375 07/11/2076]',-3.907,17.192,1.172,5.861,-12.112,19.536,7.033,5.079,24.615,14.066,15.629,-13.675,27.350,19.145,-3.126,-1.172,37.900,-7.424,-0.391,-8.987,6.642,19.927,-3.126
'[11:34:14.379 07/11/2076]',8.205,14.457,-2.735,8.596,1.563,13.284,3.907,9.377,21.880,18.364,11.722,-7.424,24.615,25.397,-5.079,0.391,33.211,-3.907,3.516,-8.987,7.814,22.271,-5.079
'[11:34:14.383 07/11/2076]',35.165,21.490,-8.205,6.642,28.523,12.112,2.344,9.768,19.145,19.927,12.503,-8.205,26.178,22.271,-1.954,-1.954,24.225,-2.344,8.987,-11.331,6.252,20.317,-1.954
'[11:34:14.387 07/11/2076]',44.542,19.536,-9.768,4.298,35.165,15.238,0.391,6.252,5.079,21.099,11.331,-10.940,17.973,20.317,-5.861,-5.079,21.880,-2.735,10.549,-12.894,7.814,23.053,-5.861
'[11:34:14.391 07/11/2076]',35.946,21.099,-10.549,3.907,26.960,14.457,2.735,4.689,-3.907,23.053,8.987,-12.503,11.722,22.662,-14.066,-5.079,19.536,2.344,11.331,-16.410,9.768,28.523,-14.066
'[11:34:14.395 07/11/2076]',29.304,25.788,-10.159,4.298,22.662,14.457,6.252,3.516,11.331,17.973,11.722,-9.768,26.960,18.755,-10.549,-2.344,12.112,5.861,10.940,-16.410,11.331,21.880,-10.549
'[11:34:14.398 07/11/2076]',20.708,19.145,-3.907,4.689,18.755,11.331,7.424,2.344,17.582,15.238,14.457,-4.689,32.039,17.192,-7.814,1.172,8.596,7.814,4.689,-10.159,10.159,16.801,-7.814
'[11:34:14.402 07/11/2076]',-7.814,13.675,-1.954,7.424,-8.205,3.516,7.814,6.642,8.987,19.145,7.814,0.391,27.741,19.145,-12.503,3.126,7.814,10.159,2.735,-8.596,13.675,17.192,-12.503
'[11:34:14.406 07/11/2076]',-12.894,14.457,-5.861,5.079,-15.629,-1.172,6.252,10.940,16.020,19.145,2.344,-1.563,38.291,21.880,-14.847,-8.205,3.516,8.987,6.642,-7.814,16.801,17.582,-14.847
'[11:34:14.410 07/11/2076]',0.391,10.549,-7.424,-1.563,-10.159,-5.861,3.907,12.503,5.861,16.410,0.391,-4.298,30.476,25.788,-17.192,-19.927,2.735,0.391,8.205,-8.205,18.755,16.410,-17.192
'[11:34:14.414 07/11/2076]',-0.391,7.033,-10.159,-3.516,-18.364,-10.549,3.126,17.582,-10.549,12.894,-5.470,-2.735,19.927,29.695,-26.569,-28.132,3.126,-1.954,10.940,-10.549,27.350,17.973,-26.569
'[11:34:14.418 07/11/2076]',35.556,9.377,-16.020,-7.033,12.503,-7.814,0.781,14.847,0.781,8.205,-8.987,-10.549,32.039,31.648,-37.900,-36.337,0.781,-5.861,16.801,-10.159,29.304,18.364,-37.900
'[11:34:14.422 07/11/2076]',56.654,8.596,-19.927,-9.768,33.993,-7.033,-4.689,12.503,17.582,3.126,-11.331,-13.284,46.496,28.132,-45.324,-33.211,-3.126,-8.987,20.708,-5.861,19.927,18.364,-45.324
'[11:34:14.426 07/11/2076]',48.840,3.907,-20.317,-8.987,29.304,-7.424,-12.503,13.284,8.596,-3.516,-14.457,-10.940,41.416,17.582,-51.966,-28.132,-10.940,-10.940,21.099,3.907,13.284,12.894,-51.966
'[11:34:14.430 07/11/2076]',48.840,2.344,-21.490,-12.894,29.695,-10.159,-18.755,14.457,1.954,-10.940,-21.099,-6.642,37.900,8.205,-57.045,-26.569,-22.662,-9.768,22.271,10.940,9.377,6.252,-57.045
'[11:34:14.434 07/11/2076]',25.788,-1.172,-23.834,-12.894,11.331,-20.708,-23.443,18.755,3.126,-28.913,-24.615,-1.563,40.244,-3.126,-64.860,-23.053,-38.291,-15.629,24.615,15.238,11.722,-3.126,-64.860
'[11:34:14.438 07/11/2076]',10.940,-7.814,-22.271,-14.847,-2.735,-26.960,-25.006,19.145,-8.596,-48.059,-26.178,1.563,28.523,-8.205,-77.753,-24.225,-47.668,-21.880,23.053,17.973,21.490,-8.987,-77.753
'[11:34:14.441 07/11/2076]',10.159,-13.675,-23.834,-16.020,-6.252,-32.039,-25.006,18.755,-10.549,-59.389,-28.132,4.298,27.741,-12.503,-88.303,-19.536,-49.231,-19.145,24.615,19.927,21.099,-10.940,-88.303
'[11:34:14.445 07/11/2076]',9.768,-17.973,-25.006,-11.722,-12.503,-27.350,-27.350,20.317,-5.470,-63.297,-23.443,8.596,35.946,-18.755,-91.038,-9.377,-50.012,-12.503,25.788,23.443,15.238,-16.020,-91.038
'[11:34:14.449 07/11/2076]',26.960,-19.145,-22.271,-8.205,5.079,-21.880,-29.695,21.490,8.596,-59.780,-14.066,13.675,44.933,-11.722,-83.223,-1.563,-51.575,-10.549,23.053,23.443,6.252,-12.894,-83.223
'[11:34:14.453 07/11/2076]',48.840,-22.271,-17.973,-7.424,28.132,-23.443,-26.178,21.099,6.642,-53.919,-8.987,15.629,41.807,-6.252,-78.535,1.954,-49.231,-8.596,18.755,20.317,5.470,-6.642,-78.535
'[11:34:14.457 07/11/2076]',37.900,-25.006,-13.675,-2.735,23.443,-28.523,-19.536,19.145,5.079,-48.840,-5.861,14.066,39.463,-7.424,-70.330,3.126,-48.449,-5.470,14.457,16.801,13.675,-7.814,-70.330
'[11:34:14.461 07/11/2076]',20.317,-28.132,-9.377,-3.126,8.596,-31.648,-13.675,14.847,-0.391,-49.621,1.172,12.112,31.258,-9.768,-60.952,3.516,-50.012,-3.126,10.159,22.662,17.192,-14.847,-60.952
'[11:34:14.465 07/11/2076]',10.159,-29.695,-5.470,-1.563,-0.391,-33.602,-6.642,12.894,-26.178,-48.840,7.033,14.847,5.470,-10.940,-55.482,8.596,-48.449,1.172,6.252,25.397,16.410,-15.629,-55.482
'[11:34:14.469 07/11/2076]',-5.470,-26.960,-5.861,3.126,-13.675,-35.556,-1.563,15.238,-21.880,-40.244,3.907,15.629,5.470,-7.424,-57.045,16.410,-42.979,3.907,6.642,23.834,12.894,-9.377,-57.045
'[11:34:14.473 07/11/2076]',-13.284,-21.490,-3.907,5.861,-20.708,-30.476,1.172,15.629,-6.252,-31.648,3.907,11.331,13.675,0.391,-55.873,17.973,-35.556,4.298,4.689,19.536,12.112,-2.735,-55.873
'[11:34:14.477 07/11/2076]',-7.814,-21.099,1.172,8.205,-13.284,-30.867,4.689,19.145,-3.516,-24.225,2.344,15.238,10.549,3.907,-43.370,17.582,-32.039,-1.172,-0.391,12.112,14.066,0.781,-43.370
'[11:34:14.480 07/11/2076]',-6.252,-20.317,10.159,5.079,-9.377,-29.304,8.987,17.192,5.861,-20.317,5.079,11.331,17.192,1.563,-28.523,10.940,-28.132,0.781,-9.377,3.907,26.178,-0.391,-28.523
'[11:34:14.484 07/11/2076]',-6.252,-19.927,17.192,-0.391,-5.079,-26.569,10.159,10.159,19.145,-21.099,10.549,4.689,29.695,-7.814,-20.317,12.503,-30.476,5.861,-16.410,5.470,28.132,-10.549,-20.317
'[11:34:14.488 07/11/2076]',8.205,-21.880,21.880,-1.172,15.629,-26.569,8.205,7.424,7.814,-25.788,18.755,3.907,15.629,-14.066,-14.457,18.364,-32.039,6.642,-21.099,7.814,21.490,-12.503,-14.457
'[11:34:14.492 07/11/2076]',10.940,-16.410,24.615,-7.814,22.662,-27.741,10.159,4.689,5.079,-28.523,24.615,2.344,10.940,-19.927,-11.722,24.615,-30.085,9.768,-23.834,9.768,7.814,-15.629,-11.722
'[11:34:14.496 07/11/2076]',8.596,-10.549,23.834,-10.940,29.304,-35.165,10.159,4.298,4.689,-25.397,30.476,1.563,14.847,-23.834,-12.503,32.821,-29.304,16.410,-23.053,11.722,-3.126,-20.317,-12.503
'[11:34:14.500 07/11/2076]',-1.954,-7.814,20.708,-12.503,19.927,-40.244,13.284,2.735,-10.940,-28.523,33.602,1.954,-0.391,-33.993,-6.252,35.556,-31.648,13.675,-19.927,9.768,-11.722,-26.178,-6.252
'[11:34:14.504 07/11/2076]',-31.648,-7.814,21.099,-18.364,-13.284,-41.416,16.410,0.391,-23.834,-27.741,35.556,-2.735,-13.675,-53.919,15.629,31.258,-29.695,11.722,-20.317,8.596,-20.317,-40.244,15.629
'[11:34:14.508 07/11/2076]',-17.973,-8.205,19.145,-19.145,-3.907,-39.463,18.364,-1.954,-3.126,-25.788,32.821,-6.252,4.298,-67.595,31.258,27.741,-27.350,14.847,-18.364,6.252,-20.317,-49.231,31.258
'[11:34:14.512 07/11/2076]',-5.861,-8.987,15.629,-14.457,3.126,-34.774,15.629,0.391,0.781,-30.476,28.913,0.781,5.079,-77.753,42.198,30.476,-30.867,17.973,-14.847,8.205,-25.397,-57.045,42.198
'[11:34:14.516 07/11/2076]',-9.377,-8.987,14.847,-13.675,-7.814,-29.304,13.675,3.516,-2.735,-39.072,26.960,7.424,-3.907,-77.753,46.496,28.132,-34.383,15.629,-14.066,10.159,-30.476,-57.045,46.496
'[11:34:14.520 07/11/2076]',0.000,-5.470,11.331,-16.410,2.735,-33.602,12.112,5.861,5.470,-46.105,18.364,7.033,2.344,-78.926,39.072,21.880,-30.867,3.126,-10.549,4.689,-28.913,-55.873,39.072
'[11:34:14.523 07/11/2076]',0.781,-1.563,5.861,-23.834,11.722,-44.933,6.642,3.907,2.344,-55.482,11.722,7.814,-1.563,-77.753,26.960,17.582,-31.258,-5.079,-5.079,4.298,-34.774,-53.919,26.960
'[11:34:14.527 07/11/2076]',-12.503,-1.172,0.781,-31.648,0.391,-54.310,3.126,3.516,-22.271,-61.734,7.424,12.503,-22.271,-80.098,25.788,11.331,-35.946,-19.927,0.000,5.861,-41.807,-57.436,25.788
'[11:34:14.531 07/11/2076]',-3.516,-1.563,-2.344,-41.026,8.596,-59.780,1.563,-1.954,-28.523,-66.032,1.563,13.675,-26.960,-81.661,22.662,5.079,-37.118,-31.258,3.126,2.735,-42.589,-58.999,22.662
'[11:34:14.535 07/11/2076]',-0.781,0.781,-8.596,-46.496,14.457,-61.734,-1.954,-7.814,-19.145,-68.767,-10.940,13.675,-21.490,-73.846,7.033,1.172,-39.853,-35.946,9.377,-1.954,-38.681,-54.310,7.033
'[11:34:14.539 07/11/2076]',-10.159,-4.298,-16.020,-47.277,-2.344,-62.906,-4.298,-9.768,-13.675,-76.190,-25.397,14.066,-23.443,-61.734,-11.722,-4.298,-43.761,-43.370,16.801,-5.861,-30.476,-47.668,-11.722
'[11:34:14.543 07/11/2076]',-12.894,-5.470,-19.536,-58.999,-11.331,-57.827,-6.252,-22.662,-7.814,-80.879,-33.602,1.563,-23.443,-52.357,-21.880,-23.053,-42.198,-55.482,20.317,-8.987,-23.053,-45.714,-21.880
'[11:34:14.547 07/11/2076]',-16.410,-3.516,-27.350,-70.720,-11.722,-56.654,-17.973,-32.821,3.516,-89.084,-41.026,-6.252,-14.457,-52.357,-33.211,-32.039,-42.589,-58.608,28.132,-7.424,-28.523,-42.979,-33.211
'[11:34:14.551 07/11/2076]',-15.238,-4.689,-40.244,-71.893,-7.033,-59.780,-29.695,-37.118,-3.907,-93.382,-45.324,-5.079,-21.490,-49.621,-42.198,-33.602,-54.310,-61.734,41.026,-2.735,-41.026,-38.681,-42.198
'[11:34:14.555 07/11/2076]',-6.642,-3.907,-50.012,-75.800,0.391,-57.436,-37.118,-43.761,-21.490,-92.210,-48.449,-10.549,-33.211,-47.668,-51.184,-41.416,-60.562,-69.939,50.794,-0.781,-45.324,-32.039,-51.184
'[11:34:14.559 07/11/2076]',-8.596,-1.563,-57.436,-76.581,-2.344,-53.138,-42.979,-46.886,-28.523,-85.568,-56.264,-16.410,-33.211,-47.668,-59.389,-46.105,-61.734,-72.674,58.217,-1.172,-44.933,-26.569,-59.389
'[11:34:14.563 07/11/2076]',-12.112,-6.252,-57.436,-73.455,-14.457,-48.059,-43.761,-44.542,-28.913,-83.223,-62.125,-18.364,-39.072,-36.728,-68.767,-48.449,-63.297,-66.422,58.217,0.781,-39.463,-21.099,-68.767
'[11:34:14.566 07/11/2076]',-8.987,-8.596,-58.217,-72.674,-21.880,-42.198,-41.807,-43.370,-23.443,-82.833,-64.860,-25.788,-37.900,-27.741,-73.846,-57.436,-66.032,-67.204,58.999,1.954,-29.695,-17.582,-73.846
'[11:34:14.570 07/11/2076]',-5.861,-10.159,-54.310,-75.800,-16.410,-43.370,-40.635,-46.886,-17.973,-78.535,-67.985,-38.681,-35.946,-23.443,-76.581,-67.595,-62.906,-67.985,55.092,2.735,-22.271,-11.722,-76.581
'[11:34:14.574 07/11/2076]',-15.629,-13.675,-50.794,-74.237,-21.490,-48.449,-38.681,-46.496,-10.549,-73.846,-68.767,-46.496,-28.913,-18.755,-78.535,-73.455,-60.562,-57.436,51.575,3.516,-13.675,-5.861,-78.535
'[11:34:14.578 07/11/2076]',-12.112,-16.020,-48.059,-69.548,-17.973,-48.840,-34.774,-44.933,-10.549,-67.985,-59.780,-47.277,-23.053,-13.675,-73.065,-76.581,-62.906,-47.668,48.840,4.689,-7.424,-2.735,-73.065
'[11:34:14.582 07/11/2076]',-0.781,-12.503,-44.542,-66.032,0.000,-46.105,-32.430,-46.496,-15.238,-62.515,-47.277,-48.840,-23.834,-9.768,-64.469,-76.190,-62.125,-42.198,45.324,5.470,-6.642,2.344,-64.469
'[11:34:14.586 07/11/2076]',5.470,-15.629,-42.198,-58.217,12.503,-48.059,-30.085,-47.277,-9.377,-60.562,-37.118,-53.919,-17.192,-10.159,-59.389,-73.846,-58.608,-38.681,42.979,4.298,-1.563,3.907,-59.389
'[11:34:14.590 07/11/2076]',11.722,-14.847,-42.198,-44.542,23.053,-45.324,-26.960,-41.807,12.894,-66.813,-23.053,-51.184,0.391,-6.642,-56.654,-66.032,-58.217,-33.211,42.979,5.079,-3.516,11.722,-56.654
'[11:34:14.594 07/11/2076]',19.927,-8.987,-39.853,-33.993,38.681,-42.979,-22.662,-36.728,11.722,-67.595,-14.847,-45.324,-5.861,-3.516,-46.496,-58.999,-58.608,-30.085,40.635,2.344,-3.126,14.066,-46.496
'[11:34:14.598 07/11/2076]',10.940,-5.470,-36.728,-25.788,30.867,-37.509,-15.238,-35.946,2.344,-62.515,-8.205,-40.635,-12.112,-3.907,-41.026,-51.966,-53.138,-19.927,37.509,-1.172,4.298,13.675,-41.026
'[11:34:14.602 07/11/2076]',-10.549,-7.814,-33.993,-8.596,-0.781,-28.132,-6.642,-25.788,-11.331,-54.310,-7.033,-28.523,-22.662,3.907,-41.416,-41.807,-47.277,-4.689,34.774,-7.814,17.973,19.927,-41.416
'[11:34:14.605 07/11/2076]',-25.788,-6.252,-25.397,-3.126,-24.615,-16.801,3.907,-24.615,-25.788,-46.105,0.000,-23.834,-37.900,16.020,-38.291,-36.728,-37.118,10.159,26.178,-12.894,26.569,27.350,-38.291
'[11:34:14.609 07/11/2076]',-20.317,-6.642,-20.317,-4.298,-23.443,-7.814,8.987,-31.258,-20.708,-44.933,7.424,-25.397,-31.258,19.927,-38.291,-33.993,-26.178,13.675,21.099,-8.205,31.648,26.178,-38.291
'[11:34:14.613 07/11/2076]',-8.987,-9.377,-20.708,1.172,-14.066,-4.689,8.596,-29.304,0.391,-49.231,15.238,-19.145,-5.861,16.801,-44.933,-18.755,-23.834,17.582,21.490,1.172,26.178,28.132,-44.933
'[11:34:14.617 07/11/2076]',-5.861,-10.940,-19.536,3.126,-8.987,-4.689,5.861,-26.569,11.722,-56.264,21.490,-14.066,5.079,16.801,-49.231,-9.768,-25.788,14.066,20.317,7.814,23.053,28.132,-49.231
'[11:34:14.621 07/11/2076]',-5.470,-6.642,-18.364,5.079,-2.735,-5.861,4.298,-22.662,23.053,-59.389,22.662,-10.549,18.364,14.847,-51.575,-5.470,-23.443,3.126,19.145,8.596,24.225,25.788,-51.575
'[11:34:14.625 07/11/2076]',1.172,-2.735,-19.536,8.596,4.689,-4.298,4.298,-18.755,15.238,-54.701,21.490,-6.252,16.801,8.596,-51.575,1.172,-20.317,5.079,20.317,6.642,22.662,23.053,-51.575
'[11:34:14.629 07/11/2076]',-6.642,-2.735,-18.755,11.331,-4.689,-1.563,1.563,-13.675,-5.079,-49.231,24.615,-0.391,1.172,9.377,-47.668,5.079,-15.629,13.284,19.536,5.470,25.006,17.973,-47.668
'[11:34:14.633 07/11/2076]',-12.894,-1.563,-19.536,10.940,-11.331,-0.781,1.172,-13.675,-7.814,-45.714,27.741,3.126,3.516,13.284,-48.449,7.814,-16.410,19.536,20.317,2.735,28.132,17.582,-48.449
'[11:34:14.637 07/11/2076]',1.563,-2.344,-25.006,8.205,-0.391,0.391,0.781,-18.755,-7.033,-38.291,25.788,1.954,12.112,17.192,-58.608,10.159,-11.722,17.973,25.788,1.954,29.304,20.708,-58.608
'[11:34:14.641 07/11/2076]',-8.596,-8.205,-31.648,9.377,-16.410,-3.907,-1.954,-17.192,-25.006,-30.867,23.443,3.126,5.861,22.271,-69.548,10.940,-8.205,16.020,32.430,1.172,32.430,24.225,-69.548
'[11:34:14.645 07/11/2076]',-16.410,-7.424,-39.072,9.377,-22.271,-9.768,-4.298,-16.801,-30.476,-23.443,22.662,5.470,8.205,24.225,-69.548,10.159,-6.642,14.066,39.853,3.516,31.258,19.145,-69.548
'[11:34:14.648 07/11/2076]',0.781,-5.470,-45.714,6.252,-5.079,-9.768,-7.424,-20.317,-42.198,-16.801,24.615,3.516,4.689,24.225,-67.985,6.252,-0.391,8.205,46.496,7.814,24.615,16.020,-67.985
'[11:34:14.652 07/11/2076]',0.000,-7.424,-50.403,9.377,-5.470,-12.503,-10.549,-18.755,-59.389,-13.284,22.271,1.954,-6.252,23.053,-73.846,7.814,4.298,5.079,51.184,8.596,24.225,14.066,-73.846
'[11:34:14.656 07/11/2076]',-15.238,-9.768,-51.575,11.331,-16.020,-20.317,-10.159,-17.973,-35.946,-14.066,20.708,-1.172,11.331,29.304,-78.926,5.470,5.079,9.377,52.357,7.814,29.695,16.020,-78.926
'[11:34:14.660 07/11/2076]',-5.470,-14.066,-48.059,10.549,-13.675,-17.192,-7.033,-18.755,-13.284,-14.457,17.973,-5.470,26.178,35.556,-75.800,-2.344,6.642,2.735,48.840,7.033,34.774,18.755,-75.800
'[11:34:14.664 07/11/2076]',-2.344,-22.271,-44.542,14.066,-15.629,-19.927,-4.689,-13.284,0.781,-16.801,11.722,0.000,35.165,39.463,-74.237,-4.689,5.861,0.391,45.324,6.252,41.807,21.880,-74.237
'[11:34:14.668 07/11/2076]',-3.516,-24.225,-43.370,14.847,-20.708,-21.099,-1.563,-12.112,13.675,-13.675,7.814,-3.126,46.496,41.416,-72.674,-10.159,7.033,1.563,44.151,4.298,46.496,24.225,-72.674
'[11:34:14.672 07/11/2076]',20.708,-23.053,-44.151,9.768,0.000,-14.457,-2.344,-18.755,14.066,-7.424,8.205,-9.768,46.886,39.853,-64.860,-16.801,10.549,0.391,44.933,6.642,38.291,24.225,-64.860
'[11:34:14.676 07/11/2076]',24.225,-21.880,-47.277,9.377,0.391,-7.814,-7.424,-20.317,2.344,-6.252,8.987,-8.205,36.728,30.476,-58.999,-11.722,13.675,-0.781,48.059,14.457,23.443,16.410,-58.999
'[11:34:14.680 07/11/2076]',3.516,-23.053,-47.277,7.033,-21.099,-4.298,-8.596,-23.834,2.735,-5.861,7.814,-8.987,36.728,23.443,-57.045,-8.205,15.629,1.563,48.059,17.973,21.490,8.205,-57.045
'[11:34:14.684 07/11/2076]',-9.768,-23.834,-49.231,7.424,-42.198,-1.563,-8.205,-23.834,0.000,-2.735,6.252,-9.377,31.648,20.708,-53.529,-5.861,12.503,-3.516,50.012,21.099,17.582,2.735,-53.529
'[11:34:14.688 07/11/2076]',-25.788,-30.085,-50.403,8.987,-61.734,-3.126,-8.987,-22.271,-9.768,-4.689,3.516,-8.205,18.755,17.582,-51.184,-5.079,8.596,-13.284,51.184,24.615,14.457,1.954,-51.184
'[11:34:14.691 07/11/2076]',-13.284,-32.430,-48.840,9.377,-48.059,-7.814,-8.596,-19.927,-14.847,-1.563,-1.954,-7.814,12.503,16.801,-52.357,-5.079,11.331,-19.145,49.621,24.225,15.238,3.907,-52.357
'[11:34:14.695 07/11/2076]',5.861,-33.602,-44.542,13.284,-28.523,-7.424,-7.424,-13.675,-10.940,3.907,-2.344,-2.735,18.364,17.192,-46.886,-2.344,12.503,-17.192,45.324,23.053,13.284,5.861,-46.886
'[11:34:14.699 07/11/2076]',9.377,-30.085,-39.463,14.457,-13.675,-10.549,-9.768,-7.814,-9.377,3.907,-2.735,-0.391,12.894,17.582,-37.900,-1.954,11.722,-21.490,40.244,20.317,8.596,7.424,-37.900
'[11:34:14.703 07/11/2076]',8.205,-25.788,-33.211,11.722,-6.252,-13.675,-11.331,-6.252,3.126,4.298,-10.549,-3.907,17.192,16.410,-35.556,-5.079,12.894,-30.085,33.993,15.629,10.940,10.549,-35.556
'[11:34:14.707 07/11/2076]',-1.172,-22.271,-25.788,8.987,-9.377,-12.503,-8.987,-7.424,31.258,7.814,-14.066,-11.722,40.635,17.973,-34.383,-10.549,14.066,-28.913,26.569,10.549,20.708,16.801,-34.383
'[11:34:14.711 07/11/2076]',-13.284,-17.582,-19.145,7.814,-18.755,-7.033,-7.424,-7.424,26.569,10.549,-10.159,-13.675,33.993,17.582,-24.615,-14.066,10.549,-26.569,19.927,12.894,25.788,14.847,-24.615
'[11:34:14.715 07/11/2076]',-2.735,-9.377,-13.284,6.252,-5.079,-1.954,-6.642,-5.470,16.801,13.284,-7.814,-8.596,29.695,13.675,-17.192,-12.503,7.033,-22.271,14.066,13.675,28.913,12.503,-17.192
'[11:34:14.719 07/11/2076]',-3.516,-7.424,-8.205,11.331,-8.596,2.735,-2.735,0.000,13.284,14.847,-11.722,-2.735,30.867,15.629,-24.615,-8.987,7.033,-16.801,8.987,10.549,42.589,13.284,-24.615
'[11:34:14.723 07/11/2076]',-12.894,-6.642,-4.689,14.847,-16.410,5.079,-0.391,2.344,17.973,10.549,-15.629,-0.391,28.913,13.675,-22.662,-8.987,6.642,-14.847,5.470,3.516,52.357,12.894,-22.662
'[11:34:14.727 07/11/2076]',-17.582,-1.172,-4.689,14.847,-18.364,5.079,-0.391,3.907,33.211,4.298,-25.788,5.470,33.993,10.159,-18.755,-7.814,4.298,-24.615,5.470,-1.563,55.092,5.861,-18.755
'[11:34:14.730 07/11/2076]',-19.145,-3.516,-4.689,7.424,-23.053,6.252,0.000,-3.516,39.853,0.391,-31.648,0.000,35.556,7.033,-22.271,-12.112,5.470,-28.913,5.470,-5.861,57.436,5.079,-22.271
'[11:34:14.734 07/11/2076]',-8.596,-1.954,-4.298,-2.344,-16.801,19.145,-0.781,-19.927,44.933,1.954,-27.741,-10.940,35.165,7.033,-18.364,-16.020,4.298,-25.006,5.079,-4.689,45.714,4.689,-18.364
'[11:34:14.738 07/11/2076]',15.238,4.689,-8.205,-7.424,12.503,23.834,-4.298,-28.132,29.304,6.252,-23.443,-14.457,13.675,7.033,-13.284,-9.768,1.563,-23.443,8.987,-3.126,21.099,4.689,-13.284
'[11:34:14.742 07/11/2076]',19.536,5.861,-7.814,-14.066,11.722,27.741,-2.735,-33.602,21.490,11.331,-21.099,-18.755,5.861,10.549,-13.675,-9.768,3.907,-16.801,8.596,0.391,2.735,8.596,-13.675
'[11:34:14.746 07/11/2076]',1.954,7.424,-4.298,-14.847,-7.424,31.648,-0.781,-32.430,31.648,13.284,-16.410,-18.364,7.424,14.457,-10.159,-3.516,7.424,-5.079,5.079,1.563,-11.722,10.549,-10.159
'[11:34:14.750 07/11/2076]',-5.470,14.457,-1.563,-14.066,-11.722,32.430,0.781,-27.741,42.589,13.284,-13.675,-16.410,8.205,19.927,-4.689,0.391,11.331,-7.814,2.344,-1.172,-23.053,10.549,-4.689
'[11:34:14.754 07/11/2076]',-2.344,15.629,4.689,-14.847,-4.689,28.132,4.689,-25.006,41.807,9.377,-12.112,-17.973,7.814,16.801,-0.781,-3.516,22.271,-15.629,-3.907,-3.907,-18.755,7.033,-0.781
'[11:34:14.758 07/11/2076]',3.516,16.801,10.159,-17.973,1.954,32.039,5.079,-27.350,38.681,13.284,-10.549,-21.490,11.331,13.675,1.563,-7.033,29.304,-12.112,-9.377,-8.596,-15.629,7.814,1.563
'[11:34:14.762 07/11/2076]',8.205,21.490,12.894,-14.847,5.470,39.072,8.205,-24.615,39.463,17.582,-5.470,-18.755,14.457,15.629,12.894,-10.940,28.523,-1.563,-12.112,-8.987,-19.536,8.987,12.894
'[11:34:14.766 07/11/2076]',7.814,17.192,14.066,-9.768,4.689,35.556,10.549,-20.317,28.523,14.847,-3.907,-14.066,6.642,14.457,16.020,-10.940,21.099,4.689,-13.284,-8.596,-16.801,9.768,16.020
'[11:34:14.770 07/11/2076]',7.424,10.159,8.205,-7.814,-0.391,29.304,10.159,-20.708,30.085,10.940,-5.861,-16.410,13.675,9.768,5.079,-10.940,14.847,11.331,-7.424,-2.344,-12.112,7.424,5.079
'[11:34:14.773 07/11/2076]',1.563,6.252,-0.781,-5.861,-11.722,27.350,7.033,-21.490,39.853,7.033,-8.205,-18.755,26.569,5.470,-5.470,-7.814,13.675,12.894,1.563,3.907,-13.675,2.735,-5.470
'[11:34:14.777 07/11/2076]',8.987,-1.563,-7.033,-1.563,-3.516,17.973,1.172,-18.364,24.615,7.033,-9.768,-16.020,17.582,1.172,-6.642,-7.424,11.331,6.642,7.814,11.331,-11.331,-6.252,-6.642
'[11:34:14.781 07/11/2076]',23.053,-11.331,-11.722,-1.563,9.768,10.549,-3.907,-18.755,11.722,8.987,-8.987,-18.364,12.503,0.000,-7.424,-12.112,10.549,7.814,12.503,17.192,-7.424,-11.722,-7.424
'[11:34:14.785 07/11/2076]',17.973,-15.238,-14.066,2.344,7.033,7.033,-7.424,-15.629,18.364,20.317,-9.768,-21.490,8.987,16.410,-1.954,-17.582,7.814,13.675,14.847,12.894,-16.410,3.907,-1.954
'[11:34:14.789 07/11/2076]',5.861,-14.066,-9.768,8.987,4.298,3.907,-4.689,-12.112,28.523,34.774,-12.503,-25.397,-1.954,44.542,7.424,-25.006,7.033,17.582,10.549,-2.344,-22.662,30.476,7.424
'[11:34:14.793 07/11/2076]',-8.987,-19.536,-8.987,3.126,-13.284,0.000,-3.126,-16.801,25.788,36.337,-9.768,-33.993,-8.205,47.277,12.112,-33.211,3.126,14.066,9.768,-4.298,-24.225,32.039,12.112
'[11:34:14.797 07/11/2076]',-19.536,-21.880,-10.159,-6.642,-28.913,3.126,-3.907,-30.085,21.880,36.337,-9.377,-43.370,-7.814,37.509,9.768,-33.211,1.954,16.020,10.940,-0.781,-31.648,27.741,9.768
'[11:34:14.801 07/11/2076]',-16.801,-25.397,-12.503,-9.768,-26.960,5.861,-9.768,-34.383,15.238,31.648,-8.987,-40.244,-11.722,25.788,4.689,-21.099,1.563,7.033,13.284,3.907,-42.979,23.053,4.689
'[11:34:14.805 07/11/2076]',-12.112,-28.523,-14.066,-14.847,-25.788,4.689,-11.722,-38.291,0.391,26.178,-8.596,-40.635,-16.410,13.284,-0.781,-17.973,0.781,-2.344,14.847,8.596,-41.807,13.675,-0.781
'[11:34:14.809 07/11/2076]',-8.596,-28.913,-16.020,-15.629,-21.099,2.735,-13.284,-38.291,0.391,22.662,-12.112,-39.853,-14.457,6.642,-5.079,-16.410,3.907,-2.344,16.801,9.377,-42.589,10.940,-5.079
'[11:34:14.813 07/11/2076]',-21.880,-24.615,-16.801,-10.940,-32.821,5.470,-13.675,-33.602,-3.126,19.536,-12.112,-31.648,-17.582,5.079,-2.735,-12.503,6.642,1.172,17.582,8.987,-43.761,11.331,-2.735
'[11:34:14.816 07/11/2076]',-33.993,-16.410,-19.145,-8.596,-56.654,19.536,-12.112,-30.085,-11.722,14.457,-8.987,-25.397,-25.397,3.907,0.391,-9.768,4.689,1.563,19.927,3.907,-42.198,8.596,0.391
'[11:34:14.820 07/11/2076]',-38.681,-14.847,-21.880,-12.503,-66.422,25.006,-11.722,-35.165,-1.172,10.159,-8.596,-29.304,-10.940,-2.344,-2.735,-11.722,7.033,0.781,22.662,2.344,-38.681,4.298,-2.735
'[11:34:14.824 07/11/2076]',-39.072,-12.894,-21.880,-11.722,-70.720,28.913,-10.159,-35.556,-7.033,9.377,-10.159,-29.304,-12.894,-7.814,-7.814,-6.642,11.722,3.907,22.662,2.344,-37.118,3.907,-7.814
'[11:34:14.828 07/11/2076]',-30.476,-10.549,-19.536,-8.205,-66.422,32.430,-6.642,-29.695,-18.364,10.940,-7.033,-23.443,-25.788,-5.470,-3.126,-2.735,9.377,7.033,20.317,1.954,-37.900,3.126,-3.126
'[11:34:14.832 07/11/2076]',-29.304,-8.987,-12.503,-8.596,-60.562,28.132,-3.907,-24.225,-18.364,14.066,-5.470,-21.490,-26.960,-1.563,3.516,-6.252,11.722,7.033,13.284,1.563,-36.337,5.079,3.516
'[11:34:14.836 07/11/2076]',-28.132,-5.079,-10.159,-5.079,-53.919,25.788,0.000,-21.490,-23.443,20.317,-5.079,-22.662,-33.993,0.391,8.205,-6.252,21.099,3.126,10.940,3.516,-39.463,9.768,8.205
'[11:34:14.840 07/11/2076]',-34.383,-2.344,-9.768,0.781,-65.641,35.165,0.000,-16.410,-24.225,27.741,-3.907,-16.801,-35.946,4.689,13.675,-0.391,32.039,1.563,10.549,1.954,-44.933,15.629,13.675
'[11:34:14.844 07/11/2076]',-41.416,-1.954,-5.470,3.516,-73.846,37.509,0.000,-10.159,-21.880,32.821,-0.781,-10.549,-33.602,6.642,23.443,1.954,40.244,-6.252,6.252,0.781,-42.979,12.503,23.443
'[11:34:14.848 07/11/2076]',-37.509,-0.781,-2.344,3.516,-68.376,35.556,0.391,-5.861,-16.410,38.681,0.000,-9.768,-26.960,7.424,29.695,1.954,46.105,-8.987,3.126,-2.735,-41.416,11.722,29.695
'[11:34:14.852 07/11/2076]',-15.629,-1.172,-3.907,12.894,-41.807,28.523,0.000,3.907,-23.053,42.979,-7.814,-1.563,-34.774,8.987,28.523,6.642,46.886,-10.549,4.689,-8.987,-37.900,15.629,28.523
'[11:34:14.855 07/11/2076]',-5.470,-1.172,2.735,8.987,-22.271,19.536,0.391,6.252,-21.880,41.416,-8.596,-8.596,-39.463,10.159,34.383,-4.298,40.244,-15.238,-1.954,-13.675,-28.523,14.847,34.383
'[11:34:14.859 07/11/2076]',10.159,3.516,1.954,-2.344,-1.954,21.490,-3.907,-2.735,-2.735,34.774,-11.331,-19.536,-27.350,4.689,37.509,-14.847,34.774,-23.053,-1.172,-8.596,-34.383,10.940,37.509
'[11:34:14.863 07/11/2076]',18.755,2.735,-1.172,-5.470,7.424,27.741,-13.284,-7.033,2.735,26.178,-13.284,-20.317,-24.225,-2.344,33.993,-11.722,27.350,-26.178,1.954,-2.735,-42.198,10.549,33.993
'[11:34:14.867 07/11/2076]',0.391,1.172,-1.563,-11.331,-9.377,30.085,-21.490,-11.331,3.907,18.364,-12.503,-23.443,-28.523,-5.470,33.602,-14.066,15.238,-30.085,2.344,-1.954,-43.761,5.079,33.602
'[11:34:14.871 07/11/2076]',0.000,1.172,-3.516,-17.973,-6.252,30.085,-28.132,-16.020,6.642,10.549,-14.066,-26.178,-30.867,-7.424,29.695,-14.457,12.894,-39.853,4.298,-1.563,-50.012,1.172,29.695
'[11:34:14.875 07/11/2076]',6.252,1.954,-5.079,-19.536,6.252,26.569,-33.993,-16.410,16.020,7.033,-18.364,-24.615,-23.834,-9.768,25.397,-10.940,16.020,-41.416,5.861,-3.126,-55.482,0.391,25.397
'[11:34:14.879 07/11/2076]',12.503,3.907,-3.516,-20.708,19.145,21.490,-32.821,-17.192,10.159,6.252,-20.317,-21.099,-26.960,-17.192,26.960,-8.596,16.020,-35.946,4.298,-2.735,-57.045,-6.642,26.960
'[11:34:14.883 07/11/2076]',10.159,6.252,0.000,-23.443,12.894,29.304,-30.867,-18.755,3.516,0.391,-20.317,-16.801,-27.350,-27.741,28.132,-6.252,17.192,-36.337,0.781,-1.563,-54.310,-13.284,28.132
'[11:34:14.887 07/11/2076]',0.391,9.768,1.563,-26.178,-3.126,37.900,-27.741,-21.099,3.126,-3.126,-23.834,-16.020,-21.490,-34.774,22.271,-6.252,19.536,-39.072,-0.781,-1.172,-49.621,-12.894,22.271
'[11:34:14.891 07/11/2076]',-15.629,8.987,3.907,-23.443,-23.834,42.589,-23.443,-21.490,-16.801,-3.907,-25.397,-13.675,-33.993,-37.118,16.801,-6.642,19.536,-30.476,-3.126,-6.642,-34.774,-9.377,16.801
'[11:34:14.895 07/11/2076]',-22.271,7.814,3.126,-22.271,-33.602,46.886,-21.490,-24.225,-39.463,-1.954,-24.615,-13.284,-49.621,-41.416,17.582,-7.033,17.192,-27.741,-2.344,-5.861,-27.741,-13.284,17.582
'[11:34:14.898 07/11/2076]',-12.503,8.205,1.172,-24.615,-18.755,46.496,-23.443,-31.648,-26.178,-2.344,-22.271,-18.755,-41.416,-37.118,16.801,-8.205,16.020,-26.960,-0.391,-7.033,-26.569,-13.284,16.801
'[11:34:14.902 07/11/2076]',7.814,7.033,-2.344,-21.099,7.033,44.933,-25.397,-35.556,-1.563,0.000,-23.834,-23.053,-20.317,-32.039,8.987,-5.470,13.284,-21.490,3.126,-8.205,-19.927,-11.722,8.987
'[11:34:14.906 07/11/2076]',12.112,12.112,-5.861,-18.755,12.112,46.886,-24.225,-35.165,0.781,0.781,-24.615,-25.397,-21.099,-30.085,5.861,-1.563,13.284,-18.364,6.642,-9.768,-19.927,-12.112,5.861
'[11:34:14.910 07/11/2076]',20.317,13.284,-2.735,-17.582,18.364,46.886,-21.099,-31.648,17.582,0.000,-21.099,-21.880,-10.940,-19.145,10.549,-5.861,14.847,-20.317,3.516,-11.331,-14.847,-10.940,10.549
'[11:34:14.914 07/11/2076]',25.788,12.894,0.391,-12.894,19.145,43.370,-15.629,-20.317,16.801,-1.563,-16.410,-8.987,-11.331,-8.596,14.457,-3.907,11.722,-12.112,0.391,-14.847,-3.907,-7.814,14.457
'[11:34:14.918 07/11/2076]',12.112,10.940,0.391,-5.861,5.470,35.556,-12.112,-11.722,5.470,3.516,-14.066,-1.563,-16.410,-2.344,15.629,-2.344,12.112,-2.735,0.391,-16.020,-0.781,-1.954,15.629
'[11:34:14.922 07/11/2076]',7.814,5.079,0.781,-6.252,1.172,28.523,-7.424,-14.457,-1.954,9.377,-6.252,-5.079,-18.755,3.516,17.192,-6.642,8.205,0.391,0.000,-15.238,1.954,0.391,17.192
'[11:34:14.926 07/11/2076]',12.894,1.172,-1.954,-8.987,10.940,23.834,-10.549,-20.708,-10.940,12.112,-3.126,-8.596,-19.536,0.391,12.112,-3.516,4.298,1.172,2.735,-5.470,-7.033,1.172,12.112
'[11:34:14.930 07/11/2076]',5.470,0.781,-2.735,-8.205,9.768,18.364,-11.722,-20.708,-33.602,14.457,-3.126,-9.768,-32.039,-10.159,8.987,0.781,-1.172,6.252,3.516,-0.781,-12.894,-3.126,8.987
'[11:34:14.934 07/11/2076]',-16.801,0.781,-1.172,-8.596,-13.284,16.410,-8.596,-20.317,-41.026,13.284,-0.391,-10.159,-39.072,-14.457,9.768,5.861,-12.112,3.516,1.954,2.344,-21.490,-7.814,9.768
'[11:34:14.938 07/11/2076]',-8.596,0.391,0.391,-7.424,-8.596,16.020,-4.689,-18.755,-39.853,9.377,-0.391,-8.205,-42.198,-18.364,10.549,10.159,-15.238,0.391,0.391,1.563,-21.880,-10.549,10.549
'[11:34:14.941 07/11/2076]',-12.503,1.172,5.079,-3.907,-17.973,19.536,1.563,-14.457,-32.039,12.112,-1.954,-3.907,-34.383,-16.020,7.814,16.801,-13.284,6.252,-4.298,-0.391,-16.410,-8.596,7.814
'[11:34:14.945 07/11/2076]',-28.523,0.000,9.768,0.000,-39.072,22.662,6.642,-10.549,-19.145,10.549,-0.781,4.298,-23.834,-14.457,8.596,24.225,-14.457,16.020,-8.987,1.172,-13.675,-8.596,8.596
'[11:34:14.949 07/11/2076]',-17.192,-0.781,7.814,1.172,-28.913,24.225,5.079,-9.768,-22.271,3.126,0.391,5.861,-28.523,-13.284,9.377,20.317,-16.020,12.894,-7.033,2.344,-7.033,-10.549,9.377
'[11:34:14.953 07/11/2076]',-20.708,-1.172,6.642,1.954,-30.476,19.927,4.689,-6.642,-25.788,4.689,-0.781,4.298,-28.913,-4.689,3.126,12.894,-10.940,5.470,-5.861,1.172,-1.954,-2.735,3.126
'[11:34:14.957 07/11/2076]',-40.635,-1.954,7.814,0.781,-45.714,15.629,3.907,-7.814,-22.662,6.642,-2.735,0.391,-25.397,-4.298,0.391,10.549,-6.252,5.470,-7.033,0.391,-0.391,-2.735,0.391
'[11:34:14.961 07/11/2076]',-35.946,-2.344,4.298,0.391,-39.853,15.629,2.344,-12.503,-30.867,11.722,-0.391,0.000,-25.788,-9.768,2.344,13.675,-3.907,1.172,-3.516,3.907,-7.424,-11.331,2.344
'[11:34:14.965 07/11/2076]',-19.927,-4.298,7.424,1.563,-29.695,24.225,3.126,-13.675,-39.072,25.788,0.781,3.907,-22.271,-11.722,5.470,20.317,4.298,5.861,-6.642,8.205,-15.238,-14.847,5.470
'[11:34:14.969 07/11/2076]',-13.675,-9.377,11.722,8.596,-17.192,23.053,3.126,-12.112,-47.277,32.821,-4.689,10.940,-28.132,-16.020,2.344,33.211,12.894,12.894,-10.940,9.768,-13.675,-16.801,2.344
'[11:34:14.973 07/11/2076]',-1.563,-10.159,13.284,16.020,-2.344,22.662,5.470,-8.205,-41.807,30.085,-7.814,13.284,-25.397,-14.847,1.172,33.993,15.238,17.192,-12.503,5.470,-6.642,-12.894,1.172
'[11:34:14.977 07/11/2076]',-7.033,-14.066,19.927,21.099,-7.424,20.708,6.642,0.391,-34.774,28.523,-8.596,19.145,-26.960,-6.252,11.722,25.006,17.973,11.722,-19.145,4.689,-1.563,-10.159,11.722
'[11:34:14.980 07/11/2076]',-3.907,-10.940,26.960,18.364,0.391,17.582,11.722,0.781,-10.940,25.397,-6.642,17.582,-16.020,5.079,16.020,18.755,27.741,10.549,-26.178,-2.344,1.954,-1.172,16.020
'[11:34:14.984 07/11/2076]',1.954,2.344,26.569,10.159,5.470,25.788,16.801,-5.470,15.238,23.053,0.391,9.377,0.391,12.894,14.847,19.145,28.132,14.066,-25.788,-4.298,-10.940,4.298,14.847
'[11:34:14.988 07/11/2076]',-0.781,9.768,24.225,7.033,-8.205,40.635,17.582,-7.814,16.801,28.132,5.470,9.377,2.344,13.284,18.364,25.397,28.132,14.066,-23.443,-2.735,-27.350,4.298,18.364
'[11:34:14.992 07/11/2076]',-7.424,16.410,24.615,7.033,-26.178,55.092,22.662,-9.768,-6.642,36.728,7.814,11.722,-16.801,13.284,17.582,33.211,36.337,21.099,-23.834,-3.907,-28.523,6.642,17.582
'[11:34:14.996 07/11/2076]',-21.880,21.880,21.880,11.331,-49.231,62.906,25.006,-4.298,-20.708,39.072,9.377,18.364,-23.443,10.549,14.457,44.542,37.900,29.304,-21.099,-6.252,-23.834,7.033,14.457
'[11:34:15.000 07/11/2076]',-35.946,13.675,30.867,19.927,-61.734,60.952,24.225,5.861,-33.602,41.416,10.159,27.350,-30.867,8.987,18.364,49.231,37.118,24.225,-30.085,-3.126,-13.675,4.689,18.364
'[11:34:15.004 07/11/2076]',-7.814,9.377,41.026,20.708,-19.927,50.794,22.662,8.987,-21.099,41.807,9.377,27.350,-20.317,10.940,21.099,45.714,42.979,9.377,-40.244,-1.172,-9.377,7.424,21.099
'[11:34:15.008 07/11/2076]',21.490,8.987,43.370,17.582,33.993,31.258,17.973,8.205,4.689,34.774,9.768,23.834,-2.735,10.549,21.099,44.542,46.886,2.735,-42.589,-3.516,-11.722,10.940,21.099
'[11:34:15.012 07/11/2076]',21.880,8.987,40.635,16.801,47.277,21.099,10.940,9.377,6.252,33.993,8.596,23.834,-1.563,5.470,27.350,41.416,41.026,-0.781,-39.853,0.781,-17.192,6.642,27.350
'[11:34:15.016 07/11/2076]',17.582,9.768,33.602,16.410,46.105,16.020,5.470,10.159,13.675,30.867,6.642,25.788,1.954,7.424,28.913,39.072,37.118,-5.861,-32.821,-1.563,-19.536,10.549,28.913
'[11:34:15.020 07/11/2076]',8.596,12.894,25.397,12.112,34.383,15.238,2.735,7.033,18.755,27.350,3.126,19.927,2.735,10.549,23.834,32.039,39.072,-13.284,-24.615,-5.079,-16.410,15.629,23.834
'[11:34:15.023 07/11/2076]',-25.397,11.722,18.755,12.503,-7.033,17.973,0.391,7.033,7.033,29.695,2.735,14.066,-6.252,13.284,21.099,27.741,37.900,-15.629,-17.973,-4.689,-17.192,17.973,21.099
'[11:34:15.027 07/11/2076]',-20.317,10.940,21.490,16.410,-12.112,26.178,2.344,12.112,5.079,34.774,7.424,16.801,-10.940,20.708,28.523,26.960,39.072,-21.099,-20.708,-2.735,-22.271,18.364,28.523
'[11:34:15.031 07/11/2076]',-1.563,14.457,25.397,15.238,2.735,30.476,4.298,16.410,-3.516,35.556,11.722,21.099,-20.708,22.662,37.509,25.397,39.072,-23.053,-24.615,-2.735,-26.178,16.020,37.509
'[11:34:15.035 07/11/2076]',-10.159,18.364,25.397,22.271,-3.907,25.006,8.205,26.960,-15.238,39.853,10.159,26.178,-29.695,25.788,37.509,28.132,37.900,-19.145,-24.615,-6.252,-23.834,17.973,37.509
'[11:34:15.039 07/11/2076]',-6.642,19.145,27.741,31.258,1.563,14.847,13.675,40.635,-25.006,42.979,3.907,34.383,-37.118,29.695,33.993,30.085,39.463,-18.364,-26.960,-14.066,-11.722,23.053,33.993
'[11:34:15.043 07/11/2076]',3.516,22.271,26.569,27.741,19.536,6.642,13.675,41.026,-20.317,37.118,0.781,37.900,-32.821,27.350,33.993,26.178,37.509,-25.397,-25.788,-16.410,-8.987,21.099,33.993
'[11:34:15.047 07/11/2076]',0.781,23.834,31.258,21.490,22.662,1.563,16.020,37.509,-9.377,32.039,2.344,28.913,-25.006,27.350,33.993,18.364,36.337,-21.099,-30.476,-16.020,-2.735,19.536,33.993
'[11:34:15.051 07/11/2076]',-2.735,20.317,30.085,22.271,18.755,1.954,10.549,37.900,1.172,24.615,5.470,34.383,-14.847,21.490,31.648,27.741,27.741,-22.271,-29.304,-7.814,-11.331,16.801,31.648
'[11:34:15.055 07/11/2076]',1.954,22.662,30.085,18.364,23.443,3.126,10.159,36.337,4.298,19.145,10.549,32.430,-10.159,12.503,39.853,26.178,23.053,-29.695,-29.304,-7.424,-17.192,10.549,39.853
'[11:34:15.059 07/11/2076]',7.033,24.225,30.867,19.536,26.569,6.252,8.596,41.026,-1.172,18.755,11.331,33.993,-12.894,6.252,42.589,27.741,23.053,-28.913,-30.085,-6.642,-16.020,4.689,42.589
'[11:34:15.063 07/11/2076]',10.549,21.880,30.867,22.662,25.788,5.861,5.470,49.621,-5.470,18.755,10.549,41.416,-14.847,1.954,40.244,38.681,20.708,-23.834,-30.085,-5.861,-16.020,1.954,40.244
'[11:34:15.066 07/11/2076]',6.252,20.708,26.178,27.350,23.443,-1.954,1.954,58.217,-3.907,11.722,10.549,47.668,-17.582,0.000,40.635,44.542,14.457,-26.178,-25.397,-7.424,-17.973,-1.563,40.635
'[11:34:15.070 07/11/2076]',4.689,17.582,23.443,25.006,22.271,-10.940,-0.391,61.343,-8.987,7.033,6.252,46.496,-27.350,-0.391,39.072,41.416,8.987,-30.476,-22.662,-5.861,-16.410,-3.516,39.072
'[11:34:15.074 07/11/2076]',5.470,11.331,20.317,26.178,25.006,-21.099,-3.126,64.860,-5.470,3.907,2.344,42.979,-29.304,3.516,30.085,39.853,-3.126,-25.006,-19.536,-3.516,-19.536,2.344,30.085
'[11:34:15.078 07/11/2076]',5.079,7.814,14.457,28.132,26.569,-33.211,-4.689,69.158,-3.126,2.344,1.172,43.761,-27.741,3.516,32.821,34.774,-17.973,-23.053,-13.675,0.391,-22.271,0.000,32.821
'[11:34:15.082 07/11/2076]',8.205,11.331,12.894,23.053,31.648,-35.165,-4.689,67.204,-14.457,3.126,0.000,36.728,-34.774,0.781,35.946,23.834,-28.132,-21.490,-12.112,0.000,-24.615,0.000,35.946
'[11:34:15.086 07/11/2076]',16.801,9.377,10.549,19.145,40.635,-34.774,-7.424,60.952,-7.814,5.861,-4.298,25.397,-30.867,1.172,30.867,18.364,-33.993,-16.801,-9.768,-1.563,-27.741,4.298,30.867
'[11:34:15.090 07/11/2076]',4.689,12.112,9.377,16.410,33.211,-35.556,-8.596,57.045,12.894,7.033,-6.252,19.536,-13.675,0.781,31.648,15.629,-35.946,-9.377,-8.596,-6.252,-28.523,8.987,31.648
'[11:34:15.094 07/11/2076]',1.172,13.675,8.987,13.675,27.350,-35.556,-8.987,57.827,5.861,2.735,-5.861,20.708,-25.788,0.391,38.681,11.331,-39.072,-12.894,-8.205,-8.205,-30.085,7.814,38.681
'[11:34:15.098 07/11/2076]',7.424,9.768,12.503,7.814,27.350,-33.993,-7.814,55.092,8.205,-1.563,-1.172,21.099,-25.006,2.344,42.979,6.642,-42.979,-7.033,-11.722,-10.549,-26.960,6.252,42.979
'[11:34:15.102 07/11/2076]',14.457,3.907,10.549,12.503,32.039,-42.589,-7.424,62.515,6.642,-8.205,-2.735,26.960,-27.350,3.516,39.463,6.252,-46.496,-2.344,-9.768,-17.582,-16.801,7.033,39.463
'[11:34:15.105 07/11/2076]',9.377,3.907,8.596,7.814,23.443,-43.370,-7.814,60.952,1.954,-16.801,-0.391,25.006,-34.383,4.689,41.026,-1.563,-49.621,-1.954,-7.814,-17.582,-15.238,2.735,41.026
'[11:34:15.109 07/11/2076]',5.079,5.861,9.377,-3.907,17.192,-38.681,-6.642,46.886,4.298,-20.317,7.033,14.066,-24.615,4.298,39.072,-13.284,-44.933,-3.516,-8.596,-12.894,-17.973,-0.391,39.072
'[11:34:15.113 07/11/2076]',-1.172,5.079,4.298,-3.907,13.675,-37.118,-11.331,41.026,-1.172,-21.880,9.377,12.894,-22.271,-0.391,33.211,-9.768,-38.681,-0.781,-3.516,-5.470,-26.960,-1.563,33.211
'[11:34:15.117 07/11/2076]',-19.145,10.159,1.954,-2.735,-8.205,-26.960,-12.503,40.244,-20.317,-21.099,14.457,13.675,-33.993,-1.563,32.039,-9.377,-35.946,-2.344,-1.172,-0.391,-31.648,0.000,32.039
'[11:34:15.121 07/11/2076]',-7.033,11.331,0.391,0.391,-1.563,-20.708,-10.159,39.853,-29.304,-14.847,19.145,12.894,-35.946,4.298,30.867,-10.159,-30.476,-5.079,0.391,0.391,-31.648,5.079,30.867
'[11:34:15.125 07/11/2076]',18.364,8.987,-0.781,8.596,22.662,-21.099,-8.596,45.324,-30.867,-14.847,18.755,17.582,-38.291,0.781,33.211,-5.470,-24.615,1.954,1.563,0.391,-26.569,4.689,33.211
'[11:34:15.129 07/11/2076]',18.755,9.768,-2.344,13.284,22.662,-23.834,-8.205,50.794,-2.344,-19.927,19.927,21.880,-18.755,-2.735,42.198,0.000,-26.960,11.722,3.126,0.391,-25.006,0.391,42.198
'[11:34:15.133 07/11/2076]',20.317,8.987,-1.563,12.503,26.178,-27.741,-6.642,51.575,21.490,-25.006,25.788,22.662,-1.954,0.391,48.059,0.000,-27.350,9.377,2.344,1.954,-25.397,-1.954,48.059
'[11:34:15.137 07/11/2076]',24.615,5.861,-1.954,8.987,35.165,-34.774,-7.033,47.277,29.695,-26.960,26.178,17.582,5.470,-0.391,42.979,-1.172,-23.443,2.735,2.735,1.954,-22.662,-0.781,42.979
'[11:34:15.141 07/11/2076]',9.768,3.907,-3.126,5.861,21.880,-39.463,-8.987,45.714,25.006,-24.615,22.662,14.066,2.735,1.563,35.556,-1.954,-17.973,0.000,3.907,0.391,-21.099,3.907,35.556
'[11:34:15.145 07/11/2076]',-2.735,6.642,-3.126,1.954,6.252,-33.211,-10.940,42.198,12.112,-19.145,23.443,8.987,-6.642,5.079,33.993,-6.252,-13.284,-3.907,3.907,1.563,-24.615,5.079,33.993
'[11:34:15.148 07/11/2076]',4.689,4.689,-1.954,0.391,8.987,-23.834,-12.894,37.118,5.470,-15.629,24.615,6.642,-7.033,3.907,32.039,-7.033,-11.331,-2.344,2.735,3.516,-20.317,4.298,32.039
'[11:34:15.152 07/11/2076]',0.391,2.735,-3.907,3.907,7.424,-22.271,-18.364,37.900,10.159,-12.112,16.801,6.252,1.563,-0.781,25.397,-4.298,-11.722,2.344,4.689,3.516,-14.847,3.907,25.397
'[11:34:15.156 07/11/2076]',-10.940,1.172,-2.735,6.642,-2.735,-19.536,-19.536,37.900,5.861,-8.987,10.940,6.642,-2.735,-1.172,20.317,-1.563,-9.768,1.172,3.516,2.344,-8.205,7.033,20.317
'[11:34:15.160 07/11/2076]',0.391,-0.781,-1.172,9.768,8.205,-19.927,-18.364,39.853,-1.563,-7.814,5.079,8.596,-8.596,-3.126,20.317,-3.516,-9.377,-7.814,1.954,1.172,3.126,4.298,20.317
'[11:34:15.164 07/11/2076]',3.907,-4.298,0.391,13.675,16.801,-29.695,-17.192,46.496,0.391,-9.377,-1.954,14.066,-7.424,-3.907,19.536,-4.689,-11.331,-10.549,0.391,-1.954,16.801,5.079,19.536
'[11:34:15.168 07/11/2076]',-6.252,-7.814,0.391,16.410,2.735,-31.648,-12.503,46.105,-2.735,-10.940,-9.768,11.331,-14.457,-2.735,10.159,-5.470,-12.503,-11.331,0.391,-1.172,21.490,8.987,10.159
'[11:34:15.172 07/11/2076]',-8.596,-8.596,0.781,11.722,-3.516,-28.913,-8.987,38.291,7.424,-10.159,-10.549,-1.954,-7.033,-1.172,5.861,-12.894,-18.364,-8.987,0.000,1.563,23.443,9.768,5.861
'[11:34:15.176 07/11/2076]',-3.516,-12.112,-2.735,7.033,0.781,-26.960,-12.894,28.913,17.973,-7.033,-11.331,-7.814,6.252,-5.861,2.735,-11.722,-18.755,-5.079,3.516,9.768,15.238,7.033,2.735
'[11:34:15.180 07/11/2076]',-19.536,-15.629,-7.814,7.424,-14.066,-26.960,-16.410,22.662,7.814,-1.563,-13.284,-10.159,3.126,-9.377,-1.954,-9.377,-20.708,1.954,8.596,16.410,11.722,6.252,-1.954
'[11:34:15.184 07/11/2076]',-16.410,-16.801,-11.331,5.861,-12.503,-25.788,-19.927,20.317,0.391,2.735,-11.331,-10.159,-1.172,-8.205,-1.563,-6.642,-21.880,-1.172,12.112,20.317,3.907,5.470,-1.563
'[11:34:15.188 07/11/2076]',5.470,-18.755,-14.066,7.033,8.987,-26.569,-23.053,21.099,2.735,4.298,-11.331,-7.424,2.735,-6.642,-1.563,-5.861,-18.364,-10.159,14.847,21.490,3.126,4.689,-1.563
'[11:34:15.191 07/11/2076]',7.033,-23.053,-12.112,10.549,11.722,-29.304,-21.880,23.443,2.344,6.642,-14.847,-5.861,2.735,-6.252,-4.298,-2.735,-16.410,-8.987,12.894,21.099,7.424,5.470,-4.298
'[11:34:15.195 07/11/2076]',0.781,-27.350,-6.642,12.503,2.344,-28.523,-19.145,25.397,-3.907,7.814,-13.675,-2.344,-3.907,-3.907,-4.298,0.391,-20.317,-2.735,7.424,24.225,7.033,4.298,-4.298
'[11:34:15.199 07/11/2076]',-1.563,-30.476,-1.954,14.066,-0.781,-29.304,-17.582,29.304,-13.675,7.814,-10.549,2.735,-12.112,-5.861,2.344,1.563,-27.741,1.563,2.735,26.178,7.033,-1.172,2.344
'[11:34:15.203 07/11/2076]',-15.238,-33.602,1.563,14.847,-9.377,-35.946,-16.410,30.476,-26.960,5.861,-12.894,5.470,-20.708,-10.940,1.563,1.954,-31.648,5.470,-0.781,24.615,12.503,-2.735,1.563
'[11:34:15.207 07/11/2076]',-22.271,-30.476,3.126,13.675,-10.159,-39.072,-14.066,28.523,-20.317,0.391,-12.112,7.033,-17.973,-10.159,0.391,3.516,-34.774,14.457,-2.344,25.006,7.033,-0.781,0.391
'[11:34:15.211 07/11/2076]',-22.662,-26.960,3.907,12.112,-10.549,-37.118,-12.894,29.304,-6.642,-3.907,-3.516,14.066,-2.735,-12.112,10.549,4.689,-36.728,19.927,-3.126,28.523,-0.781,-5.079,10.549
'[11:34:15.215 07/11/2076]',-11.331,-23.834,4.298,13.675,-0.781,-32.821,-12.112,29.695,-3.126,-7.424,1.954,21.490,3.516,-12.894,12.894,8.987,-38.681,25.397,-3.516,28.913,-1.172,-7.033,12.894
'[11:34:15.219 07/11/2076]',-11.331,-25.006,3.126,22.662,2.735,-36.337,-8.987,33.602,-10.940,-7.814,2.344,29.304,-4.689,-9.768,8.596,17.973,-34.383,28.132,-2.344,26.178,4.689,-4.689,8.596
'[11:34:15.223 07/11/2076]',-12.112,-27.741,5.079,29.695,-0.781,-36.728,-4.298,38.291,-19.145,-3.907,3.126,32.430,-11.722,-4.689,8.596,20.708,-33.211,29.695,-4.298,23.443,10.159,-3.126,8.596
'[11:34:15.227 07/11/2076]',-3.907,-27.350,5.079,34.774,3.907,-40.244,0.391,44.933,-43.761,-4.298,-0.391,38.681,-37.118,-4.298,9.377,21.099,-36.337,23.443,-4.298,17.192,16.801,-8.596,9.377
'[11:34:15.230 07/11/2076]',2.344,-25.788,5.861,32.430,17.582,-47.668,3.516,42.198,-40.244,-5.861,-3.907,39.072,-35.946,-4.298,3.907,25.006,-31.648,22.271,-5.079,12.112,16.410,-9.377,3.907
'[11:34:15.234 07/11/2076]',7.424,-22.662,7.424,22.662,22.271,-42.589,3.126,32.430,-19.536,-8.205,0.391,30.867,-18.364,-7.033,3.126,25.788,-37.118,26.569,-6.642,14.847,5.079,-13.675,3.126
'[11:34:15.238 07/11/2076]',5.470,-16.801,3.126,18.364,19.927,-31.648,-3.516,27.350,-8.596,-14.847,3.907,31.648,-9.768,-12.503,3.516,32.430,-41.026,25.788,-2.344,16.801,-7.814,-16.410,3.516
'[11:34:15.242 07/11/2076]',7.814,-16.410,0.781,14.457,21.880,-27.350,-6.252,19.536,-7.033,-16.801,5.861,29.304,-5.079,-16.410,0.781,32.821,-36.728,28.132,0.000,21.099,-10.549,-19.536,0.781
'[11:34:15.246 07/11/2076]',-7.033,-18.755,0.781,11.722,4.689,-23.443,-8.987,15.629,-21.099,-14.847,8.987,29.304,-13.675,-18.364,0.000,35.556,-34.383,33.211,0.000,23.053,-8.596,-23.053,0.000
'[11:34:15.250 07/11/2076]',-10.549,-17.192,1.172,10.940,-1.172,-20.708,-9.377,16.801,-18.755,-18.755,11.722,31.648,-16.410,-12.894,1.172,34.774,-34.383,30.867,-0.391,20.317,-8.987,-21.490,1.172
'[11:34:15.254 07/11/2076]',-4.298,-14.847,1.563,6.252,3.516,-25.397,-4.689,15.238,-16.020,-21.099,10.159,26.960,-11.722,-11.331,-1.954,26.178,-26.960,22.271,-0.781,21.099,-9.768,-20.317,-1.954
'[11:34:15.258 07/11/2076]',-11.331,-16.020,3.907,3.516,-5.861,-21.490,-4.689,14.066,-17.582,-19.927,7.814,23.443,-10.549,-11.331,-9.377,25.788,-23.053,19.927,-3.126,17.192,-3.907,-16.801,-9.377
'[11:34:15.262 07/11/2076]',-6.642,-12.112,4.689,4.689,-5.470,-13.675,-4.298,15.629,-19.536,-19.927,8.205,26.569,-11.331,-10.549,-8.596,26.960,-25.397,21.880,-3.907,18.364,-2.735,-18.364,-8.596
'[11:34:15.266 07/11/2076]',-8.596,-10.159,5.470,7.033,-8.987,-10.159,-2.344,17.192,-26.569,-22.271,9.768,30.867,-14.847,-12.503,-6.642,26.569,-29.304,21.880,-4.689,18.755,0.391,-20.317,-6.642
'[11:34:15.270 07/11/2076]',-14.847,-8.596,8.596,7.033,-12.894,-7.033,0.391,14.457,-41.416,-18.755,7.814,30.476,-26.960,-15.238,-8.205,29.695,-25.397,19.536,-7.814,13.675,4.298,-17.973,-8.205
'[11:34:15.273 07/11/2076]',-4.298,-5.079,9.768,5.079,-1.172,-4.689,1.563,9.768,-29.695,-16.801,6.642,27.741,-18.364,-18.364,-9.768,35.165,-19.536,19.536,-8.987,9.377,1.172,-17.973,-9.768
'[11:34:15.277 07/11/2076]',1.172,-1.563,11.722,4.689,6.252,-0.781,4.689,7.033,-19.927,-19.145,5.470,26.178,-11.722,-26.569,-5.861,38.291,-16.020,12.503,-10.940,8.987,-4.298,-22.662,-5.861
'[11:34:15.281 07/11/2076]',-5.470,0.391,10.549,5.470,0.391,1.563,3.126,6.252,-25.788,-18.755,1.172,23.053,-19.927,-34.383,-5.079,39.463,-9.768,9.377,-9.768,5.470,-5.079,-24.225,-5.079
'[11:34:15.285 07/11/2076]',-6.642,-2.344,5.861,7.033,0.391,-2.735,0.000,5.861,-16.020,-17.192,-8.987,17.973,-12.894,-38.291,-12.112,39.072,-6.252,4.298,-5.079,1.954,1.954,-24.225,-12.112
'[11:34:15.289 07/11/2076]',-16.410,-7.814,5.079,10.549,-5.861,-8.987,0.391,7.033,-15.629,-12.894,-19.927,9.768,-25.006,-30.476,-14.066,30.476,-5.079,0.391,-4.298,-3.907,9.768,-17.192,-14.066
'[11:34:15.293 07/11/2076]',-23.834,-6.252,5.861,5.470,-7.424,-14.066,0.781,3.126,-20.317,-8.205,-21.880,3.907,-34.383,-27.350,-2.735,17.582,-2.735,-4.298,-5.079,-4.689,6.642,-16.410,-2.735
'[11:34:15.297 07/11/2076]',-7.424,-1.563,8.205,-6.642,10.159,-10.940,1.563,-8.205,-8.205,0.000,-21.099,-5.079,-26.178,-25.006,4.689,11.722,1.954,-2.735,-7.424,-3.516,-6.252,-16.801,4.689
'[11:34:15.301 07/11/2076]',-1.563,2.735,6.642,-9.377,15.238,-2.735,-0.781,-11.722,-5.470,0.781,-17.973,-4.298,-27.350,-25.788,8.596,17.192,0.781,-7.033,-5.861,0.781,-25.006,-19.145,8.596
'[11:34:15.305 07/11/2076]',-10.549,9.768,3.907,-12.112,5.861,3.516,-1.563,-16.020,-9.377,2.344,-12.503,-4.689,-28.913,-27.350,15.629,16.801,0.781,-11.331,-3.126,1.563,-36.337,-20.317,15.629
'[11:34:15.309 07/11/2076]',-21.490,11.331,0.000,-11.331,-5.861,6.642,-4.689,-17.582,-9.377,2.344,-11.722,-1.172,-28.523,-28.913,15.238,21.880,3.907,-10.940,0.781,0.391,-37.900,-21.099,15.238
'[11:34:15.313 07/11/2076]',-35.165,7.424,-3.907,-6.252,-19.145,6.252,-10.940,-14.457,-7.424,-1.954,-8.987,4.689,-25.006,-29.304,11.722,28.523,3.907,-8.596,4.689,1.172,-34.774,-20.317,11.722
'[11:34:15.316 07/11/2076]',-33.211,1.954,-7.424,-6.642,-13.675,0.000,-16.020,-15.238,-10.549,-4.689,-5.079,7.033,-27.350,-28.523,13.675,28.132,0.391,-9.768,8.205,-0.391,-32.821,-20.317,13.675
'[11:34:15.320 07/11/2076]',7.424,0.781,-8.205,-10.940,31.258,-3.907,-19.145,-17.973,-3.126,-10.159,-3.907,5.861,-20.708,-31.258,14.066,26.960,0.391,-17.973,8.987,-1.172,-34.383,-21.490,14.066
'[11:34:15.324 07/11/2076]',26.569,1.954,-10.549,-16.020,54.310,-8.205,-23.834,-19.145,-0.391,-13.284,-3.907,5.079,-19.927,-29.304,7.033,28.523,2.344,-21.880,11.331,-2.735,-41.416,-17.192,7.033
'[11:34:15.328 07/11/2076]',21.880,1.172,-13.675,-18.364,46.105,-10.159,-24.615,-18.755,-8.596,-15.238,-3.126,7.424,-26.178,-32.039,8.596,29.695,2.344,-26.960,14.457,-0.781,-46.496,-23.834,8.596
'[11:34:15.332 07/11/2076]',28.132,3.907,-15.238,-20.317,47.668,-7.033,-23.053,-19.536,-5.861,-17.973,-3.126,7.424,-25.397,-30.867,8.205,28.523,0.391,-25.397,16.020,-1.172,-46.496,-26.569,8.205
'[11:34:15.336 07/11/2076]',5.079,1.954,-17.973,-23.053,19.536,-2.344,-25.006,-25.006,-7.033,-17.973,-7.033,2.344,-27.350,-27.741,-3.126,28.132,4.689,-21.099,18.755,0.391,-41.026,-21.880,-3.126
'[11:34:15.340 07/11/2076]',-12.112,0.000,-20.317,-23.443,-2.344,0.391,-26.960,-27.741,4.298,-16.020,-12.112,-3.126,-12.894,-25.397,-12.894,23.834,3.126,-15.238,21.099,0.000,-33.993,-16.020,-12.894
'[11:34:15.344 07/11/2076]',5.079,2.735,-17.973,-23.443,14.066,4.298,-23.834,-27.350,14.457,-11.331,-13.675,-3.126,0.391,-20.708,-12.112,17.973,0.391,-15.629,18.755,-1.954,-25.397,-11.722,-12.112
'[11:34:15.348 07/11/2076]',20.708,4.689,-14.457,-26.178,27.741,4.689,-21.099,-25.788,17.973,-3.907,-16.801,-4.298,10.549,-16.020,-14.066,10.940,1.172,-14.847,15.238,-3.907,-17.973,-8.205,-14.066
'[11:34:15.352 07/11/2076]',1.563,-3.907,-15.238,-17.192,1.954,-4.689,-19.145,-12.112,14.457,-2.344,-25.006,1.172,14.457,-15.238,-23.053,11.722,-3.516,-14.457,16.020,-6.642,-4.298,-6.252,-23.053
'[11:34:15.355 07/11/2076]',12.112,-1.172,-14.847,-14.847,10.940,-6.642,-14.066,-7.814,7.424,-0.391,-27.350,0.781,10.549,-12.112,-22.662,3.907,-8.596,-13.675,15.629,-9.768,5.079,-9.377,-22.662
'[11:34:15.359 07/11/2076]',16.410,-1.954,-11.331,-23.443,13.284,-4.689,-10.159,-17.192,7.033,0.391,-23.834,-10.940,14.847,-12.503,-25.397,-4.689,-11.331,-10.159,12.112,-3.516,9.377,-15.238,-25.397
'[11:34:15.363 07/11/2076]',5.470,0.391,-11.331,-24.615,4.298,-3.126,-11.722,-19.536,10.940,-1.563,-23.053,-8.987,21.880,-17.582,-28.523,1.172,-17.973,-1.563,12.112,0.391,4.298,-17.192,-28.523
'[11:34:15.367 07/11/2076]',16.410,18.364,-7.424,-25.397,25.788,4.298,-7.814,-19.927,24.615,-0.391,-18.755,-9.377,34.774,-14.457,-26.569,1.563,-22.271,-2.344,8.205,-3.907,6.642,-13.675,-26.569
'[11:34:15.371 07/11/2076]',35.165,25.788,-3.516,-26.178,47.277,7.814,-2.735,-20.317,36.728,-0.781,-16.410,-12.112,44.542,-12.894,-25.788,0.391,-19.536,-7.814,4.298,-2.735,7.033,-13.284,-25.788
'[11:34:15.375 07/11/2076]',38.291,21.880,-3.907,-19.145,46.886,3.516,-1.563,-11.722,23.053,-4.689,-19.145,-9.768,37.900,-21.880,-30.867,3.907,-20.708,-3.126,4.689,0.391,15.238,-16.020,-30.867
'[11:34:15.379 07/11/2076]',30.867,16.410,-1.172,-10.940,39.463,-1.954,1.563,-3.126,21.880,-9.768,-19.145,-5.079,40.635,-28.913,-28.913,3.907,-24.615,5.861,1.954,6.252,27.350,-21.099,-28.913
'[11:34:15.383 07/11/2076]',38.681,12.894,3.907,-5.079,47.277,-3.516,6.252,0.781,21.099,-12.112,-15.629,-3.516,41.416,-29.695,-24.225,1.563,-29.304,12.503,-3.126,8.596,37.509,-24.225,-24.225
'[11:34:15.387 07/11/2076]',44.542,8.987,8.205,-3.516,53.529,-5.470,8.987,1.954,37.509,-16.410,-16.801,-4.298,58.608,-30.476,-29.304,0.391,-30.085,12.112,-7.424,7.033,51.184,-23.053,-29.304
'[11:34:15.391 07/11/2076]',42.589,12.894,12.112,-3.907,55.873,-5.470,11.331,2.344,58.217,-17.973,-21.880,-6.252,75.018,-27.741,-34.774,-0.391,-28.523,10.940,-11.331,5.079,58.217,-21.880,-34.774
'[11:34:15.395 07/11/2076]',39.853,16.020,12.112,-7.033,47.277,3.126,13.284,-1.954,53.138,-18.364,-20.317,-9.377,69.548,-28.523,-32.821,-3.516,-23.834,3.126,-11.331,7.033,61.343,-29.695,-32.821
'[11:34:15.398 07/11/2076]',37.118,14.066,10.940,-12.894,38.291,9.377,10.159,-7.814,48.449,-20.317,-19.145,-12.894,69.939,-36.728,-33.993,-3.126,-19.145,-0.781,-10.159,13.284,64.469,-41.416,-33.993
'[11:34:15.402 07/11/2076]',17.192,9.377,7.033,-12.894,10.549,12.894,7.814,-9.768,40.244,-21.490,-23.053,-11.722,64.860,-44.151,-36.728,-0.781,-14.457,-0.391,-6.252,19.145,61.734,-46.886,-36.728
'[11:34:15.406 07/11/2076]',12.894,8.987,7.424,-13.675,1.563,13.284,9.377,-8.596,33.211,-16.801,-23.443,-11.331,57.045,-41.026,-33.602,-1.172,-12.503,1.563,-6.642,18.755,55.873,-44.151,-33.602
'[11:34:15.410 07/11/2076]',19.145,7.814,11.331,-12.112,7.814,8.987,13.284,-3.516,22.662,-13.284,-23.834,-7.424,42.979,-37.900,-21.490,-5.470,-12.112,-1.954,-10.549,13.284,52.747,-41.416,-21.490
'[11:34:15.414 07/11/2076]',25.397,7.033,15.238,-7.424,13.675,5.470,15.238,5.861,20.317,-14.457,-26.178,1.563,32.821,-32.039,-14.066,-5.861,-12.503,-3.126,-14.457,7.033,50.794,-35.165,-14.066
'[11:34:15.418 07/11/2076]',20.317,6.642,20.708,-7.814,10.940,2.344,18.755,8.596,16.410,-10.940,-26.178,-0.391,23.834,-24.615,-13.284,-6.252,-9.377,-4.298,-19.927,2.735,48.840,-28.132,-13.284
'[11:34:15.422 07/11/2076]',21.880,7.424,22.271,-9.377,14.847,6.642,18.364,2.735,19.145,-7.424,-17.973,-0.781,25.006,-23.053,-5.079,-3.516,-3.516,-5.079,-21.490,1.563,38.291,-25.397,-5.079
'[11:34:15.426 07/11/2076]',17.973,5.079,23.053,-8.205,15.238,10.940,13.675,-1.563,28.913,-9.377,-10.940,5.861,33.993,-25.788,-1.172,7.424,3.516,-5.079,-22.271,5.079,29.304,-25.788,-1.172
'[11:34:15.430 07/11/2076]',10.940,1.954,25.397,-7.814,10.940,14.457,10.940,-4.689,34.774,-6.252,-4.298,9.768,39.853,-24.615,3.516,13.284,12.112,-0.391,-24.615,8.205,23.053,-25.006,3.516
'[11:34:15.434 07/11/2076]',12.503,0.000,26.178,-5.470,18.364,10.549,8.205,-5.861,22.662,-4.689,1.563,13.675,28.523,-22.662,9.768,17.192,11.722,-5.470,-25.397,9.768,16.801,-24.615,9.768
'[11:34:15.438 07/11/2076]',12.894,-1.172,28.132,-2.735,19.536,12.112,9.377,-5.079,10.549,-3.126,4.298,14.066,17.582,-19.536,9.377,17.582,15.238,-12.503,-27.350,7.814,18.755,-21.490,9.377
'[11:34:15.441 07/11/2076]',16.020,-2.735,32.430,-1.954,20.317,13.284,12.503,-3.907,7.424,1.954,4.689,9.768,17.192,-16.020,5.861,16.801,17.973,-7.424,-31.648,7.033,21.490,-15.629,5.861
'[11:34:15.445 07/11/2076]',5.470,-0.391,33.602,-1.954,7.814,15.629,15.238,-2.344,7.814,9.768,8.205,8.596,19.536,-11.331,5.861,20.708,18.755,0.000,-32.821,7.424,15.238,-10.940,5.861
'[11:34:15.449 07/11/2076]',6.252,1.172,33.602,-1.954,8.205,19.145,14.847,-2.735,16.801,7.033,11.331,10.159,25.788,-7.814,3.516,24.225,18.755,0.000,-32.821,4.298,17.192,-7.814,3.516
'[11:34:15.453 07/11/2076]',9.377,1.172,32.821,-1.172,17.973,14.457,14.457,-3.516,29.695,5.470,8.205,6.252,30.085,-1.563,0.781,20.708,24.225,-3.516,-32.039,1.172,22.662,-1.563,0.781
'[11:34:15.457 07/11/2076]',17.582,0.781,30.085,-1.954,30.476,10.549,12.112,-6.642,40.244,1.563,5.470,-3.516,32.430,5.470,-7.033,12.503,26.178,-4.689,-29.304,0.391,26.178,5.470,-7.033
'[11:34:15.461 07/11/2076]',16.020,0.000,29.304,-2.735,28.132,9.768,11.331,-7.033,30.867,-3.126,6.252,-9.377,20.317,5.079,-5.470,4.689,19.536,-6.252,-28.523,5.470,30.085,0.391,-5.470
'[11:34:15.465 07/11/2076]',13.675,-0.391,28.913,-3.516,21.880,14.066,8.987,-6.642,25.006,-4.298,7.814,-13.675,14.066,1.563,-3.907,1.563,16.020,-9.377,-28.132,8.205,28.523,-1.563,-3.907
'[11:34:15.469 07/11/2076]',1.563,-1.954,23.834,-1.563,8.596,11.722,5.861,-4.689,31.258,-5.861,3.907,-16.801,21.099,-3.126,-9.377,4.689,10.940,-7.033,-23.053,10.549,20.317,1.172,-9.377
'[11:34:15.473 07/11/2076]',-5.470,-3.907,21.099,0.000,4.298,4.298,5.079,-3.907,35.556,-5.861,0.391,-21.099,23.053,-9.768,-8.987,3.516,7.033,-13.284,-20.317,5.470,26.178,-2.344,-8.987
'[11:34:15.477 07/11/2076]',-17.582,-5.861,17.192,2.344,-3.907,0.781,2.344,-2.344,35.165,-7.033,-3.907,-17.582,21.880,-13.284,-4.689,1.954,6.252,-26.178,-16.410,0.000,30.476,-5.079,-4.689
'[11:34:15.480 07/11/2076]',-15.238,-12.112,15.238,-2.344,1.954,-7.814,1.954,-10.549,32.039,-9.768,-4.689,-22.271,20.708,-15.238,-8.987,-1.954,7.424,-26.569,-14.457,-0.781,34.383,-5.861,-8.987
'[11:34:15.484 07/11/2076]',-4.298,-11.331,11.722,-8.987,14.066,-7.814,0.781,-20.317,21.490,-7.814,-3.907,-31.648,10.549,-15.238,-11.722,-5.470,6.252,-23.443,-10.940,-1.954,34.383,-7.424,-11.722
'[11:34:15.488 07/11/2076]',-1.563,-11.331,6.642,-14.847,12.112,-0.391,-3.907,-28.132,14.066,-8.987,-1.954,-35.946,2.344,-17.582,-15.238,-1.954,5.470,-24.225,-5.861,1.563,22.662,-8.987,-15.238
'[11:34:15.492 07/11/2076]',-11.331,-11.331,0.781,-18.364,2.735,0.781,-7.033,-36.728,12.112,-7.424,-0.781,-41.026,3.126,-20.317,-18.755,-1.563,10.940,-21.880,0.000,4.689,11.722,-7.033,-18.755
'[11:34:15.496 07/11/2076]',-7.033,-8.205,-5.861,-17.973,7.033,4.298,-10.549,-41.416,-3.516,-5.861,0.781,-42.979,-11.722,-20.708,-19.927,0.391,12.894,-14.847,6.642,5.079,7.033,-7.424,-19.927
'[11:34:15.500 07/11/2076]',-12.894,-6.642,-7.424,-11.722,3.126,7.033,-10.549,-39.463,0.781,-8.596,3.126,-41.026,-10.549,-15.238,-18.364,-1.954,8.987,-15.238,8.205,2.735,11.331,-5.079,-18.364
'[11:34:15.504 07/11/2076]',-20.317,-5.470,-8.596,-7.814,-1.563,4.298,-7.424,-38.681,17.973,-11.722,3.907,-41.807,1.954,-9.377,-17.582,-6.252,7.033,-16.020,9.377,2.344,12.112,-1.172,-17.582
'[11:34:15.508 07/11/2076]',0.391,1.172,-9.768,-7.814,19.145,3.907,-3.516,-36.728,19.927,-12.894,4.298,-38.681,-1.172,-3.516,-15.238,-7.424,5.861,-5.079,10.549,1.563,6.252,3.126,-15.238
'[11:34:15.512 07/11/2076]',8.596,2.735,-7.814,-5.470,22.271,3.907,0.391,-28.132,32.821,-17.582,5.079,-26.960,5.861,2.344,-10.940,-3.516,-2.735,4.298,8.596,3.516,4.689,1.563,-10.940
'[11:34:15.516 07/11/2076]',3.516,0.781,-5.470,-1.563,10.159,0.391,5.470,-19.145,40.635,-19.145,8.987,-15.238,14.847,6.252,-7.424,-0.391,-8.205,10.940,6.252,6.252,5.470,-0.781,-7.424
'[11:34:15.520 07/11/2076]',-8.596,-2.735,-3.516,3.126,-7.424,-1.172,10.940,-14.457,28.132,-13.284,10.159,-9.768,9.377,10.549,-7.033,1.563,-7.033,14.847,4.298,6.252,8.987,1.954,-7.033
'[11:34:15.523 07/11/2076]',-19.536,-7.424,-1.954,10.940,-21.490,0.000,12.503,-8.596,27.350,-10.549,14.066,-5.861,11.722,15.238,-7.814,4.689,-8.596,18.364,2.735,6.252,12.894,6.642,-7.814
'[11:34:15.527 07/11/2076]',-19.145,-9.377,-0.391,17.973,-23.834,-2.344,14.847,0.000,23.443,-10.940,16.410,3.126,15.238,12.112,-2.344,6.252,-12.503,17.582,1.172,10.159,12.894,0.781,-2.344
'[11:34:15.531 07/11/2076]',-8.596,-5.079,0.000,21.099,-11.722,-3.126,16.410,5.079,17.192,-9.768,17.192,12.112,8.205,10.549,6.642,10.159,-15.238,23.834,0.781,6.642,3.126,4.298,6.642
'[11:34:15.535 07/11/2076]',1.563,0.000,-1.563,22.662,-1.563,-5.861,17.582,12.894,10.159,-10.159,13.675,21.880,-0.391,12.894,8.596,14.457,-19.536,33.211,2.344,2.344,-5.079,6.252,8.596
'[11:34:15.539 07/11/2076]',7.814,-0.781,3.126,24.615,3.126,-9.768,20.708,19.927,-5.470,-13.675,7.033,27.350,-16.801,16.020,-1.563,16.410,-19.536,32.821,-2.344,-4.298,9.377,4.689,-1.563
'[11:34:15.543 07/11/2076]',-3.516,-1.954,11.722,23.053,-7.424,-7.814,23.834,21.099,-9.377,-12.894,10.549,26.960,-19.145,18.364,2.344,12.503,-17.973,28.523,-10.940,-7.033,17.192,1.563,2.344
'[11:34:15.547 07/11/2076]',-19.536,-1.172,20.708,17.973,-21.099,0.391,24.225,13.675,-5.470,-11.331,18.755,21.880,-11.331,19.145,2.344,12.112,-10.940,31.258,-19.927,-3.126,18.755,-0.391,2.344
'[11:34:15.551 07/11/2076]',-11.331,1.563,23.443,19.536,-10.940,10.549,20.317,13.284,0.391,-13.675,22.662,24.615,1.954,14.066,-5.470,21.490,-10.159,25.788,-22.662,0.391,22.662,-8.205,-5.470
'[11:34:15.555 07/11/2076]',1.172,3.516,27.350,15.629,1.563,16.410,19.927,8.596,16.410,-12.894,25.788,21.490,19.927,15.238,-3.126,18.364,-6.642,19.927,-26.569,2.344,21.099,-8.596,-3.126
'[11:34:15.559 07/11/2076]',15.629,12.503,27.741,12.894,21.880,18.755,21.490,6.252,26.569,-10.940,24.615,23.053,32.039,13.284,-2.344,19.536,-0.391,22.271,-26.960,-0.391,18.755,-8.596,-2.344
'[11:34:15.563 07/11/2076]',34.383,24.615,25.397,10.549,40.635,25.006,20.317,8.987,28.523,-9.377,22.271,28.523,31.648,15.629,-1.563,23.053,7.814,23.053,-24.615,-3.516,10.549,-7.033,-1.563
'[11:34:15.566 07/11/2076]',49.231,31.258,29.304,9.377,57.436,30.867,19.927,10.159,32.039,-7.033,21.490,28.913,32.430,23.834,-3.907,22.271,13.284,18.755,-28.523,-7.033,19.536,-6.252,-3.907
'[11:34:15.570 07/11/2076]',57.827,36.728,30.476,5.079,62.515,39.072,21.099,7.814,42.979,0.000,24.225,24.615,43.370,26.178,-0.781,22.662,25.006,12.112,-29.695,-4.689,10.549,-4.689,-0.781
'[11:34:15.574 07/11/2076]',96.508,46.496,26.178,3.516,94.554,50.012,20.708,7.424,67.204,12.894,25.397,24.615,64.469,41.416,-4.689,29.695,38.681,17.582,-25.397,-2.735,0.000,-1.563,-4.689
'[11:34:15.578 07/11/2076]',130.891,55.482,24.615,4.689,123.468,59.780,22.271,10.159,92.210,26.960,30.867,31.648,87.131,59.780,1.563,33.211,46.886,20.317,-23.834,-0.391,-6.642,-1.563,1.563
'[11:34:15.582 07/11/2076]',157.460,62.515,25.006,2.344,145.739,67.595,23.834,10.159,110.574,37.900,37.900,35.556,106.667,68.376,13.284,34.383,52.747,23.834,-24.225,-0.781,-8.987,-3.907,13.284
'[11:34:15.586 07/11/2076]',184.420,73.065,24.615,2.735,174.261,75.409,25.006,9.377,131.282,47.668,39.072,38.291,121.123,80.098,17.582,37.509,62.906,26.960,-23.834,-5.470,-13.675,3.126,17.582
'[11:34:15.590 07/11/2076]',203.175,76.581,29.695,6.252,200.830,83.223,22.271,9.377,150.037,56.264,37.900,40.244,128.547,94.164,22.662,38.681,73.455,23.053,-28.913,-10.940,-11.722,14.847,22.662
'[11:34:15.594 07/11/2076]',214.505,68.767,35.556,10.159,214.115,84.396,18.755,11.722,159.805,58.217,36.337,43.761,132.845,98.071,29.304,37.509,77.753,7.814,-34.774,-8.596,-5.079,14.457,29.304
'[11:34:15.598 07/11/2076]',252.015,56.264,36.337,9.377,241.856,86.349,16.020,9.768,177.387,62.125,33.993,43.761,146.129,107.448,30.867,32.821,83.223,3.126,-35.556,-0.781,-10.159,17.582,30.867
'[11:34:15.602 07/11/2076]',280.147,54.310,30.476,13.675,263.346,86.740,11.722,16.801,203.175,69.548,29.304,50.403,164.103,125.031,31.258,32.039,87.912,-0.781,-29.695,-1.172,-22.662,28.132,31.258
'[11:34:15.605 07/11/2076]',299.683,57.436,24.615,9.768,275.849,87.521,10.549,18.364,219.976,72.283,30.085,49.621,175.824,135.580,32.821,27.741,86.349,-1.563,-23.834,-1.172,-35.556,33.602,32.821
'[11:34:15.609 07/11/2076]',316.484,67.595,23.053,-4.689,286.398,94.164,11.722,9.377,238.730,80.098,35.165,37.509,188.327,146.911,38.291,17.582,90.647,0.391,-22.271,0.000,-57.045,39.072,38.291
'[11:34:15.613 07/11/2076]',332.503,72.283,21.880,-5.470,304.762,101.197,5.470,8.987,259.048,83.614,38.291,37.509,199.658,150.818,42.979,25.397,93.773,2.735,-21.099,0.391,-76.972,46.886,42.979
'[11:34:15.617 07/11/2076]',346.178,63.687,23.443,-3.516,321.172,97.289,1.954,10.159,261.392,82.833,40.635,34.383,200.440,157.070,40.635,21.490,94.164,-4.689,-22.662,6.252,-68.767,45.714,40.635
'[11:34:15.621 07/11/2076]',363.370,41.416,25.006,-5.861,328.987,89.866,-2.344,6.642,261.392,80.488,40.244,27.350,203.175,154.725,37.509,14.847,92.601,-12.894,-24.225,18.364,-67.204,39.463,37.509
'[11:34:15.625 07/11/2076]',385.641,26.178,20.317,-0.391,347.350,84.396,-9.377,8.987,272.723,82.833,42.979,29.695,212.552,156.288,41.416,17.582,93.382,-8.596,-19.536,22.662,-78.144,46.886,41.416
'[11:34:15.629 07/11/2076]',392.283,15.238,13.675,0.391,350.476,75.409,-14.847,10.940,273.114,82.833,47.277,33.993,208.254,160.195,46.886,21.099,88.694,-6.642,-12.894,27.741,-96.899,51.966,46.886
'[11:34:15.633 07/11/2076]',394.237,12.112,8.596,-4.689,346.569,73.065,-18.755,8.596,275.067,80.879,55.092,33.602,202.002,163.712,53.529,25.006,80.098,-7.814,-7.814,28.913,-123.858,56.654,53.529
'[11:34:15.637 07/11/2076]',397.753,7.033,3.126,-7.033,348.913,67.985,-23.053,5.861,279.756,80.098,55.873,32.430,197.314,163.712,57.827,28.523,78.144,-10.940,-2.344,27.350,-147.302,67.985,57.827
'[11:34:15.641 07/11/2076]',397.753,0.391,-3.126,-5.470,347.350,58.217,-25.006,7.033,277.411,77.753,53.919,31.258,186.374,168.010,55.092,30.476,78.926,-16.801,3.907,24.225,-159.414,76.972,55.092
'[11:34:15.645 07/11/2076]',398.144,-5.079,-5.861,-6.252,345.397,55.482,-28.913,7.424,270.379,78.144,51.575,29.304,175.824,168.400,59.389,26.178,78.535,-22.271,6.642,27.741,-166.447,75.409,59.389
'[11:34:15.648 07/11/2076]',396.581,-18.755,-5.861,-5.861,339.145,53.529,-33.993,5.470,269.206,80.879,52.357,29.695,176.215,166.056,62.906,26.178,76.190,-17.973,6.642,30.867,-173.871,79.707,62.906
'[11:34:15.652 07/11/2076]',396.190,-29.695,-12.894,-0.391,334.457,48.840,-40.244,7.814,262.173,84.396,46.886,31.258,164.493,168.791,60.562,30.867,75.409,-20.708,13.675,31.258,-186.764,89.084,60.562
'[11:34:15.656 07/11/2076]',382.515,-44.933,-11.331,1.172,316.093,42.979,-41.416,7.814,257.094,84.005,38.681,25.788,151.600,173.089,55.092,26.178,70.720,-23.834,12.112,30.476,-182.076,92.601,55.092
'[11:34:15.660 07/11/2076]',366.105,-59.389,-8.596,-0.391,291.087,38.681,-40.635,5.861,249.670,84.005,29.695,20.317,137.534,173.089,55.873,17.192,66.422,-26.960,9.377,33.993,-185.201,96.899,55.873
'[11:34:15.664 07/11/2076]',348.913,-58.608,-8.987,-0.781,271.551,34.383,-38.681,10.549,242.247,85.177,18.755,23.053,117.216,181.685,57.436,13.675,64.860,-25.397,9.768,22.271,-189.890,113.309,57.436
'[11:34:15.668 07/11/2076]',334.847,-52.747,-12.894,-5.079,258.657,30.867,-37.509,8.987,237.949,89.475,8.205,14.457,100.024,182.857,59.780,7.424,64.078,-18.755,13.675,13.284,-201.221,123.468,59.780
'[11:34:15.672 07/11/2076]',316.093,-48.840,-16.020,-16.410,244.200,34.774,-41.416,-4.689,242.247,97.680,2.735,-1.172,92.601,175.824,73.455,-1.172,61.734,-17.973,16.801,8.205,-218.803,128.938,73.455
'[11:34:15.676 07/11/2076]',307.497,-49.621,-16.410,-23.053,240.684,35.946,-46.496,-14.066,236.386,96.508,1.954,-6.252,81.661,165.665,76.972,3.126,61.734,-25.397,17.192,5.079,-238.339,135.971,76.972
'[11:34:15.680 07/11/2076]',289.915,-57.436,-22.271,-23.443,224.664,32.039,-50.403,-21.099,218.413,94.164,2.344,-12.112,67.595,164.103,64.078,5.470,63.687,-30.085,23.053,6.642,-248.498,144.176,64.078
'[11:34:15.684 07/11/2076]',259.438,-73.846,-20.317,-19.536,193.407,26.178,-51.575,-24.615,193.797,91.038,2.735,-15.629,50.012,164.493,53.529,3.126,57.045,-42.198,21.099,8.596,-241.856,151.990,53.529
'[11:34:15.688 07/11/2076]',226.618,-80.879,-23.053,-14.847,160.195,20.708,-49.621,-25.788,165.665,87.912,1.563,-17.582,31.258,173.871,28.913,1.563,53.529,-47.668,23.834,1.954,-227.790,171.136,28.913
'[11:34:15.691 07/11/2076]',192.625,-89.475,-21.880,-8.596,127.766,20.708,-47.668,-28.913,139.096,86.740,-4.298,-18.364,7.033,177.387,13.284,4.689,53.919,-35.556,22.662,-6.642,-207.863,185.983,13.284
'[11:34:15.695 07/11/2076]',152.772,-97.289,-16.410,-5.079,92.210,25.006,-48.449,-35.946,118.388,89.084,-7.033,-16.410,-14.847,148.474,38.681,10.159,43.761,-23.053,17.192,-12.503,-196.923,166.056,38.681
'[11:34:15.699 07/11/2076]',119.170,-92.601,-8.987,-1.954,68.376,29.304,-44.933,-38.681,106.667,82.833,-3.516,-15.238,-41.416,131.673,63.687,15.629,37.900,-24.615,9.768,-28.913,-194.188,160.586,63.687
'[11:34:15.703 07/11/2076]',85.958,-99.243,-3.907,-2.344,45.714,26.569,-44.933,-47.668,91.819,71.502,-1.563,-21.099,-62.515,122.686,64.469,15.238,37.900,-25.788,4.689,-36.728,-188.718,164.103,64.469
'[11:34:15.707 07/11/2076]',38.681,-109.011,-3.126,-0.781,9.377,17.582,-49.621,-52.357,67.985,57.436,1.172,-30.085,-81.270,100.806,66.032,10.549,35.165,-28.132,3.907,-39.853,-182.857,157.851,66.032
'[11:34:15.711 07/11/2076]',-7.033,-117.607,-0.781,0.781,-27.350,8.596,-52.747,-54.310,37.118,45.714,3.516,-34.774,-109.011,79.707,72.283,7.814,30.867,-33.602,1.563,-35.946,-182.466,148.864,72.283
'[11:34:15.715 07/11/2076]',-53.529,-120.733,-3.907,1.563,-69.548,1.172,-53.529,-55.482,-8.596,30.476,3.907,-34.383,-143.004,62.125,59.389,11.331,26.178,-25.006,4.689,-37.900,-168.400,146.911,59.389
'[11:34:15.719 07/11/2076]',-98.852,-123.468,-5.079,6.252,-112.527,-3.907,-52.357,-52.357,-43.761,21.880,-0.781,-27.350,-167.228,41.026,53.919,20.708,23.443,-18.755,5.861,-46.105,-152.772,144.567,53.919
'[11:34:15.723 07/11/2076]',-136.361,-119.560,-6.252,8.987,-148.864,-7.033,-45.324,-51.575,-74.237,15.629,-4.689,-23.053,-186.374,15.238,55.873,26.178,15.238,-18.755,7.033,-54.310,-135.580,133.626,55.873
'[11:34:15.727 07/11/2076]',-173.871,-110.965,-6.252,9.768,-191.844,-19.145,-27.741,-41.026,-129.719,11.722,-5.079,-10.940,-217.631,15.629,42.979,23.443,7.424,-20.317,7.033,-73.455,-108.620,143.785,42.979
'[11:34:15.730 07/11/2076]',-206.300,-112.137,-5.079,8.596,-222.320,-21.880,-28.132,-42.198,-129.719,1.563,-4.298,-16.801,-204.737,15.629,27.350,10.940,1.954,-24.225,5.861,-76.581,-86.740,152.772,27.350
'[11:34:15.734 07/11/2076]',-235.604,-107.057,-6.642,2.735,-239.902,-30.476,-30.085,-45.324,-144.957,-12.503,-7.424,-20.317,-207.473,-24.225,40.244,3.516,-10.159,-24.225,7.424,-71.893,-73.846,123.077,40.244
'[11:34:15.738 07/11/2076]',-260.220,-96.117,-14.066,4.298,-256.313,-39.072,-31.648,-38.681,-166.838,-31.258,-11.722,-20.708,-228.181,-49.231,44.542,0.000,-23.834,-28.913,14.847,-78.144,-69.158,111.746,44.542
'[11:34:15.742 07/11/2076]',-290.305,-100.024,-12.112,5.079,-275.849,-38.291,-42.979,-40.635,-169.963,-46.496,-18.755,-25.788,-235.995,-66.422,41.026,-1.954,-30.476,-22.662,12.894,-67.985,-66.032,108.620,41.026
'[11:34:15.746 07/11/2076]',-317.265,-103.932,-16.410,5.079,-294.212,-43.370,-46.886,-46.886,-178.559,-58.217,-24.615,-26.960,-240.684,-87.131,34.774,1.563,-41.026,-10.549,17.192,-62.515,-51.966,93.382,34.774
'[11:34:15.750 07/11/2076]',-336.020,-111.746,-9.377,14.457,-312.576,-44.933,-43.370,-40.244,-207.863,-55.873,-26.178,-22.662,-260.220,-89.475,35.165,-0.391,-49.231,-6.642,10.159,-65.250,-33.993,98.071,35.165
'[11:34:15.754 07/11/2076]',-352.430,-116.044,-9.768,18.364,-321.172,-53.919,-40.244,-43.370,-227.009,-54.310,-23.053,-28.132,-272.332,-77.363,18.755,-3.126,-44.933,-17.582,10.549,-70.330,-17.973,110.574,18.755
'[11:34:15.758 07/11/2076]',-368.449,-112.137,-16.801,20.708,-325.861,-61.734,-39.072,-48.449,-243.028,-55.873,-21.490,-35.165,-283.272,-94.554,25.006,-4.298,-41.416,-19.927,17.582,-73.065,-7.033,91.819,25.006
'[11:34:15.762 07/11/2076]',-378.608,-110.965,-13.675,23.443,-325.079,-65.250,-42.589,-46.496,-264.127,-56.654,-22.662,-31.648,-304.371,-98.852,27.350,-1.563,-36.337,-41.807,14.457,-72.674,-1.954,84.786,27.350
'[11:34:15.766 07/11/2076]',-394.628,-97.289,-15.629,25.006,-330.159,-67.595,-42.979,-41.416,-268.034,-59.780,-17.582,-27.350,-304.371,-104.322,30.867,2.344,-40.244,-50.403,16.410,-79.316,-1.172,73.846,30.867
'[11:34:15.770 07/11/2076]',-407.912,-102.759,-15.238,23.053,-342.271,-58.217,-53.138,-48.449,-245.763,-63.687,-20.317,-35.165,-280.147,-113.700,26.178,0.000,-45.714,-42.979,16.020,-69.158,1.172,62.515,26.178
'[11:34:15.773 07/11/2076]',-402.051,-100.024,-11.722,19.145,-332.894,-53.138,-54.310,-53.138,-243.028,-66.032,-17.192,-37.900,-269.206,-101.587,9.377,-4.689,-48.059,-35.165,12.503,-70.720,7.033,78.535,9.377
'[11:34:15.777 07/11/2076]',-391.111,-91.038,-5.861,22.662,-327.424,-44.542,-49.231,-42.589,-252.015,-61.343,-8.205,-33.602,-253.187,-117.216,19.927,-7.033,-50.794,-28.523,6.642,-77.363,14.066,67.985,19.927
'[11:34:15.781 07/11/2076]',-377.436,-72.674,-9.377,16.410,-312.186,-42.589,-40.244,-46.496,-253.187,-58.999,-9.377,-36.337,-239.121,-135.580,28.132,-12.112,-47.277,-16.410,10.159,-92.210,26.960,55.482,28.132
'[11:34:15.785 07/11/2076]',-373.138,-63.687,3.907,17.973,-315.311,-24.615,-33.602,-39.072,-275.849,-51.575,-11.722,-36.337,-247.326,-132.454,17.192,-14.457,-37.118,-14.847,-3.126,-97.680,42.589,60.562,17.192
'[11:34:15.789 07/11/2076]',-366.886,-53.138,9.377,23.834,-312.967,-17.973,-23.834,-30.476,-243.810,-44.151,-19.536,-33.211,-220.366,-128.547,23.834,-16.801,-30.476,-24.615,-8.596,-110.574,57.827,50.794,23.834
'[11:34:15.793 07/11/2076]',-353.211,-51.966,16.801,17.973,-309.841,0.000,-24.615,-34.774,-225.836,-42.979,-23.053,-37.900,-215.287,-122.686,31.258,-24.615,-31.648,-19.145,-16.020,-108.230,62.125,39.072,31.258
'[11:34:15.797 07/11/2076]',-338.755,-53.138,20.317,8.205,-301.245,14.457,-29.695,-45.324,-216.459,-42.589,-18.364,-47.668,-205.519,-111.355,24.615,-34.383,-33.602,-0.391,-19.536,-100.024,59.780,41.807,24.615
'[11:34:15.801 07/11/2076]',-323.907,-44.542,17.192,12.112,-280.147,14.457,-32.039,-39.853,-203.565,-50.403,-11.722,-41.416,-196.923,-115.263,27.350,-23.834,-42.979,6.252,-16.410,-98.462,48.449,35.946,27.350
'[11:34:15.805 07/11/2076]',-316.484,-17.582,19.536,2.344,-255.140,11.331,-27.350,-39.463,-203.175,-48.840,-7.424,-37.118,-189.109,-96.899,9.768,-22.662,-50.012,3.126,-18.755,-104.322,43.370,53.138,9.768
'[11:34:15.809 07/11/2076]',-304.371,4.689,22.271,2.735,-225.836,7.814,-21.490,-32.039,-218.022,-42.589,-7.814,-30.476,-192.625,-113.700,20.708,-15.238,-44.542,3.516,-21.490,-110.965,48.059,36.728,20.708
'[11:34:15.813 07/11/2076]',-302.027,14.066,25.397,7.033,-224.274,14.457,-16.020,-26.569,-210.208,-42.589,-8.987,-19.536,-191.844,-104.713,18.755,-6.252,-40.244,-7.814,-24.615,-104.322,47.668,35.946,18.755
'[11:34:15.816 07/11/2076]',-302.027,18.364,29.304,7.424,-218.803,14.847,-12.894,-26.960,-187.937,-46.886,-12.112,-14.847,-182.076,-86.349,7.814,-3.907,-42.198,-15.238,-28.523,-100.024,53.138,42.979,7.814
'[11:34:15.820 07/11/2076]',-297.729,14.847,33.602,0.781,-213.724,14.847,-9.768,-36.728,-177.387,-52.747,-14.847,-20.708,-173.480,-95.726,16.410,-15.238,-38.681,-20.317,-32.821,-94.164,61.734,32.430,16.410
'[11:34:15.824 07/11/2076]',-298.510,9.377,35.165,-1.172,-218.022,17.973,-6.252,-46.496,-160.977,-62.515,-15.238,-27.741,-155.116,-101.587,8.987,-20.708,-41.807,-9.768,-34.383,-91.038,66.422,36.728,8.987
'[11:34:15.828 07/11/2076]',-302.808,-1.172,46.886,-6.642,-230.916,17.582,1.172,-50.403,-161.368,-67.204,-11.722,-27.741,-147.692,-117.607,19.927,-24.615,-49.231,-2.344,-46.105,-85.568,68.376,25.006,19.927
'[11:34:15.832 07/11/2076]',-299.683,8.596,43.370,-16.020,-224.274,15.238,1.954,-55.873,-162.540,-65.641,-7.814,-33.602,-141.441,-123.858,28.132,-33.602,-51.184,-0.781,-42.589,-92.991,69.158,19.536,28.132
'[11:34:15.836 07/11/2076]',-279.365,0.391,36.337,-21.490,-209.426,16.410,-4.689,-64.860,-169.182,-60.171,-11.331,-42.979,-146.911,-131.282,31.258,-39.072,-49.621,-7.424,-35.556,-83.614,65.250,10.940,31.258
'[11:34:15.840 07/11/2076]',-262.564,-3.516,28.132,-26.569,-194.579,9.768,-9.377,-69.548,-146.520,-54.310,-18.364,-50.403,-133.626,-116.044,21.099,-41.807,-51.184,-19.927,-27.350,-79.707,59.389,16.410,21.099
'[11:34:15.844 07/11/2076]',-256.313,4.298,22.662,-32.039,-182.857,5.470,-10.549,-71.111,-131.673,-58.999,-23.443,-51.184,-139.096,-94.945,14.066,-47.277,-54.310,-30.476,-21.880,-80.488,56.264,25.397,14.066
'[11:34:15.848 07/11/2076]',-250.061,7.814,25.397,-35.556,-175.433,0.391,-3.907,-71.893,-127.375,-57.045,-26.960,-49.231,-130.501,-96.117,10.940,-47.277,-51.966,-32.821,-24.615,-81.270,62.125,20.317,10.940
'[11:34:15.852 07/11/2076]',-252.015,8.205,31.258,-28.132,-180.122,-6.252,7.424,-59.780,-127.375,-61.734,-31.258,-37.509,-127.766,-82.442,-12.503,-36.728,-52.747,-18.755,-30.476,-91.038,75.800,31.258,-12.503
'[11:34:15.855 07/11/2076]',-258.266,8.987,34.383,-24.225,-193.797,-7.424,17.582,-53.138,-139.878,-66.813,-26.960,-33.211,-142.222,-70.330,-21.099,-34.383,-52.747,-11.722,-33.602,-94.164,87.912,31.258,-21.099
'[11:34:15.859 07/11/2076]',-245.372,12.503,30.476,-29.304,-179.341,-13.284,19.536,-56.264,-109.402,-66.813,-19.145,-39.072,-106.667,-73.065,-17.973,-38.291,-48.059,-3.126,-29.695,-86.349,87.521,20.708,-17.973
'[11:34:15.863 07/11/2076]',-237.949,3.516,17.582,-26.178,-181.685,-17.973,15.629,-57.045,-104.322,-65.641,-15.238,-33.602,-94.554,-62.906,-30.867,-31.258,-52.357,5.861,-16.801,-69.158,76.190,28.523,-30.867
'[11:34:15.867 07/11/2076]',-227.399,3.516,12.503,-24.225,-181.294,-11.331,10.940,-52.357,-100.024,-65.250,-11.331,-30.867,-90.647,-75.018,-15.629,-28.523,-58.999,5.079,-11.722,-69.548,76.972,14.066,-15.629
'[11:34:15.871 07/11/2076]',-219.585,4.689,2.735,-16.020,-177.778,-14.066,12.112,-46.886,-95.726,-56.654,-10.940,-35.946,-83.223,-76.972,-7.814,-32.821,-57.045,2.344,-1.954,-66.422,76.190,8.987,-7.814
'[11:34:15.875 07/11/2076]',-218.022,10.549,-4.298,-9.377,-180.513,-18.364,17.192,-38.681,-114.481,-46.496,-12.503,-33.602,-89.866,-67.204,-20.708,-30.476,-55.873,10.159,5.079,-68.376,80.098,21.880,-20.708
'[11:34:15.879 07/11/2076]',-210.598,5.470,0.781,1.954,-175.433,-19.536,21.099,-26.960,-128.938,-44.151,-13.284,-27.741,-101.197,-78.144,-10.159,-26.569,-54.701,20.317,0.000,-62.906,90.256,9.377,-10.159
'[11:34:15.883 07/11/2076]',-209.817,-2.344,5.079,8.205,-180.122,-20.708,23.443,-19.145,-125.812,-43.370,-11.722,-30.867,-96.508,-74.628,-12.894,-29.304,-56.654,19.927,-4.298,-50.012,90.647,8.987,-12.894
'[11:34:15.887 07/11/2076]',-212.161,-12.503,15.629,3.516,-185.983,-24.225,24.225,-17.582,-109.792,-46.105,-13.284,-32.430,-76.581,-72.283,-19.536,-33.602,-56.264,19.927,-14.847,-37.509,87.521,19.536,-19.536
'[11:34:15.891 07/11/2076]',-205.910,-15.629,13.675,4.298,-181.685,-25.006,17.973,-12.894,-96.117,-50.794,-16.801,-35.946,-62.125,-67.204,-34.774,-36.337,-53.919,16.410,-12.894,-39.072,91.819,30.476,-34.774
'[11:34:15.895 07/11/2076]',-197.314,-16.020,8.596,5.861,-179.731,-17.973,10.940,-10.549,-91.429,-43.761,-18.755,-41.807,-54.701,-71.893,-26.178,-43.761,-50.403,-0.391,-7.814,-31.258,85.568,19.145,-26.178
'[11:34:15.898 07/11/2076]',-185.592,-7.033,-0.391,2.344,-154.725,-26.960,5.079,-12.503,-93.773,-35.946,-20.317,-46.105,-50.403,-72.283,-21.490,-52.747,-44.933,-8.987,1.172,-28.913,85.568,16.801,-21.490
'[11:34:15.902 07/11/2076]',-171.917,-3.516,-5.079,5.079,-129.328,-35.165,-1.172,-8.596,-96.899,-28.913,-25.397,-42.979,-53.529,-55.092,-33.993,-52.747,-40.244,-5.470,5.861,-23.834,84.786,23.834,-33.993
'[11:34:15.906 07/11/2076]',-166.838,-5.861,0.000,7.424,-125.421,-36.728,0.391,-1.563,-94.945,-28.132,-30.476,-40.244,-62.515,-46.496,-33.993,-51.575,-37.118,-5.861,0.781,-19.145,82.442,21.490,-33.993
'[11:34:15.910 07/11/2076]',-177.778,-4.689,-4.298,6.642,-136.361,-43.370,0.781,0.781,-98.462,-26.960,-30.085,-37.118,-63.297,-46.886,-25.788,-58.217,-35.556,-5.861,5.079,-21.490,85.958,16.020,-25.788
'[11:34:15.914 07/11/2076]',-180.122,-10.940,-5.861,6.252,-145.739,-53.919,2.344,7.424,-87.521,-32.430,-30.085,-29.304,-51.966,-33.993,-36.728,-57.436,-34.774,-1.954,6.642,-24.225,84.005,28.523,-36.728
'[11:34:15.918 07/11/2076]',-185.592,-14.066,-8.987,8.205,-162.930,-49.231,1.563,11.722,-84.786,-37.118,-28.132,-30.476,-50.012,-36.728,-35.165,-60.171,-33.602,-8.987,9.768,-30.085,88.303,25.006,-35.165
'[11:34:15.922 07/11/2076]',-186.764,-3.907,-24.615,2.735,-162.540,-53.529,0.781,3.516,-89.475,-41.416,-21.880,-34.774,-50.012,-52.747,-16.801,-68.767,-32.430,-15.238,25.397,-36.337,83.223,12.503,-16.801
'[11:34:15.926 07/11/2076]',-164.493,-14.847,-14.847,2.344,-136.361,-48.059,-5.470,0.000,-89.084,-50.794,-15.629,-32.039,-49.231,-55.482,-21.490,-62.515,-37.900,-12.503,15.629,-19.536,75.018,15.238,-21.490
'[11:34:15.930 07/11/2076]',-156.288,-16.410,-3.907,3.516,-121.123,-41.026,-7.424,-0.781,-94.554,-57.045,-8.205,-28.132,-66.813,-53.138,-16.020,-52.747,-41.807,-4.689,4.689,-10.940,69.939,10.549,-16.020
'[11:34:15.934 07/11/2076]',-154.335,-11.331,0.781,4.689,-106.276,-40.244,-8.596,-2.735,-87.131,-62.125,0.000,-23.834,-73.846,-69.548,13.284,-45.714,-45.714,-5.079,0.000,-8.596,62.906,-11.722,13.284
'[11:34:15.938 07/11/2076]',-150.037,-8.205,5.079,6.252,-96.117,-37.118,-9.377,-1.954,-57.045,-68.376,2.735,-21.490,-58.608,-79.316,29.695,-35.946,-43.370,-8.596,-4.298,-7.033,52.747,-22.662,29.695
'[11:34:15.941 07/11/2076]',-150.818,-4.689,11.722,4.689,-100.806,-32.039,-6.642,3.126,-48.059,-67.204,3.907,-21.099,-64.469,-78.535,41.026,-32.430,-34.774,-0.781,-10.940,-14.457,44.542,-23.443,41.026
'[11:34:15.945 07/11/2076]',-157.851,-2.735,11.722,5.079,-112.527,-30.085,-6.252,7.033,-55.873,-61.343,3.126,-14.457,-71.893,-89.084,57.827,-26.960,-28.132,4.689,-10.940,-15.629,41.807,-37.900,57.827
'[11:34:15.949 07/11/2076]',-162.149,-5.079,12.894,7.033,-119.560,-31.258,-4.298,10.159,-62.906,-58.999,3.516,-10.159,-75.409,-100.024,65.641,-20.317,-27.741,12.894,-12.112,-15.238,36.337,-43.370,65.641
'[11:34:15.953 07/11/2076]',-161.758,-9.768,8.596,10.159,-121.123,-33.993,-5.861,10.940,-86.740,-44.933,-1.172,-10.159,-92.601,-96.508,58.999,-14.066,-23.834,10.940,-7.814,-15.629,29.695,-37.509,58.999
'[11:34:15.957 07/11/2076]',-153.944,-15.238,12.112,11.722,-105.885,-35.946,-6.642,5.861,-86.349,-36.337,-2.735,-12.894,-91.038,-99.243,59.389,-9.768,-18.364,3.907,-11.331,-12.112,32.039,-38.681,59.389
'[11:34:15.961 07/11/2076]',-151.990,-15.629,12.894,14.066,-99.243,-34.383,-8.596,3.907,-74.628,-34.383,1.172,-14.847,-85.958,-102.369,72.283,-8.205,-17.582,-5.861,-12.112,-6.642,22.662,-43.761,72.283
'[11:34:15.965 07/11/2076]',-141.441,-16.020,12.503,14.457,-99.634,-23.053,-8.987,3.907,-64.469,-34.383,3.907,-10.940,-84.786,-92.210,72.674,-3.126,-17.192,-7.424,-11.722,-4.298,11.331,-36.337,72.674
'[11:34:15.969 07/11/2076]',-135.580,-25.788,12.112,19.145,-111.355,-15.629,-8.205,7.424,-61.343,-33.602,1.954,-7.814,-78.144,-84.005,61.343,-1.172,-20.317,0.391,-11.331,-0.781,18.364,-29.695,61.343
'[11:34:15.973 07/11/2076]',-141.050,-30.867,8.596,24.225,-117.216,-25.006,-3.516,8.987,-62.906,-32.821,1.954,-8.205,-77.753,-90.647,66.813,-2.344,-25.788,9.377,-7.814,-1.563,26.569,-33.993,66.813
'[11:34:15.977 07/11/2076]',-129.328,-30.867,2.344,28.132,-106.276,-35.165,0.781,12.112,-54.701,-30.476,-1.563,-8.205,-71.111,-92.991,69.939,-2.735,-28.132,13.284,-1.563,-10.159,39.072,-38.681,69.939
'[11:34:15.980 07/11/2076]',-107.057,-35.165,11.331,23.443,-73.455,-44.151,3.126,8.987,-42.589,-23.053,-2.735,-15.238,-57.045,-85.568,63.297,-5.470,-27.350,17.973,-10.549,-10.159,50.403,-32.430,63.297
'[11:34:15.984 07/11/2076]',-102.369,-25.006,14.457,15.238,-54.701,-50.794,7.424,1.954,-30.085,-19.145,1.563,-25.397,-50.794,-66.422,56.654,-12.894,-29.304,17.582,-13.675,-8.987,50.012,-22.271,56.654
'[11:34:15.988 07/11/2076]',-101.587,-25.397,8.987,7.814,-59.389,-46.886,1.172,-3.126,-30.476,-26.960,1.172,-29.304,-55.873,-57.827,42.979,-15.629,-36.728,9.377,-8.205,0.781,39.072,-16.020,42.979
'[11:34:15.992 07/11/2076]',-98.462,-26.178,3.126,1.172,-68.376,-41.416,-1.172,-7.033,-36.337,-27.350,-1.172,-28.523,-53.919,-45.324,21.099,-17.582,-40.635,8.596,-2.344,7.033,32.821,-4.298,21.099
'[11:34:15.996 07/11/2076]',-105.495,-27.350,-11.722,0.391,-90.256,-37.900,-6.642,-7.814,-46.496,-30.476,-2.735,-25.006,-50.794,-36.728,0.391,-19.536,-49.621,10.940,12.503,13.284,28.132,2.735,0.391
'[11:34:16.000 07/11/2076]',-109.402,-26.960,-17.192,1.172,-96.117,-37.900,-11.331,-5.470,-59.780,-41.416,-3.907,-23.443,-62.125,-51.575,4.298,-21.880,-58.608,8.596,17.973,11.331,37.118,-8.987,4.298
'[11:34:16.004 07/11/2076]',-104.713,-18.755,-9.768,-0.781,-80.488,-37.118,-11.331,-3.126,-41.416,-28.523,-7.424,-28.132,-33.602,-50.794,5.861,-29.304,-56.264,-1.954,10.549,1.563,49.621,-6.252,5.861
'[11:34:16.008 07/11/2076]',-107.839,-12.503,-9.377,-2.735,-76.190,-39.463,-11.722,-3.907,-36.337,-23.834,-15.238,-35.165,-28.913,-48.059,1.563,-37.118,-53.529,-10.549,10.159,-1.563,59.389,-2.344,1.563
'[11:34:16.012 07/11/2076]',-121.905,-8.205,-10.549,-6.642,-84.396,-44.151,-11.722,-5.079,-42.198,-26.960,-22.271,-37.118,-34.774,-52.747,0.781,-43.370,-54.701,-14.066,11.331,-1.172,72.674,-8.987,0.781
'[11:34:16.016 07/11/2076]',-126.203,-5.861,-11.331,-10.940,-88.303,-46.496,-11.331,-7.033,-48.059,-25.397,-27.741,-38.291,-32.821,-49.621,-9.377,-50.403,-57.436,-28.132,12.112,-3.516,84.005,-4.298,-9.377
'[11:34:16.020 07/11/2076]',-128.547,-3.126,-12.503,-11.331,-91.038,-44.933,-9.377,-9.768,-45.324,-25.006,-36.728,-39.072,-26.178,-40.635,-29.695,-50.794,-60.171,-24.615,13.284,-7.814,98.462,8.596,-29.695
'[11:34:16.023 07/11/2076]',-129.719,14.457,-16.801,-10.159,-76.972,-43.761,-8.205,-11.331,-43.761,-25.788,-39.853,-42.589,-17.582,-35.165,-48.840,-52.747,-61.343,-19.145,17.582,-20.708,119.170,16.410,-48.840
'[11:34:16.027 07/11/2076]',-139.878,27.350,-13.284,-6.642,-80.488,-30.867,-10.159,-8.596,-46.496,-25.788,-42.198,-40.244,-7.814,-29.304,-64.078,-54.701,-66.032,-23.443,14.066,-24.225,136.361,24.225,-64.078
'[11:34:16.031 07/11/2076]',-152.772,31.258,-10.940,-4.689,-89.475,-26.960,-10.549,-7.424,-55.092,-35.165,-41.026,-39.072,-2.735,-38.291,-73.455,-57.436,-67.985,-19.145,11.722,-27.350,159.805,19.145,-73.455
'[11:34:16.035 07/11/2076]',-171.526,40.635,-12.112,-1.563,-99.634,-24.615,-10.159,-6.642,-65.250,-43.370,-44.933,-40.244,-3.907,-45.714,-84.786,-60.562,-66.422,-18.755,12.894,-33.602,186.764,14.457,-84.786
'[11:34:16.039 07/11/2076]',-185.592,45.324,-16.801,0.781,-109.402,-24.615,-10.549,-7.814,-76.190,-51.575,-52.357,-40.244,-5.861,-46.496,-100.024,-69.158,-69.158,-16.801,17.582,-40.244,214.896,17.192,-100.024
'[11:34:16.043 07/11/2076]',-185.201,44.933,-10.549,-7.033,-105.495,-26.569,-6.642,-16.410,-79.316,-54.701,-48.059,-46.105,-1.172,-46.105,-102.369,-80.488,-71.893,-12.894,11.331,-49.621,240.293,14.847,-102.369
'[11:34:16.047 07/11/2076]',-184.029,57.827,-3.907,-8.596,-92.210,-19.145,-3.907,-21.099,-75.800,-53.138,-46.496,-49.231,9.768,-45.324,-112.527,-78.926,-69.548,-0.781,4.689,-53.529,255.531,14.457,-112.527
'[11:34:16.051 07/11/2076]',-184.420,53.919,-8.596,-7.814,-92.991,-16.801,-9.377,-25.397,-77.753,-55.482,-45.714,-46.496,19.145,-47.668,-126.203,-72.674,-76.581,-4.298,9.377,-44.151,254.359,10.159,-126.203
'[11:34:16.055 07/11/2076]',-190.281,50.794,-9.768,-10.159,-98.462,-22.271,-12.503,-24.225,-93.382,-57.827,-42.198,-46.105,18.755,-54.310,-133.626,-72.283,-75.018,-11.722,10.549,-37.509,254.750,1.563,-133.626
'[11:34:16.059 07/11/2076]',-196.923,43.761,-10.159,-9.377,-106.667,-24.615,-14.847,-23.834,-104.713,-57.436,-42.589,-46.496,18.755,-61.343,-143.394,-67.595,-66.422,-15.238,10.940,-26.178,254.750,-5.470,-143.394
'[11:34:16.063 07/11/2076]',-197.314,46.105,-15.238,-5.079,-108.620,-23.834,-15.629,-20.317,-109.792,-54.701,-44.151,-40.635,16.410,-58.999,-148.083,-61.343,-60.562,-12.112,16.020,-23.443,252.405,-5.470,-148.083
'[11:34:16.066 07/11/2076]',-191.453,53.529,-16.410,-5.079,-102.759,-21.880,-13.675,-17.973,-108.620,-53.138,-40.635,-36.337,16.020,-49.231,-149.646,-58.999,-55.482,-15.238,17.192,-30.085,255.531,0.000,-149.646
'[11:34:16.070 07/11/2076]',-183.639,56.264,-9.377,-3.907,-98.462,-17.192,-8.987,-13.284,-98.462,-50.794,-40.244,-37.509,21.099,-41.026,-153.553,-56.264,-46.886,-18.755,10.159,-35.165,257.485,3.907,-153.553
'[11:34:16.074 07/11/2076]',-184.029,49.231,-10.159,-0.781,-101.587,-15.629,-11.331,-14.066,-90.647,-49.621,-44.151,-40.635,22.271,-41.416,-155.897,-53.138,-44.151,-24.615,10.940,-30.085,255.531,1.954,-155.897
'[11:34:16.078 07/11/2076]',-182.466,46.105,-5.079,-2.344,-102.759,-17.973,-11.331,-9.377,-87.521,-50.012,-45.324,-35.165,21.880,-42.198,-151.209,-48.840,-49.231,-24.225,5.861,-24.225,248.498,-3.907,-151.209
'[11:34:16.082 07/11/2076]',-173.480,36.337,1.954,-6.252,-98.071,-20.708,-10.159,-7.424,-86.740,-48.449,-44.151,-37.118,19.536,-33.993,-156.288,-48.059,-50.012,-23.834,-1.172,-11.331,238.339,-2.735,-156.288
'[11:34:16.086 07/11/2076]',-166.056,31.258,2.735,-9.377,-92.601,-21.490,-10.159,-13.675,-80.488,-39.072,-46.105,-44.151,23.443,-31.648,-158.242,-44.933,-41.807,-23.053,-1.954,-2.344,225.055,0.391,-158.242
'[11:34:16.090 07/11/2076]',-159.023,32.039,8.205,-8.987,-85.177,-21.490,-5.470,-11.722,-82.442,-32.430,-46.496,-42.198,15.629,-27.741,-156.288,-37.900,-31.648,-21.490,-7.424,-4.298,218.803,7.424,-156.288
'[11:34:16.094 07/11/2076]',-159.805,33.602,18.755,-4.689,-85.958,-23.443,0.781,-0.781,-81.661,-22.662,-42.589,-40.244,16.020,-18.755,-154.725,-32.430,-19.536,-30.867,-17.973,-9.377,216.068,18.364,-154.725
'[11:34:16.098 07/11/2076]',-159.805,34.774,19.927,-1.563,-88.694,-20.317,3.907,0.781,-71.111,-18.364,-41.026,-43.761,19.145,-33.993,-130.501,-30.867,-6.642,-33.211,-19.145,-16.410,211.770,7.814,-130.501
'[11:34:16.102 07/11/2076]',-163.321,32.039,20.708,9.377,-85.177,-29.304,4.298,12.112,-73.846,-15.629,-49.231,-40.244,3.126,-40.635,-116.044,-27.741,-7.033,-29.695,-19.927,-23.053,215.287,4.689,-116.044
'[11:34:16.105 07/11/2076]',-157.070,38.681,17.582,11.331,-79.316,-30.085,8.205,15.629,-38.681,-14.847,-48.059,-44.933,21.490,-29.695,-108.230,-32.039,-7.814,-30.867,-16.801,-32.821,212.552,8.205,-108.230
'[11:34:16.109 07/11/2076]',-136.361,31.648,24.225,6.252,-57.045,-24.225,7.424,3.126,-20.708,-14.066,-41.416,-58.217,22.271,-21.490,-98.852,-39.072,-5.079,-26.960,-23.443,-18.364,199.658,4.689,-98.852
'[11:34:16.113 07/11/2076]',-123.468,28.913,22.271,5.861,-40.244,-20.317,4.298,-5.470,-16.020,-11.722,-32.821,-58.217,17.582,-16.801,-92.210,-30.085,-6.642,-12.894,-21.490,-12.503,185.592,5.470,-92.210
'[11:34:16.117 07/11/2076]',-120.342,31.648,31.258,3.516,-36.337,-14.457,6.642,-5.861,-11.722,-9.377,-20.708,-58.999,17.582,-14.457,-82.442,-23.834,-8.987,-8.987,-30.476,-11.722,173.480,3.516,-82.442
'[11:34:16.121 07/11/2076]',-115.653,28.132,32.821,3.126,-29.695,-11.722,5.861,-12.894,-13.675,-7.814,-14.457,-64.078,13.284,-19.927,-73.065,-23.053,-5.470,-10.940,-32.039,-10.940,168.010,-1.954,-73.065
'[11:34:16.125 07/11/2076]',-111.355,26.960,22.271,1.954,-25.788,-11.331,1.954,-21.490,-14.457,-6.252,-16.801,-66.032,10.549,-24.225,-71.502,-19.927,-2.735,-5.470,-21.490,-14.847,163.712,-3.907,-71.502
'[11:34:16.129 07/11/2076]',-110.574,31.648,17.192,-0.781,-25.006,-13.284,1.563,-23.443,-11.331,-6.252,-19.536,-61.734,10.940,-25.788,-69.158,-17.582,-1.172,-1.563,-16.410,-20.708,157.851,-3.907,-69.158
'[11:34:16.133 07/11/2076]',-100.024,22.271,14.457,-4.298,-17.973,-9.768,-2.735,-32.430,-12.112,-10.159,-19.927,-61.343,9.377,-25.397,-72.674,-17.192,-3.516,-5.470,-13.675,-15.629,153.162,-4.689,-72.674
'[11:34:16.137 07/11/2076]',-89.475,23.443,8.205,-11.331,-12.112,-5.079,-4.298,-44.151,-10.940,-10.940,-20.317,-67.204,9.377,-16.801,-87.521,-17.192,-4.689,-5.079,-7.424,-17.973,142.613,7.424,-87.521
'[11:34:16.141 07/11/2076]',-82.051,23.834,14.847,-16.410,-0.781,-3.516,-4.298,-47.277,-9.768,-7.814,-20.708,-68.767,12.503,-31.648,-71.893,-17.973,-9.377,-0.781,-14.066,-22.271,133.236,1.954,-71.893
'[11:34:16.145 07/11/2076]',-75.800,23.834,17.973,-19.536,2.344,-0.391,-3.516,-49.231,-14.457,-8.596,-17.192,-68.376,6.252,-41.026,-59.780,-16.801,-17.582,-1.954,-17.192,-18.364,119.951,-9.377,-59.780
'[11:34:16.148 07/11/2076]',-68.767,24.225,16.801,-23.053,12.894,-1.563,-3.907,-55.873,-13.675,-12.894,-14.066,-65.250,4.298,-42.589,-54.701,-13.675,-26.569,2.344,-16.020,-17.582,110.574,-11.331,-54.701
'[11:34:16.152 07/11/2076]',-60.562,28.913,9.768,-20.317,23.053,-5.861,-1.954,-55.482,-8.987,-15.629,-21.099,-54.310,3.126,-49.231,-55.092,-1.172,-31.648,5.470,-8.987,-23.053,96.508,-11.722,-55.092
'[11:34:16.156 07/11/2076]',-51.966,28.132,10.940,-14.847,27.350,-7.814,3.516,-48.449,-5.079,-21.490,-26.569,-42.198,-2.344,-38.291,-66.422,9.768,-33.211,8.205,-10.159,-30.476,90.647,-0.391,-66.422
'[11:34:16.160 07/11/2076]',-43.761,25.006,7.424,-13.675,23.443,-8.987,10.549,-48.059,-13.284,-26.569,-26.178,-32.430,-3.126,-33.993,-77.363,13.675,-39.463,7.424,-6.642,-30.867,88.694,1.954,-77.363
'[11:34:16.164 07/11/2076]',-41.026,30.867,-0.781,-9.768,12.112,-14.457,19.536,-36.337,-13.675,-36.337,-30.867,-18.755,0.000,-55.092,-68.376,20.708,-50.012,15.238,1.563,-44.542,86.740,-14.457,-68.376
'[11:34:16.168 07/11/2076]',-41.416,21.099,-3.126,-6.642,0.781,-19.927,21.490,-31.258,-17.973,-42.979,-33.211,-19.145,-1.172,-55.482,-77.363,18.755,-59.780,15.629,3.907,-44.151,91.429,-17.582,-77.363
'[11:34:16.172 07/11/2076]',-45.324,21.490,-9.377,-10.159,-5.079,-23.053,22.271,-35.946,-26.569,-46.105,-28.523,-22.271,-5.079,-74.237,-60.171,13.284,-70.720,14.457,10.159,-36.728,85.958,-39.463,-60.171
'[11:34:16.176 07/11/2076]',-47.668,23.053,-23.834,-6.252,-7.424,-27.741,20.317,-39.463,-30.867,-48.840,-28.132,-18.364,-19.145,-77.363,-53.919,21.880,-76.972,17.973,24.615,-32.039,60.171,-39.463,-53.919
'[11:34:16.180 07/11/2076]',-45.324,21.880,-27.741,-14.457,-5.861,-25.006,15.629,-49.231,-31.648,-44.151,-28.523,-14.847,-33.211,-65.250,-50.403,26.569,-76.190,20.317,28.523,-28.132,27.350,-28.913,-50.403
'[11:34:16.184 07/11/2076]',-42.589,27.350,-26.960,-14.847,-5.470,-21.099,15.238,-45.324,-36.337,-41.416,-22.271,-5.861,-47.277,-57.045,-34.774,30.867,-74.237,17.973,27.741,-28.132,-2.344,-24.615,-34.774
'[11:34:16.188 07/11/2076]',-48.059,26.960,-41.416,-25.788,-25.788,-26.178,9.768,-45.324,-54.701,-48.059,-23.443,-2.344,-66.032,-58.608,-34.383,28.132,-76.972,10.940,42.198,-26.960,-28.132,-27.741,-34.383
'[11:34:16.191 07/11/2076]',-48.840,20.708,-44.542,-35.165,-42.589,-31.648,7.424,-39.463,-66.422,-48.449,-24.225,-1.172,-69.548,-52.747,-37.118,17.192,-77.363,10.159,45.324,-29.695,-42.589,-21.099,-37.118
'[11:34:16.195 07/11/2076]',-47.277,14.066,-40.635,-32.039,-57.045,-33.602,5.861,-19.536,-75.409,-44.933,-18.364,7.814,-67.595,-53.529,-30.476,19.536,-80.098,10.549,41.416,-25.006,-57.045,-26.960,-30.476
'[11:34:16.199 07/11/2076]',-43.370,4.298,-52.357,-32.039,-71.502,-35.946,1.563,-16.410,-89.084,-42.589,-17.973,12.503,-73.846,-46.105,-33.993,15.629,-85.568,7.033,53.138,-19.927,-67.985,-23.443,-33.993
'[11:34:16.203 07/11/2076]',-36.728,-6.642,-55.092,-27.741,-75.018,-37.118,1.563,-15.238,-92.601,-35.946,-25.006,14.066,-80.488,-29.695,-46.105,15.629,-80.879,2.344,55.873,-15.238,-81.270,-6.252,-46.105
'[11:34:16.207 07/11/2076]',-37.900,-16.801,-56.264,-22.271,-84.396,-35.946,1.954,-15.238,-89.475,-32.039,-30.476,14.847,-80.488,-39.853,-37.900,19.536,-76.190,4.689,57.045,-6.252,-85.958,-17.973,-37.900
'[11:34:16.211 07/11/2076]',-39.463,-23.834,-58.217,-19.145,-90.647,-31.648,0.000,-19.145,-82.051,-35.165,-34.383,11.331,-77.363,-43.761,-37.509,17.192,-72.283,4.298,58.999,6.642,-84.005,-24.225,-37.509
'[11:34:16.215 07/11/2076]',-43.370,-25.788,-64.469,-16.020,-101.587,-28.523,-2.344,-17.582,-91.819,-43.370,-35.946,14.457,-86.740,-51.966,-35.165,16.410,-66.422,6.642,65.250,14.066,-80.879,-30.476,-35.165
'[11:34:16.219 07/11/2076]',-50.012,-32.039,-55.482,-5.861,-117.998,-26.178,1.563,-1.172,-65.641,-39.072,-37.900,20.317,-52.357,-61.343,-30.085,20.317,-60.171,10.940,56.264,16.410,-69.548,-37.118,-30.085
'[11:34:16.223 07/11/2076]',-47.668,-28.913,-49.621,-5.079,-122.686,-23.443,5.861,7.033,-50.012,-35.165,-37.900,20.708,-36.337,-53.529,-28.913,15.238,-50.794,9.377,50.403,9.768,-63.687,-27.350,-28.913
'[11:34:16.227 07/11/2076]',-43.761,-28.913,-57.436,0.000,-127.375,-25.397,6.252,16.410,-55.092,-31.258,-39.463,30.476,-38.291,-36.728,-33.211,12.112,-41.416,-3.907,58.217,5.079,-58.608,-19.145,-33.211
'[11:34:16.230 07/11/2076]',-46.886,-32.821,-49.231,-1.172,-135.580,-25.397,11.331,19.145,-58.999,-26.960,-36.337,28.913,-41.807,-31.258,-29.695,8.596,-33.211,-2.344,50.012,7.814,-58.999,-17.192,-29.695
'[11:34:16.234 07/11/2076]',-42.979,-34.383,-48.840,-2.344,-130.110,-19.927,7.424,12.894,-63.687,-23.834,-32.821,24.615,-46.105,-29.304,-29.304,7.814,-28.132,-3.126,49.621,16.801,-60.562,-21.490,-29.304
'[11:34:16.238 07/11/2076]',-39.853,-43.761,-55.873,6.642,-120.733,-20.317,-0.781,9.377,-72.283,-26.960,-26.569,21.880,-51.575,-18.755,-44.542,9.768,-25.788,-7.814,56.654,33.211,-62.125,-13.675,-44.542
'[11:34:16.242 07/11/2076]',-41.026,-45.324,-43.761,6.252,-115.263,-21.490,0.391,11.722,-73.455,-25.788,-20.708,20.317,-50.403,-37.118,-26.569,14.066,-22.271,0.391,44.542,37.900,-60.562,-26.569,-26.569
'[11:34:16.246 07/11/2076]',-37.509,-48.059,-37.900,11.722,-108.620,-20.317,-1.954,18.364,-67.595,-23.834,-14.457,21.099,-39.463,-47.668,-15.629,16.410,-21.490,9.768,38.681,43.370,-53.138,-37.900,-15.629
'[11:34:16.250 07/11/2076]',-36.337,-51.184,-31.258,8.205,-104.322,-27.741,-2.344,23.053,-70.720,-25.006,-7.814,25.006,-38.681,-48.449,-8.205,16.020,-23.443,9.377,32.039,42.979,-49.231,-38.291,-8.205
'[11:34:16.254 07/11/2076]',-28.523,-48.059,-24.615,4.298,-96.508,-28.523,1.172,26.569,-72.674,-18.364,-6.252,21.490,-39.072,-50.012,2.344,10.159,-14.066,1.172,25.397,37.900,-49.621,-37.509,2.344
'[11:34:16.258 07/11/2076]',-27.741,-48.449,-19.536,3.126,-94.554,-25.397,1.563,25.006,-72.674,-9.377,-6.252,17.973,-33.993,-48.449,3.516,7.033,-1.563,-1.172,20.317,38.291,-45.324,-34.774,3.516
'[11:34:16.262 07/11/2076]',-35.556,-46.886,-13.675,4.298,-100.806,-22.271,4.689,25.788,-69.548,-6.642,-3.516,21.099,-26.569,-41.416,-0.391,8.987,4.298,-2.735,14.457,39.463,-43.761,-28.523,-0.391
'[11:34:16.266 07/11/2076]',-35.165,-46.886,-9.768,9.768,-93.773,-24.615,7.424,28.132,-63.297,-9.377,-2.735,25.788,-24.615,-30.867,-7.033,12.503,7.033,-5.861,10.549,37.900,-37.118,-19.145,-7.033
'[11:34:16.270 07/11/2076]',-47.277,-41.026,-11.331,15.629,-96.899,-23.443,5.861,28.913,-50.403,-18.364,-3.126,27.741,-17.582,-28.913,-16.020,17.973,7.814,-3.126,12.112,33.602,-23.834,-14.457,-16.020
'[11:34:16.273 07/11/2076]',-37.900,-42.589,-8.205,14.457,-82.051,-21.880,3.516,25.006,-41.807,-30.476,-2.735,25.397,-16.801,-39.463,-15.238,22.271,0.781,5.861,8.987,39.853,-22.271,-23.443,-15.238
'[11:34:16.277 07/11/2076]',-32.430,-43.761,-9.377,16.801,-73.455,-23.834,0.391,27.741,-38.681,-37.118,-7.424,27.350,-25.006,-50.012,-7.033,25.006,-7.814,6.252,10.159,38.681,-19.145,-34.383,-7.033
'[11:34:16.281 07/11/2076]',-32.821,-39.072,-11.331,16.020,-67.595,-24.615,-1.954,26.960,-34.774,-41.416,-10.549,23.443,-25.006,-56.654,-5.470,22.662,-8.596,5.470,12.112,35.946,-12.503,-41.026,-5.470
'[11:34:16.285 07/11/2076]',-37.509,-39.072,-7.033,15.238,-65.250,-26.178,-3.907,26.960,-34.383,-41.026,-18.364,18.755,-25.006,-59.389,-11.331,20.317,-10.940,5.470,7.814,33.993,-3.516,-39.463,-11.331
'[11:34:16.289 07/11/2076]',-50.012,-39.463,-1.954,19.927,-69.939,-33.993,-3.907,36.728,-30.867,-41.416,-30.476,20.317,-25.006,-50.794,-23.443,16.801,-10.940,-2.735,2.735,23.053,11.331,-26.178,-23.443
'[11:34:16.293 07/11/2076]',-58.999,-34.383,-0.781,15.629,-71.111,-39.072,-2.735,33.993,-28.132,-42.589,-30.476,14.847,-21.099,-37.900,-29.695,2.735,-11.331,-14.066,1.563,17.582,24.615,-16.020,-29.695
'[11:34:16.297 07/11/2076]',-57.436,-30.867,-5.079,9.768,-62.125,-38.291,-6.642,23.443,-27.741,-43.370,-29.304,8.596,-21.099,-45.714,-23.053,-0.781,-12.894,-7.814,5.861,19.927,26.960,-25.788,-23.053
'[11:34:16.301 07/11/2076]',-53.919,-33.993,-3.516,13.675,-57.827,-37.118,-9.377,26.569,-26.178,-44.542,-24.615,14.066,-23.053,-66.422,1.954,4.689,-24.615,-4.298,4.298,27.350,18.364,-48.059,1.954
'[11:34:16.305 07/11/2076]',-49.231,-30.085,-10.940,15.629,-51.966,-40.244,-8.987,26.569,-30.867,-46.496,-14.847,20.317,-22.271,-68.376,12.503,5.470,-29.304,-2.735,11.722,23.443,15.238,-51.184,12.503
'[11:34:16.309 07/11/2076]',-43.370,-30.867,-10.940,16.020,-47.668,-37.509,-8.987,25.397,-44.933,-37.900,-8.596,25.397,-22.271,-66.032,10.940,10.549,-28.132,5.861,11.722,25.788,13.675,-50.403,10.940
'[11:34:16.313 07/11/2076]',-44.542,-29.304,6.642,19.927,-51.184,-32.039,-3.907,40.635,-54.701,-30.085,-0.391,41.416,-18.364,-58.999,14.457,17.973,-26.178,17.582,-5.861,28.132,10.549,-43.370,14.457
'[11:34:16.316 07/11/2076]',-46.496,-27.350,10.940,21.099,-57.827,-30.085,-0.781,47.277,-59.389,-30.867,7.033,49.231,-14.847,-42.198,1.954,21.099,-28.913,19.927,-10.159,26.960,9.768,-28.913,1.954
'[11:34:16.320 07/11/2076]',-43.761,-21.880,12.894,17.192,-54.310,-28.913,0.781,46.886,-61.343,-23.834,10.549,46.496,-17.192,-31.648,5.861,15.238,-22.662,16.801,-12.112,24.615,13.284,-29.304,5.861
'[11:34:16.324 07/11/2076]',-44.542,-26.178,22.271,19.927,-56.264,-28.913,4.298,51.966,-65.641,-18.364,11.331,49.621,-25.006,-43.370,26.569,19.145,-17.192,20.708,-21.490,24.225,14.847,-44.933,26.569
'[11:34:16.328 07/11/2076]',-43.370,-35.556,24.615,26.178,-51.966,-30.085,0.781,53.138,-58.999,-17.192,13.284,56.264,-19.927,-47.277,41.416,19.145,-19.536,26.178,-23.834,28.132,16.410,-51.575,41.416
'[11:34:16.332 07/11/2076]',-48.840,-26.569,24.615,25.006,-50.403,-28.132,1.954,50.403,-63.297,-11.722,20.317,62.125,-21.099,-41.807,50.012,20.317,-19.145,29.695,-23.834,21.880,18.364,-52.357,50.012
'[11:34:16.336 07/11/2076]',-46.886,-22.662,38.681,25.006,-42.979,-19.145,4.298,51.966,-64.469,-7.033,19.145,66.813,-21.490,-39.072,44.933,29.304,-11.331,32.039,-37.900,20.708,21.099,-46.105,44.933
'[11:34:16.340 07/11/2076]',-41.807,-14.457,34.383,29.304,-30.476,-13.284,1.954,49.231,-31.648,-9.768,17.192,65.641,10.549,-23.053,24.615,28.132,-5.861,29.304,-33.602,20.708,14.847,-20.317,24.615
'[11:34:16.344 07/11/2076]',-37.509,0.781,31.648,27.741,-22.271,-9.768,4.689,50.794,-19.536,-14.457,16.020,73.065,14.066,-11.331,17.582,32.039,-4.689,21.099,-30.867,12.503,10.159,-8.596,17.582
'[11:34:16.348 07/11/2076]',-27.741,-2.735,42.979,26.178,-23.443,-2.344,8.987,55.092,-23.053,-8.205,11.331,74.628,15.629,-33.211,34.774,35.556,0.391,19.536,-42.198,16.020,10.159,-25.006,34.774
'[11:34:16.352 07/11/2076]',-21.880,-7.424,33.993,39.072,-22.271,-10.549,12.894,63.687,-14.847,-4.689,5.470,82.051,19.927,-16.801,27.741,35.165,1.954,19.536,-33.211,5.470,13.284,-5.079,27.741
'[11:34:16.355 07/11/2076]',-24.225,-11.722,32.821,39.463,-28.132,-12.894,14.457,63.687,-17.192,-1.954,5.470,81.661,3.907,-25.006,53.138,33.993,-1.172,22.662,-32.039,3.907,17.973,-28.523,53.138
'[11:34:16.359 07/11/2076]',-26.569,-6.642,43.370,25.788,-28.913,-7.424,18.364,54.310,-11.722,-2.735,8.987,68.376,-8.205,-18.755,60.171,30.476,4.689,21.490,-42.589,3.907,15.238,-35.946,60.171
'[11:34:16.363 07/11/2076]',-16.410,-5.470,29.304,29.304,-16.410,-2.735,10.940,44.542,3.907,-7.033,12.894,61.343,-8.596,-4.298,53.138,31.648,8.205,24.225,-28.523,8.596,3.126,-27.350,53.138
'[11:34:16.367 07/11/2076]',-19.145,-2.735,17.582,24.225,-20.317,-0.781,7.814,32.821,11.722,-12.112,15.238,54.310,-12.112,-2.344,51.184,32.430,5.861,18.364,-16.801,12.503,-6.642,-30.085,51.184
'[11:34:16.371 07/11/2076]',-15.238,3.907,16.410,19.145,-19.927,7.033,9.377,27.350,9.377,-8.987,17.973,47.668,-14.457,-2.735,50.403,33.211,9.377,12.894,-15.629,8.987,-15.629,-24.615,50.403
'[11:34:16.375 07/11/2076]',-1.563,5.861,9.768,24.615,-5.079,4.689,8.205,31.258,5.470,-1.172,16.801,46.105,-12.112,0.391,43.761,35.165,15.238,12.112,-8.987,6.252,-20.317,-12.894,43.761
'[11:34:16.379 07/11/2076]',0.000,1.954,14.457,29.304,-7.033,1.172,11.331,41.416,-0.781,1.954,17.973,53.529,-16.801,0.391,51.575,37.900,15.629,14.066,-13.675,5.861,-22.271,-11.331,51.575
'[11:34:16.383 07/11/2076]',4.298,3.516,16.410,27.741,-4.298,2.344,6.642,48.059,-3.126,1.563,19.536,53.919,-20.317,-1.172,56.654,37.509,17.973,6.642,-15.629,4.298,-27.350,-11.722,56.654
'[11:34:16.387 07/11/2076]',10.940,-0.781,12.112,28.132,3.126,0.391,-0.781,48.840,4.689,-3.516,17.582,49.621,-13.675,3.907,45.714,31.648,23.053,-3.516,-11.331,2.344,-27.350,1.172,45.714
'[11:34:16.391 07/11/2076]',9.377,-3.126,8.987,26.960,-0.781,1.172,-3.126,46.105,8.205,-1.563,13.284,48.059,-9.377,-3.126,46.496,34.383,22.662,1.954,-8.205,-1.172,-23.053,-1.954,46.496
'[11:34:16.395 07/11/2076]',10.549,-1.954,1.172,23.443,-5.470,5.079,-3.126,37.900,7.424,1.563,17.973,45.714,-8.205,12.894,38.681,28.913,22.271,3.907,-0.391,-1.172,-25.788,9.377,38.681
'[11:34:16.398 07/11/2076]',11.331,10.549,5.079,21.880,-7.033,21.490,-0.391,36.728,6.642,8.205,24.615,48.449,-5.079,17.192,42.979,33.602,25.006,15.238,-4.298,-5.861,-23.443,7.033,42.979
'[11:34:16.402 07/11/2076]',13.675,6.642,9.768,24.225,-6.252,27.741,1.172,33.993,3.516,14.066,21.880,51.575,-3.516,13.284,44.151,37.900,26.569,25.397,-8.987,1.563,-22.662,5.079,44.151
'[11:34:16.406 07/11/2076]',12.112,11.331,6.642,22.271,-8.596,25.006,5.470,31.648,6.642,11.331,18.755,48.840,1.954,19.927,26.960,37.509,30.085,24.615,-5.861,3.126,-25.006,17.582,26.960
