'Time and date','FP1-F7','F7-T7','T7-P7','P7-O1','FP1-F3','F3-C3','C3-P3','P3-O1','FP2-F4','F4-C4','C4-P4','P4-O2','FP2-F8','F8-T8','T8-P8','P8-O2','FZ-CZ','CZ-PZ','P7-T7','T7-FT9','FT9-FT10','FT10-T8','T8-P8'
'hh:mm:ss.mmm dd/mm/yyyy','uV','uV','uV','uV','uV','uV','uV','uV','uV','uV','uV','uV','uV','uV','uV','uV','uV','uV','uV','uV','uV','uV','uV'
'[15:23:47.000 02/09/2075]',-58.608,18.755,41.416,0.000,-21.880,-19.145,37.509,5.079,-45.714,7.814,34.383,-1.563,-62.125,3.516,33.602,19.927,-22.271,30.085,-40.635,-3.907,-21.880,16.020,33.602
'[15:23:47.004 02/09/2075]',0.391,0.391,0.391,0.391,0.391,0.391,0.391,0.391,0.391,0.391,0.391,0.391,0.391,0.391,0.391,0.391,0.391,0.391,0.391,0.391,0.391,0.391,0.391
'[15:23:47.008 02/09/2075]',0.391,0.391,0.391,0.391,0.391,0.391,0.391,0.391,0.391,0.391,0.391,0.391,0.391,0.391,0.391,0.391,0.391,0.391,0.391,0.391,0.391,0.391,0.391
'[15:23:47.012 02/09/2075]',0.391,0.391,0.391,0.391,0.391,0.391,0.391,0.391,0.391,0.391,0.391,0.391,0.391,1.172,0.391,0.000,0.391,0.391,0.391,0.391,0.391,1.172,0.391
'[15:23:47.016 02/09/2075]',0.391,0.000,0.781,0.391,0.391,0.391,0.391,0.391,0.391,0.391,0.391,0.391,0.391,-0.391,0.391,0.781,0.391,0.391,0.000,1.172,0.391,-0.391,0.391
'[15:23:47.020 02/09/2075]',0.391,0.391,-1.172,1.172,0.000,0.391,0.391,0.391,0.000,0.000,0.391,0.391,0.000,-2.735,0.781,1.954,0.000,0.391,1.954,0.781,0.000,-2.735,0.781
'[15:23:47.023 02/09/2075]',-0.391,1.172,-1.954,0.391,-0.391,0.391,0.000,0.000,0.391,-0.391,0.000,0.391,-0.781,0.391,0.391,0.000,-0.391,0.391,2.735,-1.954,0.000,1.172,0.391
'[15:23:47.027 02/09/2075]',-0.391,0.391,1.563,-1.563,0.000,0.391,0.391,-0.391,0.000,0.781,-0.391,0.391,0.000,3.907,-0.391,-1.954,0.000,0.391,-0.781,-0.781,0.391,5.079,-0.391
'[15:23:47.031 02/09/2075]',1.563,-2.344,3.126,-0.391,0.391,0.391,0.391,0.391,-0.781,1.172,0.391,0.391,1.172,-1.563,0.391,0.391,0.781,0.391,-2.344,3.907,1.172,-2.735,0.391
'[15:23:47.035 02/09/2075]',1.172,-2.344,-1.172,3.126,0.391,0.000,0.391,0.391,0.391,-0.391,0.391,-0.391,0.391,-5.470,1.563,2.344,0.781,0.391,1.954,3.516,0.391,-7.033,1.563
'[15:23:47.039 02/09/2075]',-1.954,1.172,-4.298,2.735,-0.391,0.391,0.000,-0.781,0.781,-1.954,0.391,-1.172,-2.344,-2.344,-0.391,1.954,-0.781,1.172,5.079,-0.781,-1.563,0.000,-0.391
'[15:23:47.043 02/09/2075]',-0.391,0.000,-9.768,4.689,-4.689,4.298,-1.172,-3.516,-5.861,-2.735,0.391,-2.344,-5.861,-20.708,3.516,12.112,-5.470,3.516,10.549,1.954,-5.079,-17.582,3.516
'[15:23:47.047 02/09/2075]',-2.344,1.563,-25.397,2.344,-11.722,1.563,-6.252,-6.252,-12.503,-5.470,-4.298,-1.172,-13.675,-32.039,8.987,11.331,-10.549,2.735,26.178,-9.768,-4.298,-26.178,8.987
'[15:23:47.051 02/09/2075]',-10.940,-10.940,-8.987,-5.861,-17.582,0.781,-8.205,-12.503,-12.503,-7.424,-11.722,-2.344,-14.847,-20.317,0.391,0.000,-12.503,0.391,9.768,-2.735,-5.470,-4.689,0.391
'[15:23:47.055 02/09/2075]',-6.642,-25.006,-5.861,-4.298,-16.801,-0.781,-7.033,-17.582,-21.880,-1.563,-10.940,-9.768,-12.503,-31.258,-1.172,0.000,-11.722,0.781,6.642,9.377,-1.563,-17.582,-1.172
'[15:23:47.059 02/09/2075]',-10.940,-20.708,-15.238,-2.735,-16.801,-8.987,-9.768,-14.066,-24.615,-7.814,-14.066,-11.331,-20.708,-35.556,1.172,-3.907,-7.814,-0.781,16.020,-1.954,3.126,-25.788,1.172
'[15:23:47.063 02/09/2075]',-21.099,-6.252,-21.099,-1.563,-15.629,-5.861,-9.768,-19.145,-23.443,-7.424,-10.159,-16.801,-21.099,-12.112,-9.377,-15.238,-5.861,0.391,21.880,-13.284,2.344,4.689,-9.377
'[15:23:47.066 02/09/2075]',-21.490,20.317,-40.635,0.391,-8.987,-3.126,-6.252,-22.271,-28.523,-0.391,-5.079,-24.615,-23.443,-17.192,-1.563,-16.410,-5.079,2.735,41.416,-33.211,0.000,3.516,-1.563
'[15:23:47.070 02/09/2075]',-25.006,23.443,-37.509,0.391,-13.675,-3.516,-5.079,-14.847,-33.602,4.298,-1.172,-17.582,-21.099,-41.416,18.755,-4.689,-3.907,3.516,38.291,-33.993,2.344,-24.615,18.755
'[15:23:47.074 02/09/2075]',-31.258,12.112,-23.053,-1.954,-32.821,5.861,-3.126,-13.675,-28.132,7.424,-7.814,-11.722,-16.020,-37.900,7.814,4.689,-2.735,5.079,23.834,-20.708,0.000,-18.364,7.814
'[15:23:47.078 02/09/2075]',-35.556,-11.331,-0.391,3.907,-35.556,1.563,0.781,-10.159,-25.006,7.814,-7.814,-17.973,-12.894,-39.072,-2.344,10.159,-4.689,7.424,1.172,5.079,-2.344,-15.629,-2.344
'[15:23:47.082 02/09/2075]',-33.602,-33.602,26.960,3.516,-44.542,3.907,4.689,-0.781,-26.178,8.987,-0.391,1.563,-15.629,-37.509,11.331,25.006,-3.516,12.112,-26.178,21.490,1.954,-23.053,11.331
'[15:23:47.086 02/09/2075]',-32.039,-14.066,16.801,-1.954,-44.542,7.814,1.954,2.344,-32.039,10.159,-2.735,9.768,-26.960,-3.126,-10.940,25.788,-1.954,14.847,-16.020,1.954,1.172,4.689,-10.940
'[15:23:47.090 02/09/2075]',-30.867,-10.940,11.722,0.781,-31.648,3.907,0.000,-0.781,-31.258,9.377,2.344,6.642,-28.132,10.549,-3.907,8.596,-5.470,16.410,-10.940,-1.563,0.391,28.913,-3.907
'[15:23:47.094 02/09/2075]',-26.178,-2.735,10.159,-1.954,-22.662,2.735,2.735,-3.126,-23.443,11.722,4.689,8.596,-23.834,-8.596,34.774,0.000,-3.907,15.238,-9.377,-12.894,4.689,7.814,34.774
'[15:23:47.098 02/09/2075]',-32.039,1.172,-7.424,0.391,-26.178,-2.344,0.000,-8.205,-19.927,7.424,-3.907,-2.735,-25.397,-12.894,26.569,-7.814,-4.689,10.549,8.205,-17.192,3.907,1.954,26.569
'[15:23:47.102 02/09/2075]',-33.211,-11.722,-8.987,10.549,-26.960,-8.596,-2.344,-4.689,-20.708,0.000,-11.722,-1.563,-25.006,-35.946,19.536,5.470,-5.861,7.033,9.768,-10.159,2.344,-10.159,19.536
'[15:23:47.105 02/09/2075]',-35.946,-29.695,0.000,11.331,-30.085,-14.457,-1.172,-7.424,-23.053,-11.331,-8.987,-1.563,-28.132,-51.966,22.271,10.549,-8.596,3.516,0.781,7.814,5.079,-28.523,22.271
'[15:23:47.109 02/09/2075]',-35.946,-30.085,-3.907,15.238,-34.774,-15.238,0.000,-3.907,-41.026,-1.954,-9.377,5.470,-32.430,-46.105,4.689,26.178,-7.814,0.781,4.689,17.192,2.344,-32.430,4.689
'[15:23:47.113 02/09/2075]',-36.337,-23.443,-12.112,13.675,-41.026,-14.847,-4.298,2.344,-56.264,-2.344,-12.894,19.927,-38.681,-48.449,-6.252,42.198,-11.722,0.391,12.894,11.331,-3.126,-30.867,-6.252
'[15:23:47.117 02/09/2075]',-33.993,-22.271,-9.768,-8.205,-51.575,-15.238,-4.298,-3.126,-56.264,-5.079,-17.582,9.377,-37.118,-30.867,-10.159,8.987,-17.192,-3.126,10.549,3.126,1.954,-15.238,-10.159
'[15:23:47.121 02/09/2075]',-33.211,-6.642,-16.410,-16.410,-52.357,-16.410,-2.344,-1.563,-46.105,-3.907,-9.768,3.126,-29.695,-32.430,16.020,-10.940,-17.192,-3.126,17.192,-11.331,1.563,-23.053,16.020
'[15:23:47.125 02/09/2075]',-34.774,-6.252,-33.211,-7.814,-56.654,-17.973,-6.642,0.391,-48.840,-3.126,-10.159,4.689,-26.569,-37.509,20.708,-14.847,-16.020,-1.563,33.993,-14.457,7.424,-31.258,20.708
'[15:23:47.129 02/09/2075]',-26.178,-19.145,-22.662,-13.675,-46.886,-25.006,-6.642,-2.344,-39.072,-10.940,-7.033,0.391,-24.225,-37.509,21.099,-16.801,-15.238,0.391,23.443,-14.457,10.549,-27.741,21.099
'[15:23:47.133 02/09/2075]',-32.821,-27.741,-13.284,-6.642,-39.853,-24.615,-6.642,-8.205,-41.026,-6.252,0.391,-10.159,-20.708,-36.728,26.569,-26.178,-10.940,1.172,14.066,8.596,9.377,-27.741,26.569
'[15:23:47.137 02/09/2075]',-28.913,-36.337,-13.284,-2.344,-40.244,-18.755,-10.549,-10.549,-50.012,-3.516,-4.689,-10.940,-30.867,-30.476,1.563,-10.549,-7.814,1.172,14.066,21.880,3.126,-26.178,1.563
'[15:23:47.141 02/09/2075]',-23.443,-35.946,-10.940,-9.377,-38.681,-12.503,-11.722,-16.801,-49.621,-5.079,-9.377,-23.443,-36.728,-19.927,-10.940,-19.536,-5.079,0.781,11.722,15.238,3.126,-13.284,-10.940
'[15:23:47.145 02/09/2075]',-20.708,-33.211,-5.861,-8.987,-37.118,-8.596,-5.079,-17.192,-43.761,-4.689,-0.391,-24.225,-33.993,-17.973,1.954,-23.834,-2.735,4.298,6.642,13.675,-6.642,-5.861,1.954
'[15:23:47.148 02/09/2075]',-21.490,-40.635,2.344,3.907,-40.635,-1.563,-2.344,-8.987,-51.575,0.391,3.907,-7.033,-42.198,-13.675,6.642,-4.689,1.172,8.596,-1.563,24.615,-5.079,-8.205,6.642
'[15:23:47.152 02/09/2075]',-25.006,-27.741,-7.033,13.284,-42.979,0.391,-1.954,-0.781,-41.416,-2.344,5.079,9.377,-32.430,-25.788,26.178,2.735,2.735,10.159,7.814,13.675,2.344,-23.443,26.178
'[15:23:47.156 02/09/2075]',-23.053,-23.053,-5.470,7.424,-30.867,-11.722,-1.563,0.391,-33.211,-1.954,5.470,16.410,-23.053,-26.960,26.960,9.768,0.391,10.159,6.252,9.377,-2.344,-21.099,26.960
'[15:23:47.160 02/09/2075]',-25.788,-34.774,12.894,5.470,-30.476,-7.814,-4.689,2.735,-35.165,0.781,4.298,21.490,-24.615,-17.582,18.755,15.629,0.000,8.205,-12.112,25.788,-1.172,-14.847,18.755
'[15:23:47.164 02/09/2075]',-22.271,-33.602,1.172,-2.344,-41.026,-0.391,-14.847,-0.391,-32.039,-3.126,-5.861,9.377,-17.582,-23.834,7.033,2.735,-1.172,1.954,-0.391,24.615,0.000,-24.615,7.033
'[15:23:47.168 02/09/2075]',-18.755,-23.443,-14.847,-11.331,-43.370,-2.344,-18.364,-3.907,-33.993,-2.344,-12.112,-6.252,-21.490,-20.317,0.000,-13.284,-3.126,0.391,15.629,8.987,2.344,-25.788,0.000
'[15:23:47.172 02/09/2075]',-15.629,-20.317,-16.410,-6.642,-35.556,-5.861,-12.503,-4.689,-32.430,-0.391,-5.470,-10.549,-18.755,-16.801,8.987,-23.053,-0.391,3.907,17.192,4.298,3.516,-16.801,8.987
'[15:23:47.176 02/09/2075]',-9.768,-17.973,-29.304,-7.033,-41.026,-4.689,-10.549,-7.424,-37.509,0.000,-7.033,-23.834,-16.020,-16.410,0.781,-36.728,3.126,3.907,30.085,4.298,4.689,-18.755,0.781
'[15:23:47.180 02/09/2075]',-5.079,13.675,-57.827,-5.079,-31.648,-7.424,-4.298,-9.768,-31.258,0.781,-3.907,-22.662,-15.629,-9.377,7.424,-39.072,3.516,7.033,58.608,-30.085,-2.344,-4.298,7.424
'[15:23:47.184 02/09/2075]',-10.159,-3.907,-11.331,11.331,0.781,-12.894,0.781,-2.344,-11.331,7.033,5.861,10.549,-12.503,-3.907,32.430,-2.344,10.549,14.066,12.112,-8.596,-7.424,9.377,32.430
'[15:23:47.188 02/09/2075]',-10.159,-25.788,6.642,19.927,-13.675,2.344,0.391,2.344,-18.364,10.159,3.516,16.801,-11.722,-16.410,28.523,12.894,10.159,13.675,-5.861,24.225,-4.689,-11.331,28.523
'[15:23:47.191 02/09/2075]',-6.252,-45.714,13.284,19.536,-26.960,5.861,-5.861,7.814,-33.211,7.033,-1.172,24.615,-17.192,-33.211,21.099,26.960,6.642,12.503,-12.503,34.383,-0.781,-28.913,21.099
'[15:23:47.195 02/09/2075]',-10.159,-52.747,22.271,21.099,-16.020,-11.331,-5.470,13.675,-34.774,4.689,-4.689,33.993,-10.549,-47.668,16.410,40.244,2.344,10.159,-21.490,37.118,8.205,-33.993,16.410
'[15:23:47.199 02/09/2075]',0.000,-62.125,9.377,9.377,-35.165,-9.768,-8.205,10.940,-43.370,-3.126,-12.503,16.801,-9.768,-45.714,0.391,12.503,-2.735,3.516,-8.596,38.291,10.159,-31.258,0.391
'[15:23:47.203 02/09/2075]',12.503,-61.343,-17.582,0.000,-43.761,-12.503,-14.066,4.689,-51.966,-6.642,-15.629,0.391,-21.099,-36.337,-7.424,-8.596,-4.689,-4.298,18.364,25.006,1.563,-27.741,-7.424
'[15:23:47.207 02/09/2075]',1.172,-17.582,-22.271,10.159,-13.284,-11.331,-10.159,8.205,-10.549,-0.391,-7.033,16.801,-24.615,1.954,14.847,5.861,2.735,-2.344,23.053,-4.298,-16.801,5.861,14.847
'[15:23:47.211 02/09/2075]',16.410,-7.814,-25.397,6.642,1.954,-0.391,-9.768,0.391,10.549,2.344,-1.563,9.377,-24.225,31.258,11.722,1.954,8.596,-0.781,26.178,-14.066,-28.132,23.443,11.722
'[15:23:47.215 02/09/2075]',18.755,-25.397,-18.364,3.907,-10.159,3.516,-8.596,-3.516,-2.344,5.470,2.344,5.470,-39.463,27.741,7.033,16.410,7.424,0.781,19.145,2.735,-41.807,11.331,7.033
'[15:23:47.219 02/09/2075]',18.364,-27.741,-0.391,6.642,-10.159,9.768,-4.298,2.735,4.298,6.642,6.252,13.284,-50.403,26.178,29.304,26.178,10.549,8.596,1.172,-0.391,-50.794,6.252,29.304
'[15:23:47.223 02/09/2075]',30.085,-48.449,-11.331,9.768,-19.536,4.689,-3.126,-0.391,-4.689,1.172,9.377,6.252,-52.357,16.020,36.728,11.722,5.470,8.987,12.112,-1.172,-48.449,1.954,36.728
'[15:23:47.227 02/09/2075]',37.900,-76.581,-14.066,11.331,-34.774,1.563,-2.735,-4.298,-26.178,0.391,10.159,-0.781,-66.813,7.814,32.430,8.205,1.563,5.861,14.847,13.284,-61.734,-0.391,32.430
'[15:23:47.230 02/09/2075]',39.463,-93.773,-7.814,12.503,-41.416,-3.126,-5.079,1.563,-28.523,-1.172,8.205,3.126,-76.190,17.582,34.774,4.298,-0.391,6.642,8.596,21.880,-71.893,2.735,34.774
'[15:23:47.234 02/09/2075]',42.979,-79.707,-28.913,5.079,-37.509,-13.675,-7.814,0.391,-24.615,-4.689,3.126,-1.172,-71.893,25.006,16.410,1.172,-5.079,5.079,29.695,-1.172,-72.674,13.284,16.410
'[15:23:47.238 02/09/2075]',44.542,-76.581,-32.039,1.563,-31.648,-20.708,-6.252,-1.172,-29.695,-2.344,5.861,-7.814,-69.548,20.708,7.424,4.298,-8.205,4.689,32.821,1.172,-72.674,7.033,7.424
'[15:23:47.242 02/09/2075]',40.244,-78.144,-14.457,-5.861,-32.430,-21.880,-6.252,3.516,-31.258,-2.735,5.079,-1.954,-75.018,23.443,13.675,6.252,-5.861,6.252,15.238,6.252,-68.376,0.391,13.675
'[15:23:47.246 02/09/2075]',33.211,-51.966,-35.556,-1.954,-28.913,-25.397,-3.907,3.907,-27.741,-1.563,7.033,-6.252,-70.720,29.695,6.252,3.907,-8.205,5.861,36.337,-26.178,-54.310,13.675,6.252
'[15:23:47.250 02/09/2075]',28.913,-46.886,-45.324,8.205,-31.648,-20.317,-1.563,0.391,-30.085,0.000,13.284,-8.987,-71.502,34.383,26.569,-16.410,-7.814,2.735,46.105,-25.788,-53.919,25.397,26.569
'[15:23:47.254 02/09/2075]',27.741,-80.879,-6.252,7.424,-38.291,-13.284,-1.172,2.735,-30.867,-3.516,11.722,3.516,-79.316,49.231,13.675,-1.954,-5.861,1.563,7.033,13.675,-55.873,30.085,13.675
'[15:23:47.258 02/09/2075]',26.960,-102.369,5.079,11.722,-43.761,-13.675,-3.907,6.252,-31.648,-8.987,6.252,5.861,-78.926,50.403,3.126,-3.516,-8.205,1.563,-4.298,26.569,-50.794,35.165,3.126
'[15:23:47.262 02/09/2075]',25.397,-104.322,0.781,12.503,-43.761,-16.410,-3.126,0.391,-29.695,-12.894,5.079,-6.642,-73.846,19.536,17.192,-8.596,-8.987,0.391,0.000,33.211,-56.264,14.457,17.192
'[15:23:47.266 02/09/2075]',23.443,-103.932,8.205,5.861,-49.621,-9.377,-3.126,-0.391,-35.946,-9.768,1.172,-8.596,-80.098,8.205,11.722,3.907,-7.033,0.391,-7.424,36.337,-52.747,-3.126,11.722
'[15:23:47.270 02/09/2075]',23.834,-78.144,-20.708,1.563,-50.794,-14.066,-6.642,0.000,-30.085,-10.549,-3.126,-17.582,-71.893,4.689,4.298,-1.954,-8.596,-1.954,21.490,7.424,-48.449,-7.814,4.298
'[15:23:47.273 02/09/2075]',14.066,-30.476,-46.886,0.000,-40.635,-17.973,-0.781,-1.954,-27.350,-1.954,3.516,-16.410,-62.515,0.781,16.410,1.172,-8.596,0.000,47.668,-30.085,-49.231,-0.391,16.410
'[15:23:47.277 02/09/2075]',19.536,-27.741,-42.589,5.861,-33.993,-13.284,1.172,2.735,-24.225,2.344,8.987,-0.391,-60.171,16.410,15.629,12.503,-5.861,1.172,43.370,-31.648,-46.105,10.940,15.629
'[15:23:47.281 02/09/2075]',23.053,-59.780,-19.536,16.801,-23.053,-23.834,0.000,9.377,-17.973,0.391,5.861,19.145,-56.654,35.165,0.000,28.132,-3.907,1.172,20.317,-3.126,-40.244,22.662,0.000
'[15:23:47.285 02/09/2075]',16.410,-77.363,-6.252,23.053,-20.317,-30.867,-2.344,12.503,-19.927,-2.344,2.735,21.490,-56.264,33.211,-8.987,32.430,-5.470,0.391,7.033,12.894,-39.463,26.960,-8.987
'[15:23:47.289 02/09/2075]',21.099,-95.336,-5.861,21.490,-35.946,-22.271,-5.079,7.033,-24.225,-5.079,-6.642,6.642,-61.343,18.755,-10.159,21.490,-7.814,-7.033,6.642,30.476,-46.496,13.675,-10.159
'[15:23:47.293 02/09/2075]',21.099,-89.866,-15.238,8.987,-37.509,-26.178,-5.861,-2.735,-27.741,-7.814,-15.629,-16.410,-69.158,21.490,-32.039,8.596,-11.331,-14.457,16.020,30.476,-48.449,7.424,-32.039
'[15:23:47.297 02/09/2075]',10.940,-63.687,-31.648,0.781,-46.886,-19.145,-9.377,-4.689,-28.913,-12.112,-18.364,-24.225,-67.985,1.563,-19.536,-0.391,-14.066,-17.192,32.430,10.940,-53.138,-0.391,-19.536
'[15:23:47.301 02/09/2075]',12.894,-62.515,-20.708,-1.172,-47.277,-7.814,-7.424,-6.252,-19.927,-11.331,-15.238,-22.662,-65.250,0.391,0.391,-6.642,-10.940,-16.020,21.490,6.252,-51.966,6.642,0.391
'[15:23:47.305 02/09/2075]',10.159,-70.330,-16.801,7.033,-32.430,-14.066,-9.377,-10.940,-8.205,-10.549,-10.159,-20.317,-58.608,0.391,12.112,-6.252,-9.377,-16.410,17.582,18.364,-41.416,1.954,12.112
'[15:23:47.309 02/09/2075]',10.549,-74.628,-0.391,8.596,-25.397,-13.675,-10.159,-2.735,0.000,-10.940,-3.516,0.000,-57.045,12.503,16.410,10.940,-3.516,-12.894,1.172,21.880,-40.244,14.066,16.410
'[15:23:47.313 02/09/2075]',5.079,-71.111,-4.689,17.192,-23.834,-14.847,-8.987,-1.563,-0.781,-8.987,-0.781,0.391,-51.966,-1.172,25.397,16.801,-1.954,-10.159,5.470,13.284,-36.728,12.112,25.397
'[15:23:47.316 02/09/2075]',3.126,-57.436,-15.238,4.298,-23.443,-18.364,-7.033,-12.503,-14.457,4.689,1.172,-19.927,-53.529,-6.642,29.304,1.954,-3.516,-12.112,16.020,3.516,-35.165,1.172,29.304
'[15:23:47.320 02/09/2075]',6.642,-54.310,-17.582,0.391,-23.834,-17.192,-5.861,-13.675,-27.350,8.596,2.344,-21.880,-55.873,-7.424,22.662,1.563,-1.563,-11.331,18.364,3.126,-33.211,-7.033,22.662
'[15:23:47.324 02/09/2075]',8.205,-39.463,-32.039,3.516,-26.178,-13.675,-5.861,-10.159,-26.569,6.642,0.781,-16.020,-53.138,-6.642,5.861,17.582,-0.391,-6.642,32.821,-12.894,-30.867,-4.298,5.861
'[15:23:47.328 02/09/2075]',14.847,-58.217,-18.755,3.126,-20.317,-19.927,-3.126,-12.503,-19.145,1.954,2.344,-21.490,-53.919,8.596,7.424,0.391,-1.563,-5.861,19.536,-0.781,-29.304,7.814,7.424
'[15:23:47.332 02/09/2075]',13.284,-62.515,-8.987,0.391,-23.834,-14.457,-5.861,-11.331,-16.410,-5.470,-2.344,-21.490,-57.045,25.788,-19.536,3.126,-3.126,-7.424,9.768,15.629,-28.132,13.284,-19.536
'[15:23:47.336 02/09/2075]',5.079,-51.575,-10.940,-0.391,-26.178,-14.457,-8.987,-5.470,-10.159,-20.317,-7.424,-25.006,-63.687,13.675,-18.755,2.735,-5.861,-7.424,11.722,14.457,-36.728,1.172,-18.755
'[15:23:47.340 02/09/2075]',-1.563,-62.515,0.391,-3.126,-30.867,-12.894,-8.205,-11.722,-17.973,-11.722,-3.907,-39.853,-53.919,-0.391,5.079,-25.006,-11.722,-8.205,0.391,27.350,-35.946,-2.735,5.079
'[15:23:47.344 02/09/2075]',-1.954,-61.734,-0.391,3.907,-29.304,-10.549,-7.033,-9.768,-24.615,-4.298,1.954,-24.225,-48.059,0.391,7.424,-12.112,-10.940,-7.033,1.172,28.132,-30.085,1.563,7.424
'[15:23:47.348 02/09/2075]',1.563,-53.529,-25.397,13.284,-27.741,-14.847,-8.987,-7.814,-27.741,-2.735,2.735,-16.020,-43.761,-5.079,6.642,-2.344,-9.377,-5.470,26.178,16.020,-21.490,-6.642,6.642
'[15:23:47.352 02/09/2075]',5.861,-72.283,-19.536,25.006,-19.927,-26.960,-8.596,-1.563,-26.178,0.781,1.563,8.596,-36.728,1.954,-7.033,26.960,-7.424,-2.735,20.317,20.317,-12.894,5.861,-7.033
'[15:23:47.355 02/09/2075]',8.205,-72.283,-28.132,27.350,-19.927,-29.695,-9.377,-2.344,-22.662,-4.298,-2.344,7.814,-46.886,11.722,-21.880,33.993,-7.814,-6.642,28.913,22.662,-16.410,7.424,-21.880
'[15:23:47.359 02/09/2075]',9.377,-72.283,-18.755,8.205,-23.053,-24.615,-8.596,-14.066,-11.331,-5.861,-7.033,-18.364,-40.244,2.344,-17.582,9.768,-6.642,-11.722,19.536,33.993,-14.066,-16.020,-17.582
'[15:23:47.363 02/09/2075]',7.033,-72.674,-14.847,6.642,-13.284,-32.039,-8.596,-14.847,-3.126,-7.814,-12.894,-31.648,-36.337,5.079,-8.205,-17.582,-7.424,-13.284,15.629,32.821,-15.629,-10.549,-8.205
'[15:23:47.367 02/09/2075]',1.954,-50.403,1.172,-13.284,-19.536,-14.847,-2.344,-20.317,0.000,-1.954,-3.516,-33.602,-33.993,7.814,10.940,-26.569,-5.861,-10.159,-0.391,15.629,-21.490,3.516,10.940
'[15:23:47.371 02/09/2075]',0.391,-38.291,0.781,-9.768,-16.020,-9.377,0.391,-18.755,-1.172,3.516,2.344,-23.053,-30.476,7.424,16.801,-12.894,-1.563,-7.814,0.000,6.252,-17.582,1.172,16.801
'[15:23:47.375 02/09/2075]',-2.344,-23.834,-18.755,5.079,-12.503,-10.940,-3.126,-9.377,-3.126,1.563,-3.907,-8.205,-26.178,14.457,-12.894,9.377,0.781,-6.252,19.536,-7.033,-13.284,12.894,-12.894
'[15:23:47.379 02/09/2075]',-2.344,-26.960,-7.424,4.689,-8.205,-12.503,-0.781,-7.033,-3.126,-2.344,-3.516,2.344,-26.569,2.735,-29.695,45.714,1.954,-7.424,8.205,-12.894,-13.675,14.066,-29.695
'[15:23:47.383 02/09/2075]',5.470,-33.211,-3.907,3.516,0.000,-12.894,-2.735,-8.596,4.298,-1.563,-6.252,-17.582,-22.662,-1.954,-7.033,10.159,3.126,-13.284,4.689,-6.642,-19.927,8.205,-7.033
'[15:23:47.387 02/09/2075]',12.894,-64.860,12.894,-1.172,2.735,-15.238,-8.987,-13.675,2.344,-6.252,-15.238,-35.165,-23.053,-0.391,-16.801,-14.457,1.172,-21.490,-12.112,23.053,-14.457,5.861,-16.801
'[15:23:47.391 02/09/2075]',12.112,-49.231,4.298,-4.298,3.126,-13.675,-7.814,-15.238,-0.781,-4.298,-11.722,-35.165,-28.913,1.954,-1.172,-25.397,1.172,-22.271,-3.516,5.079,-12.503,12.503,-1.172
'[15:23:47.395 02/09/2075]',9.768,-35.946,2.344,-6.642,0.000,-5.079,-3.907,-17.582,-1.172,-1.172,-2.735,-23.834,-39.072,-4.298,30.476,-17.582,3.907,-20.708,-1.563,-7.033,-22.662,9.768,30.476
'[15:23:47.398 02/09/2075]',0.781,-31.258,-2.344,-0.391,-4.689,-0.781,-5.861,-18.364,2.344,0.781,-8.596,-23.053,-31.648,2.344,10.940,-11.331,4.689,-19.927,3.126,-2.344,-9.377,7.814,10.940
'[15:23:47.402 02/09/2075]',-4.298,-13.284,-22.662,14.066,-8.987,-0.781,-4.298,-9.768,12.112,-1.172,-11.722,-3.126,-26.569,2.344,3.126,14.847,7.033,-18.364,23.443,-21.880,0.391,5.079,3.126
'[15:23:47.406 02/09/2075]',-3.516,-33.211,6.252,3.126,0.781,-7.424,-3.516,-14.066,26.178,-7.424,-13.675,-3.516,-19.927,-14.457,12.894,21.099,5.861,-21.099,-5.470,-6.252,-7.814,-3.126,12.894
'[15:23:47.410 02/09/2075]',3.516,-55.092,15.629,-2.735,10.940,-14.847,-10.549,-21.490,23.834,-5.861,-21.490,-29.695,-16.801,-0.781,-7.424,-8.205,1.954,-28.132,-14.847,18.755,-5.079,3.516,-7.424
'[15:23:47.414 02/09/2075]',0.391,-53.919,13.675,-5.079,7.033,-17.973,-11.331,-20.708,17.582,-7.033,-19.145,-21.490,-17.973,2.344,-20.708,4.689,0.391,-28.913,-12.894,19.536,-5.861,5.470,-20.708
'[15:23:47.418 02/09/2075]',-3.126,-50.794,11.331,1.172,5.861,-18.755,-13.675,-11.722,13.675,-10.940,-18.364,-8.596,-24.225,1.172,-32.821,30.867,-1.954,-27.741,-10.549,14.457,-9.377,7.814,-32.821
'[15:23:47.422 02/09/2075]',0.391,-44.542,1.563,-3.126,6.642,-15.238,-15.629,-19.927,7.033,-7.033,-16.020,-30.085,-19.927,12.503,-48.449,9.377,-3.126,-29.304,-0.781,12.894,-3.126,14.457,-48.449
'[15:23:47.426 02/09/2075]',1.954,-32.039,-9.377,0.781,1.172,-4.298,-17.192,-15.629,3.907,-0.781,-12.894,-28.132,-17.973,10.940,-42.198,10.549,0.391,-26.960,10.159,3.516,0.781,5.861,-42.198
'[15:23:47.430 02/09/2075]',0.391,-30.085,-9.768,11.722,5.470,-8.205,-16.410,-5.470,5.079,-0.781,-8.205,-0.391,-22.271,-2.735,-10.159,31.258,0.781,-22.662,10.549,-1.954,-0.391,-5.861,-10.159
'[15:23:47.434 02/09/2075]',2.344,-30.867,-24.615,8.596,10.549,-15.238,-19.536,-18.364,-7.814,7.424,-9.377,-22.271,-27.741,-2.735,26.178,-27.741,-0.391,-26.960,25.397,0.391,-5.079,-5.470,26.178
'[15:23:47.438 02/09/2075]',1.563,-20.708,-14.066,-12.894,10.549,-16.020,-17.192,-21.099,-3.516,4.689,-5.470,-28.523,-22.662,4.689,28.523,-43.761,0.391,-26.960,14.847,-1.563,-5.861,-4.298,28.523
'[15:23:47.441 02/09/2075]',-5.079,-19.536,-7.814,-0.781,14.457,-27.741,-13.284,-5.470,2.344,0.391,-0.781,4.298,-19.145,19.145,28.913,-21.490,3.516,-21.880,8.596,-3.516,0.391,9.377,28.913
'[15:23:47.445 02/09/2075]',-8.596,-19.927,-4.298,-14.457,0.000,-23.443,-10.549,-10.940,-1.563,-1.563,-3.126,-5.470,-14.457,23.053,5.079,-26.569,0.391,-22.662,5.079,-2.344,-0.391,20.317,5.079
'[15:23:47.449 02/09/2075]',0.391,-17.973,13.284,-14.457,5.470,-8.596,-7.814,-5.861,3.126,-2.344,3.126,-0.781,-6.252,28.132,-10.549,-8.205,1.954,-16.801,-12.503,-5.079,5.079,24.225,-10.549
'[15:23:47.453 02/09/2075]',6.252,-30.085,9.768,-3.907,-1.172,-5.861,-10.940,1.172,0.391,-6.252,1.563,16.410,-11.722,27.350,-17.582,13.284,0.391,-14.847,-8.987,9.377,2.735,11.722,-17.582
'[15:23:47.457 02/09/2075]',8.205,-31.648,-6.642,-3.516,0.000,-10.549,-14.847,-4.298,0.000,-6.642,-1.954,5.079,-13.284,8.205,-1.954,1.172,-5.861,-16.020,7.424,7.814,0.000,-7.814,-1.954
'[15:23:47.461 02/09/2075]',12.112,-33.993,-3.516,-2.735,4.298,-11.722,-11.331,-6.642,1.563,-5.079,3.516,8.205,-6.642,1.563,14.847,-2.344,-5.079,-13.284,4.298,7.424,-0.391,-8.987,14.847
'[15:23:47.465 02/09/2075]',12.503,-31.648,-14.066,0.391,-0.391,-14.457,-12.894,-2.344,4.298,-8.987,1.954,12.112,-1.954,-1.172,11.331,0.781,-5.079,-13.675,14.847,6.252,1.172,-17.192,11.331
'[15:23:47.469 02/09/2075]',-1.172,-4.298,-35.165,-2.735,-14.457,-7.814,-15.629,-3.126,0.391,-9.768,0.391,7.424,-1.563,-5.861,14.066,-8.596,-5.470,-14.847,35.946,-13.284,4.689,-20.708,14.066
'[15:23:47.473 02/09/2075]',-4.689,-2.344,-15.238,-18.755,-20.708,-4.298,-6.642,-7.424,-2.735,-4.298,3.516,1.954,3.126,-5.470,-1.172,0.781,-6.252,-12.112,16.020,-12.503,-2.735,-10.549,-1.172
'[15:23:47.477 02/09/2075]',-2.735,-1.172,-25.397,-8.987,-24.225,-4.298,-3.126,-4.689,-6.252,-6.252,1.954,-3.126,-2.344,3.126,-15.629,0.391,-5.470,-12.894,26.178,-10.549,-4.298,-5.079,-15.629
'[15:23:47.480 02/09/2075]',-2.344,-3.516,-16.410,-21.099,-24.225,-6.642,-4.298,-6.252,-8.987,-9.377,-1.172,-4.298,-13.675,15.629,-19.536,-7.814,-7.033,-13.284,17.192,-10.940,-3.126,1.172,-19.536
'[15:23:47.484 02/09/2075]',-5.861,-33.602,9.377,-20.317,-21.490,-13.675,-4.689,-7.033,-3.516,-10.159,-4.689,-7.424,-15.238,20.317,-24.225,-8.596,-8.596,-13.675,-8.596,17.192,-6.252,11.331,-24.225
'[15:23:47.488 02/09/2075]',-3.907,-27.350,0.391,-8.205,-20.317,-14.066,-0.781,-2.735,-4.689,-9.377,1.563,4.689,-17.582,8.205,7.033,-5.861,-7.814,-10.159,0.391,10.159,0.391,-3.907,7.033
'[15:23:47.492 02/09/2075]',1.954,-24.615,-11.331,0.000,-15.238,-6.642,-8.596,-0.781,-5.861,-8.205,-0.391,5.470,-16.801,6.252,11.722,-12.503,-6.642,-10.159,12.112,14.847,8.987,-17.582,11.722
'[15:23:47.496 02/09/2075]',-1.172,-24.225,9.768,-17.973,-15.238,-7.424,-4.298,-3.907,-6.642,-7.814,-2.735,-11.722,-10.549,4.689,0.391,-25.397,-9.377,-9.377,-8.987,16.801,10.159,-13.675,0.391
'[15:23:47.500 02/09/2075]',1.172,-4.689,-15.629,-6.252,-11.722,-8.987,0.781,-4.689,-8.987,-5.470,1.954,-18.755,-6.642,8.205,-3.907,-29.695,-10.549,-4.298,16.410,-1.563,4.689,-1.954,-3.907
'[15:23:47.504 02/09/2075]',8.596,-5.861,-11.722,3.126,-7.033,-3.907,2.735,3.907,-7.033,-3.126,7.424,2.735,-3.907,29.695,-14.066,-11.722,-7.033,0.781,12.503,0.391,5.079,13.675,-14.066
'[15:23:47.508 02/09/2075]',-2.344,-14.066,23.443,-17.192,-11.331,-5.470,3.907,3.907,-0.391,-7.814,3.907,12.112,0.391,33.602,-23.443,-2.735,-7.033,3.516,-22.662,3.907,4.689,27.741,-23.443
'[15:23:47.512 02/09/2075]',-10.159,-10.940,22.271,-7.033,-13.284,-4.689,5.079,6.642,1.954,-5.079,4.298,18.755,2.344,15.238,-1.172,1.563,-7.033,3.126,-21.490,-0.391,9.377,16.410,-1.172
'[15:23:47.516 02/09/2075]',2.344,-25.788,16.020,-2.735,-11.722,-1.954,-0.391,5.470,7.424,-5.861,-1.563,25.788,1.954,7.814,4.298,9.768,-7.424,-1.172,-15.238,16.020,1.172,4.689,4.298
'[15:23:47.520 02/09/2075]',-2.344,-24.225,16.801,-17.582,-15.238,-2.735,-7.424,0.000,2.735,-9.377,-12.503,5.079,-3.516,-5.470,2.344,-6.642,-8.596,-10.549,-16.020,17.973,10.549,-19.927,2.344
'[15:23:47.523 02/09/2075]',-3.907,-11.331,-10.159,-7.033,-11.331,-12.894,-9.768,1.954,-8.596,-9.768,-16.020,-4.689,-12.112,-14.457,-7.424,-6.642,-12.503,-15.629,10.940,2.735,3.516,-21.099,-7.424
'[15:23:47.527 02/09/2075]',6.252,-12.112,-30.085,-3.126,-6.642,-19.927,-9.377,-0.391,-5.861,-9.377,-10.940,2.344,-10.159,-3.516,-17.192,7.033,-12.112,-16.410,30.867,-0.781,-4.298,-12.112,-17.192
'[15:23:47.531 02/09/2075]',-6.252,6.642,-24.615,-8.205,-6.252,-21.099,-4.689,1.954,-5.470,-7.424,-2.735,15.629,-10.940,2.344,-6.642,14.066,-7.814,-12.503,25.397,-19.927,4.298,-9.768,-6.642
'[15:23:47.535 02/09/2075]',-7.033,16.410,-12.894,-10.940,-12.112,-9.768,1.172,7.424,-1.563,-4.298,-3.907,25.397,-12.112,3.516,1.563,19.927,-5.470,-7.033,13.675,-33.211,6.642,-5.079,1.563
'[15:23:47.539 02/09/2075]',5.470,-3.907,-10.549,-0.391,-11.722,-10.940,4.298,10.159,3.907,-4.689,-2.344,21.880,-3.126,3.126,3.907,13.284,-7.424,-5.470,11.331,-16.410,-1.172,0.000,3.907
'[15:23:47.543 02/09/2075]',6.252,-27.350,15.238,-5.861,-11.331,-2.344,0.000,3.126,2.735,-5.470,-3.516,12.894,0.000,5.470,4.689,-5.470,-7.033,-6.252,-14.457,11.722,7.033,-3.126,4.689
'[15:23:47.547 02/09/2075]',5.861,-16.801,-0.391,-8.987,-12.112,-4.298,-4.689,1.563,-4.298,-9.768,-12.112,-2.344,0.781,0.000,-7.033,-24.615,-9.377,-8.987,1.172,4.689,7.814,-3.516,-7.033
'[15:23:47.551 02/09/2075]',6.642,-26.960,-5.861,-8.596,-13.284,-11.331,-8.987,0.000,-6.642,-14.847,-14.457,-6.252,0.781,12.894,-31.648,-26.960,-12.894,-12.894,6.642,9.377,7.814,14.457,-31.648
'[15:23:47.555 02/09/2075]',6.642,-27.350,3.516,-19.536,1.954,-17.582,-8.205,-11.331,-5.470,-12.112,-9.377,-14.457,-0.781,13.284,-26.960,-29.304,-10.159,-13.675,-2.735,20.317,6.252,3.907,-26.960
'[15:23:47.559 02/09/2075]',12.503,-11.722,5.079,-16.020,10.549,-8.205,-5.861,-4.298,7.424,-5.470,-7.033,-0.391,-5.861,16.020,-14.847,-1.954,-0.781,-8.987,-4.298,8.987,-5.470,-0.391,-14.847
'[15:23:47.563 02/09/2075]',16.801,-8.987,-3.126,-9.377,6.642,-3.126,-5.079,-1.954,16.801,-1.954,-5.470,1.563,-1.954,6.252,5.470,0.391,0.000,-6.252,3.907,1.563,-17.582,-5.079,5.470
'[15:23:47.566 02/09/2075]',14.847,-19.145,1.172,-9.768,4.689,-4.689,-5.079,-6.642,17.582,0.000,-3.907,-6.252,0.000,0.391,5.470,0.391,0.781,-7.033,-0.391,8.987,-17.973,-8.987,5.470
'[15:23:47.570 02/09/2075]',19.927,-8.205,-16.410,-1.954,5.861,-1.563,-4.298,-4.298,15.238,0.391,-3.126,-0.391,-1.954,-3.126,10.549,5.079,2.344,-7.814,17.192,-0.391,-17.582,-14.847,10.549
'[15:23:47.574 02/09/2075]',11.722,0.391,-37.900,7.814,-9.377,0.781,-7.033,0.000,9.377,-7.033,-8.205,3.516,-3.907,-3.907,-1.563,6.252,0.000,-8.987,38.681,-16.410,-5.079,-12.112,-1.563
'[15:23:47.578 02/09/2075]',9.768,-10.940,-27.350,13.284,-2.344,-7.814,-1.172,-1.954,6.642,-10.549,-4.689,-1.172,-8.205,4.689,-9.768,3.126,0.000,-8.987,28.132,-6.642,-4.298,0.781,-9.768
'[15:23:47.582 02/09/2075]',19.927,-8.205,-27.350,8.205,10.159,-12.894,-0.391,-1.954,1.172,-6.252,-4.689,5.470,-6.642,8.987,-11.331,3.126,-0.391,-8.596,28.132,-8.596,0.391,-1.563,-11.331
'[15:23:47.586 02/09/2075]',6.252,-9.768,-16.801,-0.781,-1.172,-5.079,-8.596,-3.516,-0.781,-10.940,-12.894,-7.033,-7.424,8.987,-23.443,-10.549,-3.516,-8.596,17.582,0.781,1.954,-3.907,-23.443
'[15:23:47.590 02/09/2075]',3.516,-17.973,-5.861,-18.364,-7.033,-9.768,-7.424,-12.503,-2.344,-8.596,-15.629,-26.569,0.391,0.391,-29.304,-26.178,-5.470,-10.159,6.642,5.079,-2.735,-2.735,-29.304
'[15:23:47.594 02/09/2075]',10.940,1.954,-25.788,-23.443,-6.642,-1.954,-7.814,-16.410,-5.079,-2.344,-14.457,-23.443,5.079,-13.675,-24.615,-14.847,-6.642,-10.940,26.569,-15.238,-6.642,-12.112,-24.615
'[15:23:47.598 02/09/2075]',10.940,0.000,-20.708,-15.238,-8.987,2.735,-6.642,-9.377,-4.298,-6.642,-12.503,-7.033,-0.781,-16.801,-24.615,10.159,-4.298,-8.596,21.490,-10.940,-12.894,-15.629,-24.615
'[15:23:47.602 02/09/2075]',5.470,-10.159,2.735,-2.344,-5.470,2.735,-1.563,0.781,4.689,-8.987,-11.331,16.410,-1.954,-3.126,-32.430,37.900,0.391,-5.079,-1.954,-8.987,-4.298,2.344,-32.430
'[15:23:47.605 02/09/2075]',15.629,-11.331,12.894,-3.907,12.112,2.344,0.391,-0.781,14.066,-8.205,-5.470,18.364,2.735,9.768,-22.271,26.960,0.391,-3.907,-12.112,-8.205,-7.033,20.317,-22.271
'[15:23:47.609 02/09/2075]',12.503,-14.847,13.675,-5.470,14.847,0.000,-3.516,-3.907,7.424,-10.159,-5.470,6.252,-3.516,26.178,-25.788,1.563,1.954,-6.252,-12.894,2.344,-0.781,25.788,-25.788
'[15:23:47.613 02/09/2075]',1.563,-20.317,10.159,-9.377,7.424,-5.079,-9.768,-8.596,3.126,-9.377,-13.284,-17.582,-5.470,25.788,-34.383,-23.834,0.000,-10.159,-9.377,3.516,3.516,30.476,-34.383
'[15:23:47.617 02/09/2075]',5.861,-24.225,-3.907,-9.768,0.781,-0.781,-12.112,-17.973,7.814,-4.298,-14.457,-28.132,5.079,-6.642,-11.722,-26.569,-2.344,-14.066,4.689,3.907,-3.126,10.159,-11.722
'[15:23:47.621 02/09/2075]',6.252,-29.304,-18.755,1.563,-2.344,-3.516,-12.894,-18.364,4.689,-5.470,-14.066,-19.145,3.126,-23.053,-10.549,-4.689,-2.735,-17.582,19.536,13.675,-0.781,-15.629,-10.549
'[15:23:47.625 02/09/2075]',4.689,-20.708,-19.145,2.344,-1.954,-5.861,-12.503,-9.377,7.033,-7.814,-16.801,-1.563,3.516,-28.132,-14.457,17.973,-0.781,-16.020,19.927,2.735,2.735,-22.271,-14.457
'[15:23:47.629 02/09/2075]',6.642,-8.205,-21.490,0.391,12.503,-10.940,-10.940,-11.331,14.847,-8.987,-14.847,7.424,9.377,-26.960,-16.410,31.258,-1.563,-14.066,22.271,-10.159,6.642,-15.238,-16.410
'[15:23:47.633 02/09/2075]',11.722,4.689,-23.834,-12.112,12.503,-7.814,-8.987,-12.503,16.801,-13.675,-11.722,0.391,4.298,-11.722,-6.642,4.689,-3.516,-12.894,24.615,-24.615,6.252,-7.033,-6.642
'[15:23:47.637 02/09/2075]',8.987,29.304,-35.165,-17.582,10.940,-3.907,-7.814,-10.549,5.470,-4.689,-13.675,-5.470,-0.391,6.642,-16.020,-8.987,-2.735,-10.940,35.946,-44.933,14.066,1.172,-16.020
'[15:23:47.641 02/09/2075]',9.768,6.252,-9.768,-17.973,7.424,0.000,-5.079,-13.284,3.126,-4.689,-12.112,-15.238,-0.391,2.735,-12.894,-17.973,-3.907,-7.814,10.549,-25.788,9.768,7.033,-12.894
'[15:23:47.645 02/09/2075]',11.331,-21.880,3.907,-7.033,1.954,3.907,-3.126,-14.457,5.861,-3.516,-8.596,-19.145,4.298,0.391,-10.549,-21.099,-3.516,-7.814,-3.126,0.781,1.954,10.940,-10.549
'[15:23:47.648 02/09/2075]',3.516,-6.642,-2.344,4.298,6.642,1.954,-1.172,-7.033,2.735,-1.954,-2.344,-2.735,0.000,11.722,-10.940,-5.861,-1.954,-5.470,3.126,0.391,-5.861,20.708,-10.940
'[15:23:47.652 02/09/2075]',1.954,-9.768,17.192,-1.954,12.503,3.907,-3.126,-5.079,8.596,-3.907,-2.735,1.172,8.596,-2.344,-3.516,-0.781,-0.781,-3.126,-16.410,3.907,-5.861,13.284,-3.516
'[15:23:47.656 02/09/2075]',-2.344,0.781,0.391,-1.954,11.722,-2.735,-2.344,-8.987,15.238,-7.424,-0.391,-3.126,4.298,-0.391,-6.252,5.079,-5.470,-4.298,0.391,-8.987,-9.377,11.722,-6.252
'[15:23:47.660 02/09/2075]',-4.689,17.973,-15.629,4.298,12.894,-3.907,-0.391,-5.470,12.894,-9.768,1.172,3.126,1.172,5.079,-15.238,14.847,-5.470,-1.954,16.410,-21.490,-5.861,14.457,-15.238
'[15:23:47.664 02/09/2075]',-2.344,6.642,-5.861,-5.079,4.689,-0.781,-2.344,-7.814,5.861,-11.331,-0.391,-4.689,-0.781,-3.126,-10.549,3.126,-7.424,-1.563,6.642,-14.457,0.781,1.563,-10.549
'[15:23:47.668 02/09/2075]',0.391,-12.112,-6.252,-3.516,-1.954,0.000,-6.252,-11.722,4.689,-10.940,-5.861,-11.331,0.781,0.391,-35.556,9.768,-7.814,-2.735,7.033,-0.391,-0.391,3.907,-35.556
'[15:23:47.672 02/09/2075]',11.331,-17.973,-1.172,0.000,13.284,-2.735,-7.424,-9.768,3.516,-3.126,-0.781,-12.112,8.596,1.563,-28.523,4.298,-6.252,-0.781,1.954,12.112,-5.079,6.642,-28.523
'[15:23:47.676 02/09/2075]',19.927,-10.159,-5.861,-5.470,17.973,-1.954,-8.205,-7.424,0.391,2.735,-1.954,-15.629,7.814,3.907,-22.662,-4.298,-3.516,-1.172,6.642,2.735,-0.781,3.907,-22.662
'[15:23:47.680 02/09/2075]',19.536,-2.735,-15.238,-7.424,27.350,-16.020,-5.861,-9.768,1.954,3.907,0.391,-15.238,10.549,2.344,-22.271,-0.781,-3.126,0.000,16.020,-7.814,1.172,2.735,-22.271
'[15:23:47.684 02/09/2075]',16.801,13.284,-25.006,1.172,21.099,-12.894,1.954,-2.344,3.126,2.344,4.689,-12.112,4.689,-6.642,-10.940,11.331,-5.470,4.298,25.788,-25.006,-2.344,-3.516,-10.940
'[15:23:47.688 02/09/2075]',7.814,-1.172,-16.801,8.987,4.689,-5.079,1.954,-1.563,-9.768,-0.781,5.079,-12.503,-3.516,-16.801,-3.516,5.470,-6.642,4.689,17.582,0.000,1.954,-19.145,-3.516
'[15:23:47.691 02/09/2075]',0.781,-1.172,-3.516,-4.689,-4.689,-3.126,2.344,-1.563,-10.549,-3.126,0.391,-14.847,-0.391,-18.364,-7.814,-2.344,-8.205,5.470,4.298,2.344,0.000,-21.880,-7.814
'[15:23:47.695 02/09/2075]',0.781,3.907,-2.344,1.172,2.735,0.391,1.954,0.391,-7.814,2.735,3.126,-16.020,4.298,-9.768,-17.192,3.907,-5.861,9.377,3.126,-3.907,-3.907,-5.079,-17.192
'[15:23:47.699 02/09/2075]',1.172,1.563,4.689,4.689,5.470,2.735,5.079,0.000,-11.331,9.768,10.159,-8.987,8.987,-3.907,-3.516,-1.563,-3.126,11.331,-3.907,-2.344,4.298,1.954,-3.516
'[15:23:47.703 02/09/2075]',1.172,2.735,6.642,11.331,14.457,-2.344,2.344,8.987,-1.954,6.642,8.596,5.861,7.814,4.689,-0.391,7.814,-0.391,10.549,-5.861,-6.252,10.159,7.424,-0.391
'[15:23:47.707 02/09/2075]',9.377,1.172,-5.470,16.020,24.615,-12.503,2.344,7.033,1.563,6.642,10.549,7.424,4.689,17.582,-4.298,8.987,-1.563,8.987,6.252,-16.410,5.470,24.615,-4.298
'[15:23:47.711 02/09/2075]',2.735,-1.563,-1.954,26.178,7.033,5.470,3.907,8.205,2.344,3.126,11.331,14.847,0.391,5.079,5.470,20.708,-1.172,9.377,2.735,-3.126,5.470,9.377,5.470
'[15:23:47.715 02/09/2075]',1.563,-7.424,6.252,12.894,2.344,7.424,-0.391,3.907,3.516,0.000,3.126,6.252,1.563,-2.735,4.689,9.768,-3.126,5.079,-5.470,8.987,9.768,-9.377,4.689
'[15:23:47.719 02/09/2075]',1.563,-1.954,0.000,5.861,0.781,3.907,-0.391,1.954,0.781,-0.391,-0.781,-1.954,-1.172,-4.298,-3.516,5.861,-2.344,3.516,0.781,0.391,6.252,-9.768,-3.516
'[15:23:47.723 02/09/2075]',-4.298,13.675,-12.503,3.907,-6.252,7.814,1.563,-2.344,-4.689,0.391,0.391,-7.033,3.516,-15.238,-14.066,14.066,-1.954,5.079,13.284,-7.424,5.861,-15.629,-14.066
'[15:23:47.727 02/09/2075]',-3.126,0.391,0.391,-0.391,-6.642,6.252,5.079,-7.424,-3.516,0.391,1.954,-19.145,10.159,-4.689,-29.695,3.907,-2.735,4.689,0.391,6.642,7.424,-0.781,-29.695
'[15:23:47.730 02/09/2075]',-0.781,1.954,4.298,-5.470,-5.079,0.000,5.861,0.000,-5.079,0.391,1.954,-13.675,7.424,6.252,-46.105,14.066,-2.735,5.861,-3.516,-0.781,8.205,9.768,-46.105
'[15:23:47.734 02/09/2075]',-1.172,17.973,-22.662,3.126,-7.033,-4.298,6.642,2.344,-7.424,-2.344,7.424,2.735,5.861,17.192,-37.509,14.066,-3.516,8.987,23.443,-20.317,3.126,28.913,-37.509
'[15:23:47.738 02/09/2075]',3.126,-1.954,-12.112,8.987,0.000,-4.689,5.861,-2.344,1.954,-0.391,15.629,-1.563,16.020,15.629,-8.987,-6.642,-1.954,8.596,12.894,5.079,3.907,24.225,-8.987
'[15:23:47.742 02/09/2075]',0.391,-1.563,1.172,4.298,6.252,-10.549,5.470,3.516,3.516,1.172,11.722,1.954,16.020,-2.735,11.331,-4.689,3.126,6.252,-0.391,12.112,16.020,-9.768,11.331
'[15:23:47.746 02/09/2075]',-0.391,0.781,-13.284,6.642,6.642,-10.940,0.391,-1.954,0.781,0.781,6.252,-2.735,12.112,-19.145,26.569,-14.847,4.298,1.172,14.066,9.768,12.112,-20.708,26.569
'[15:23:47.750 02/09/2075]',3.126,-9.377,7.424,1.954,6.252,-3.516,4.689,-3.516,-0.781,1.954,3.907,-8.596,13.284,-19.927,16.020,-12.894,7.424,0.391,-6.642,20.708,9.377,-16.020,16.020
'[15:23:47.754 02/09/2075]',1.172,-6.252,21.490,-6.642,-4.298,3.516,8.205,1.172,-1.563,2.735,7.424,1.954,13.284,-10.940,3.907,5.470,7.814,2.735,-20.708,17.192,14.457,-15.238,3.907
'[15:23:47.758 02/09/2075]',2.735,2.735,-1.172,4.298,-5.861,-1.172,3.126,12.894,-7.814,-3.907,3.516,14.457,6.252,-0.391,-10.940,10.549,3.516,4.298,1.954,-0.391,10.940,3.126,-10.940
'[15:23:47.762 02/09/2075]',13.284,-8.596,-11.722,4.689,-3.516,-9.768,3.516,7.033,-11.331,-8.596,5.861,10.549,8.987,4.298,-13.284,-3.126,-1.172,5.079,12.503,5.470,5.861,14.847,-13.284
'[15:23:47.766 02/09/2075]',3.907,-7.033,5.079,-5.470,1.563,-11.331,1.563,4.689,0.781,-12.894,5.470,3.516,17.192,-2.735,-10.940,-4.689,-3.516,3.516,-4.298,17.192,12.503,0.391,-10.940
'[15:23:47.770 02/09/2075]',0.391,3.516,3.516,-3.516,8.987,-8.205,-1.563,5.470,12.503,-13.675,3.516,0.391,20.317,-11.331,0.000,-5.861,-0.391,1.954,-2.735,16.801,25.397,-22.662,0.000
'[15:23:47.773 02/09/2075]',0.000,11.722,-18.364,6.642,10.940,-10.940,0.391,0.000,10.940,-14.066,1.563,-5.861,21.880,-24.615,8.596,-13.675,-3.126,0.781,19.145,5.079,29.304,-25.397,8.596
'[15:23:47.777 02/09/2075]',-2.735,28.132,-22.662,12.503,13.675,-2.735,2.344,1.563,16.020,-8.205,8.205,1.172,20.708,-17.973,16.410,-1.954,0.781,3.126,23.443,-8.987,24.615,-17.192,16.410
'[15:23:47.781 02/09/2075]',-3.126,52.357,-44.151,16.020,11.331,2.344,3.907,3.126,19.536,-6.252,13.675,7.814,21.099,-5.079,18.755,-0.391,2.735,5.861,44.933,-33.211,25.006,-8.205,18.755
'[15:23:47.785 02/09/2075]',-6.252,28.913,-54.701,33.602,3.516,-7.033,-0.391,6.642,7.033,-10.549,3.516,5.861,14.847,-8.987,5.861,-5.861,-3.126,3.516,55.482,-21.490,23.443,-0.391,5.861
'[15:23:47.789 02/09/2075]',-7.424,9.768,-5.470,-2.344,4.298,-3.126,0.391,-6.642,3.126,-7.814,1.954,-4.298,7.814,2.344,-9.768,-7.814,-5.079,2.735,6.252,0.000,10.549,7.814,-9.768
'[15:23:47.793 02/09/2075]',-3.126,3.126,15.629,-15.629,5.470,0.000,3.126,-8.987,6.642,-8.205,4.298,-7.424,8.205,8.987,-17.192,-5.079,-3.516,2.735,-14.847,10.549,2.735,8.987,-17.192
'[15:23:47.797 02/09/2075]',-3.907,-23.834,28.132,-8.596,8.596,-14.847,3.907,-6.642,0.391,-8.205,3.516,2.735,4.689,-3.126,-12.894,8.987,-5.470,3.516,-27.350,26.569,9.768,-5.079,-12.894
'[15:23:47.801 02/09/2075]',-5.470,-15.238,17.192,3.126,1.172,-7.814,5.079,0.391,-0.781,-7.424,4.689,11.331,0.000,-3.516,6.252,4.689,-5.079,5.079,-16.410,12.503,7.033,-1.563,6.252
'[15:23:47.805 02/09/2075]',0.781,-0.391,8.596,4.689,8.596,-1.954,5.861,0.391,4.689,-4.689,12.503,9.377,6.642,6.252,19.927,-10.940,-1.954,5.470,-7.814,5.470,8.205,0.391,19.927
'[15:23:47.809 02/09/2075]',-0.781,-0.391,0.391,9.768,17.973,-9.377,-1.563,1.954,5.861,-7.033,3.126,1.954,11.331,-1.172,10.940,-18.364,-1.563,1.563,0.391,7.033,24.615,-12.112,10.940
'[15:23:47.813 02/09/2075]',-3.907,-2.344,2.735,10.940,16.020,-5.861,-2.344,0.391,6.642,-10.549,2.344,-3.516,13.284,-14.066,15.238,-19.927,-4.689,1.563,-1.954,7.814,19.145,-12.894,15.238
'[15:23:47.816 02/09/2075]',4.298,17.192,-5.079,-6.642,19.927,-2.344,-1.563,-5.079,7.814,-7.424,0.781,-14.457,14.457,-3.126,-4.689,-19.927,-3.126,0.781,5.861,-11.331,8.987,-0.781,-4.689
'[15:23:47.820 02/09/2075]',5.861,18.364,-7.424,-7.033,25.397,-11.722,-1.954,-0.781,5.079,-6.252,-1.563,-15.238,13.284,6.252,-21.880,-17.192,-2.735,0.391,8.205,-11.331,12.112,3.907,-21.880
'[15:23:47.824 02/09/2075]',-1.172,5.079,-2.344,6.252,2.344,-0.391,-0.391,7.033,4.298,-7.814,0.391,7.424,9.768,-12.112,-0.391,7.814,-2.735,4.298,3.126,-3.907,8.205,-8.205,-0.391
'[15:23:47.828 02/09/2075]',2.735,6.642,-23.443,21.099,-4.689,3.126,-2.735,10.940,-1.563,-2.735,-1.172,8.205,5.470,-19.145,-0.781,16.020,-2.735,3.907,24.225,-14.066,10.940,-16.410,-0.781
'[15:23:47.832 02/09/2075]',0.000,0.391,-21.099,21.880,-5.079,1.172,-7.033,12.112,-7.424,-3.516,-3.907,10.940,1.172,-4.689,-18.364,16.801,-3.516,0.781,21.880,1.954,10.940,-9.768,-18.364
'[15:23:47.836 02/09/2075]',-7.424,-2.344,-21.099,24.615,-5.470,3.516,-12.894,8.596,0.781,-5.861,-3.126,6.252,3.907,0.781,-20.317,13.675,-3.516,1.563,21.880,5.861,15.629,-7.814,-20.317
'[15:23:47.840 02/09/2075]',-3.907,5.079,-37.118,22.271,0.000,-5.079,-8.987,1.954,-1.563,-5.861,3.516,-5.470,4.689,5.079,-14.457,-5.861,-5.861,1.172,37.900,-5.861,2.735,11.331,-14.457
'[15:23:47.844 02/09/2075]',-1.954,6.252,2.344,0.391,13.675,-5.861,-2.735,2.735,4.689,-3.126,5.861,-4.298,13.675,36.337,-37.509,-10.159,-1.563,3.516,-1.563,-1.172,0.000,49.231,-37.509
'[15:23:47.848 02/09/2075]',-2.735,5.861,10.549,-2.735,11.722,0.000,0.391,-0.391,6.252,-1.954,3.516,-9.377,12.112,19.536,-17.192,-16.801,-0.391,4.298,-9.768,5.470,5.079,27.350,-17.192
'[15:23:47.852 02/09/2075]',-3.126,3.126,11.722,-1.563,0.000,4.689,1.954,3.126,9.768,-5.470,-0.781,2.344,7.424,-13.675,16.410,-3.907,-0.391,6.252,-10.940,3.126,9.377,-10.159,16.410
'[15:23:47.855 02/09/2075]',0.391,-16.410,24.225,7.033,1.954,4.689,3.907,4.298,8.596,2.344,-4.298,4.298,14.457,-25.397,19.145,1.954,-0.781,7.033,-23.443,20.708,14.066,-17.582,19.145
'[15:23:47.859 02/09/2075]',0.391,-18.364,10.159,16.801,-6.252,8.596,1.563,5.079,8.987,3.126,-7.033,1.563,5.079,-19.536,1.563,18.755,0.000,8.205,-9.377,24.615,18.755,-29.695,1.563
'[15:23:47.863 02/09/2075]',0.391,-28.132,8.205,21.099,-14.066,7.033,-0.391,8.987,1.172,5.079,-3.907,5.470,0.781,-13.284,-1.954,23.053,-1.954,10.549,-7.424,21.490,13.675,-17.582,-1.954
'[15:23:47.867 02/09/2075]',-1.563,-16.410,6.642,20.317,-5.470,5.079,0.391,8.205,-1.563,9.768,-1.172,4.298,6.252,0.391,-7.814,11.722,-1.954,10.940,-5.861,8.596,17.973,7.814,-7.814
'[15:23:47.871 02/09/2075]',-9.377,16.410,3.907,25.006,12.894,8.596,3.516,8.596,0.391,12.894,5.079,3.907,6.252,10.549,-24.615,32.039,5.079,12.894,-3.126,0.781,17.582,11.331,-24.615
'[15:23:47.875 02/09/2075]',-7.033,34.774,-6.642,8.205,15.629,3.516,-1.563,10.549,1.563,7.033,1.563,5.470,7.033,2.344,1.172,5.079,5.861,10.549,7.424,-10.549,9.768,1.563,1.172
'[15:23:47.879 02/09/2075]',-1.954,19.927,-17.973,-0.781,8.987,-7.814,-2.735,0.391,-5.470,5.079,-1.563,-3.126,10.159,-15.238,15.238,-16.410,1.172,6.642,18.755,-8.987,8.596,-7.033,15.238
'[15:23:47.883 02/09/2075]',1.954,1.563,-14.847,-4.689,3.516,-10.549,-4.298,-3.907,-6.252,0.000,-5.470,-17.973,11.331,-29.304,1.172,-14.457,-1.563,2.735,15.629,7.424,-1.172,-19.145,1.172
'[15:23:47.887 02/09/2075]',13.284,-18.755,-19.536,-17.582,-19.145,-2.344,-12.112,-8.205,-13.284,-8.596,-14.066,-24.615,4.689,-33.211,-16.020,-16.801,-4.298,-1.954,20.317,21.490,-10.940,-33.211,-16.020
'[15:23:47.891 02/09/2075]',13.675,-37.509,-11.331,-21.880,-31.258,4.689,-13.284,-16.020,-20.708,-10.940,-17.973,-39.072,7.814,-36.728,-33.602,-27.350,-10.940,-3.126,12.112,30.867,-6.252,-27.350,-33.602
'[15:23:47.895 02/09/2075]',0.391,17.582,-2.735,-12.894,3.126,23.053,-5.861,-19.145,10.159,-2.344,-5.861,-39.072,22.271,-19.927,-28.132,-12.503,1.172,2.344,3.516,1.172,11.722,-11.722,-28.132
'[15:23:47.898 02/09/2075]',-4.689,42.198,19.927,2.735,30.867,32.039,0.391,-3.907,26.178,7.814,6.642,-9.377,33.993,-3.907,-9.377,10.549,12.894,10.159,-19.145,2.735,26.960,-6.642,-9.377
'[15:23:47.902 02/09/2075]',-10.159,57.827,26.569,3.907,36.337,32.430,2.735,5.079,32.430,10.940,6.642,0.781,46.886,-3.907,4.298,4.298,14.066,11.722,-25.788,-6.642,35.165,-1.954,4.298
'[15:23:47.906 02/09/2075]',-23.443,82.051,22.271,9.377,49.621,22.662,7.814,7.814,40.635,14.066,7.424,3.516,66.032,-5.861,-2.344,9.377,15.238,10.549,-21.490,-16.801,46.886,5.079,-2.344
'[15:23:47.910 02/09/2075]',-32.821,85.177,20.317,16.410,47.668,21.099,9.768,8.596,41.807,9.768,5.861,0.391,77.753,-21.880,-16.020,19.145,16.410,6.252,-19.536,-7.424,55.873,-8.987,-16.020
'[15:23:47.914 02/09/2075]',-28.132,86.349,17.582,16.020,46.886,27.350,5.861,10.159,43.761,3.907,0.391,-7.424,92.210,-35.165,-20.317,4.689,15.238,5.079,-16.801,0.391,57.436,-17.192,-20.317
'[15:23:47.918 02/09/2075]',-33.211,78.926,10.940,25.397,37.118,28.523,2.735,11.722,36.337,-1.563,-4.298,0.000,94.945,-38.291,-33.211,7.033,12.503,5.861,-10.159,6.252,67.204,-13.284,-33.211
'[15:23:47.922 02/09/2075]',-31.648,80.098,5.861,34.383,49.621,23.443,4.689,8.596,46.105,-0.391,3.126,3.516,102.369,-41.416,-11.722,4.298,13.675,6.252,-5.079,9.377,77.753,-24.615,-11.722
'[15:23:47.926 02/09/2075]',-30.867,93.382,28.523,8.205,55.092,24.225,2.344,15.238,35.946,3.126,1.954,15.238,99.243,-37.509,-12.503,9.768,15.629,8.205,-27.741,8.205,73.455,-29.695,-12.503
'[15:23:47.930 02/09/2075]',-37.509,98.462,17.973,1.172,50.403,12.112,1.954,13.284,26.960,3.126,-2.344,11.722,94.164,-24.225,-38.681,10.159,12.112,6.252,-17.192,-4.298,68.376,-10.549,-38.681
'[15:23:47.934 02/09/2075]',-37.118,126.203,0.391,-5.861,57.045,4.298,6.642,10.940,33.211,10.940,0.391,8.987,100.024,-37.509,-24.615,16.410,10.940,4.298,0.391,-36.728,65.641,-17.973,-24.615
'[15:23:47.938 02/09/2075]',-33.602,108.230,14.457,-12.112,62.125,-3.126,5.470,10.940,28.913,9.768,0.391,0.391,101.587,-60.171,-18.755,17.582,10.940,0.781,-13.675,-16.020,57.827,-39.072,-18.755
'[15:23:47.941 02/09/2075]',-28.132,72.283,17.192,2.735,43.370,4.689,1.563,12.894,26.569,5.861,-1.954,1.563,93.382,-60.952,-5.861,5.861,9.377,-0.781,-16.410,10.549,52.357,-37.900,-5.861
'[15:23:47.945 02/09/2075]',-26.569,48.449,19.145,4.298,28.523,3.126,2.344,9.768,24.225,-0.781,-6.252,4.689,88.303,-72.674,-11.722,17.973,3.516,-3.126,-18.364,17.973,47.668,-39.463,-11.722
'[15:23:47.949 02/09/2075]',-30.867,35.556,15.238,7.814,19.145,-1.172,0.391,8.987,13.284,-4.298,-8.596,2.344,74.237,-67.595,-11.331,6.642,0.391,-5.470,-14.457,32.430,44.933,-41.026,-11.331
'[15:23:47.953 02/09/2075]',-31.648,48.449,14.847,-7.814,9.768,12.894,-4.298,3.126,15.629,-7.424,-12.894,0.000,64.078,-44.151,-16.410,-7.424,0.391,-2.344,-14.066,24.225,44.151,-34.383,-16.410
'[15:23:47.957 02/09/2075]',-27.741,62.515,-5.079,-5.861,11.722,3.907,0.781,4.298,8.205,-3.516,-15.629,5.470,59.389,-36.337,-43.370,14.847,-3.907,1.563,5.861,0.000,37.118,-22.271,-43.370
'[15:23:47.961 02/09/2075]',-30.476,79.707,-18.364,1.563,17.582,0.781,3.907,6.252,7.424,3.516,-4.298,7.033,62.125,-30.085,0.391,-17.582,-2.735,5.861,19.145,-11.331,34.774,-16.020,0.391
'[15:23:47.965 02/09/2075]',-31.258,73.455,-1.954,1.563,20.708,4.298,5.470,8.987,13.284,3.516,0.391,22.662,63.297,-22.271,-1.563,1.954,0.000,9.377,2.735,2.344,32.039,-14.457,-1.563
'[15:23:47.969 02/09/2075]',-32.039,45.324,9.768,10.549,5.861,5.470,4.689,16.020,3.516,5.079,-3.126,34.774,56.264,-11.722,-20.317,16.020,-0.781,8.596,-8.987,13.675,37.900,-2.735,-20.317
'[15:23:47.973 02/09/2075]',-34.383,42.198,15.238,2.344,0.391,8.205,6.252,9.377,0.391,5.861,-4.298,16.801,60.562,-28.913,-3.516,-7.424,-2.344,7.033,-14.457,15.238,40.244,-13.284,-3.516
'[15:23:47.977 02/09/2075]',-34.774,42.979,23.443,-7.033,0.000,11.722,7.814,3.907,6.252,1.172,-5.861,5.079,57.045,-45.714,9.377,-13.675,-1.954,4.689,-22.662,14.457,41.026,-31.648,9.377
'[15:23:47.980 02/09/2075]',-28.913,28.523,19.927,0.000,-0.781,10.549,3.516,3.907,1.172,0.000,-8.987,-2.344,47.668,-42.979,-11.331,-2.735,-3.907,4.689,-19.145,20.708,46.105,-37.900,-11.331
'[15:23:47.984 02/09/2075]',-29.304,60.171,0.000,0.391,14.457,3.907,3.516,6.252,4.298,0.391,-8.987,-3.907,49.621,-40.635,-11.331,-4.689,-3.516,5.470,0.781,-9.377,41.026,-23.443,-11.331
'[15:23:47.988 02/09/2075]',-27.350,69.548,-12.894,11.331,28.523,0.000,3.126,5.470,19.927,-5.079,-1.172,-1.563,58.608,-37.118,-15.629,6.642,-2.344,4.298,13.675,-7.424,37.900,-24.615,-15.629
'[15:23:47.992 02/09/2075]',-25.006,70.330,-20.317,10.159,14.066,8.205,0.391,9.768,14.457,-3.907,-0.781,20.708,52.747,-22.662,-33.211,34.774,-0.391,4.298,21.099,-14.066,39.853,-16.801,-33.211
'[15:23:47.996 02/09/2075]',-26.960,75.800,-18.364,3.516,12.503,9.377,-0.781,9.377,4.689,3.516,1.172,17.192,57.827,-12.112,-12.112,-3.907,1.563,3.516,19.145,-27.741,41.416,9.768,-12.112
'[15:23:48.000 02/09/2075]',-32.821,56.654,0.391,-5.861,3.126,12.894,1.172,0.000,5.470,4.298,7.424,9.377,61.734,-25.788,19.927,-26.569,1.563,0.781,0.391,-5.861,36.337,2.344,19.927
'[15:23:48.004 02/09/2075]',-35.946,52.747,2.735,-10.159,-3.126,10.940,0.391,-0.391,-3.907,5.079,4.689,8.205,43.370,-28.913,14.847,-13.675,1.563,-0.781,-1.954,-5.470,41.026,-14.847,14.847
'[15:23:48.008 02/09/2075]',-39.853,45.324,5.079,-11.722,3.907,3.126,-6.642,-3.126,-7.033,5.861,0.000,3.516,42.198,-17.582,-3.126,-16.801,0.781,-2.735,-4.298,1.172,39.853,-3.907,-3.126
'[15:23:48.012 02/09/2075]',-32.039,33.602,13.675,-20.708,21.490,-11.722,-5.079,-10.159,4.689,0.391,-1.954,-2.344,44.933,-23.443,-25.788,6.642,-1.172,-4.689,-12.894,6.642,33.602,-10.940,-25.788
'[15:23:48.016 02/09/2075]',-19.145,28.132,8.987,-24.225,15.238,-3.516,-8.987,-9.377,15.238,-5.861,-9.768,-6.642,42.589,-18.755,-50.403,19.145,-2.735,-8.205,-8.205,8.205,35.556,-21.099,-50.403
'[15:23:48.020 02/09/2075]',-17.973,26.569,-6.252,-16.410,11.722,-4.298,-17.192,-5.470,13.675,-9.768,-9.768,-4.689,37.509,-18.755,-10.159,-18.364,-3.126,-12.894,7.033,6.642,33.993,-22.271,-10.159
'[15:23:48.023 02/09/2075]',-21.490,37.900,0.391,-22.662,16.801,-1.172,-14.066,-7.814,21.099,-10.159,-8.987,-2.735,41.416,-17.192,-6.252,-18.364,-1.954,-12.894,0.391,-1.563,38.681,-14.847,-6.252
'[15:23:48.027 02/09/2075]',-27.350,52.357,5.079,-21.490,21.099,3.907,-9.768,-7.033,22.271,-6.252,-5.861,-8.205,44.933,-23.443,18.364,-37.900,-1.172,-12.112,-4.298,-6.642,42.589,-18.364,18.364
'[15:23:48.031 02/09/2075]',-28.913,56.264,-0.391,-14.066,15.238,5.470,-7.424,-2.344,23.834,-10.549,-5.470,7.424,42.589,-22.662,21.490,-26.178,0.000,-9.768,1.172,-8.596,41.416,-19.145,21.490
'[15:23:48.035 02/09/2075]',-35.165,50.403,19.145,-20.317,8.987,6.252,-2.344,0.391,19.145,-6.642,-9.377,6.252,44.151,-25.006,9.377,-18.364,0.391,-4.689,-18.364,-6.642,44.933,-16.020,9.377
'[15:23:48.039 02/09/2075]',-31.258,30.476,32.430,-16.020,3.516,8.596,0.391,1.563,16.801,0.781,-7.033,10.549,50.403,-30.085,2.735,-1.172,0.000,-3.907,-31.648,8.205,36.337,-15.629,2.735
'[15:23:48.043 02/09/2075]',-18.755,20.708,12.112,-3.907,4.298,3.516,-1.563,2.344,16.020,-1.563,-8.205,7.424,48.840,-25.397,-9.768,1.563,-1.172,-4.689,-11.331,17.192,32.039,-16.801,-9.768
'[15:23:48.047 02/09/2075]',-24.225,29.304,-6.252,1.954,6.252,-3.907,-3.907,1.563,10.940,-3.126,-13.284,-4.689,39.463,-15.238,-32.039,-1.563,-1.563,-5.470,7.033,7.814,35.946,-11.331,-32.039
'[15:23:48.051 02/09/2075]',-27.350,36.728,-24.225,11.722,14.066,-13.284,-3.516,-0.391,15.629,-5.861,-13.284,-4.298,41.807,-17.192,-44.933,12.503,-3.126,-5.861,25.006,2.735,35.556,-8.596,-44.933
'[15:23:48.055 02/09/2075]',-21.099,46.496,-28.523,10.159,19.927,-15.629,0.391,1.563,18.755,-10.159,-7.424,-1.954,41.416,-7.814,-38.291,3.516,-4.298,-3.516,29.304,-3.907,38.291,-2.735,-38.291
'[15:23:48.059 02/09/2075]',-14.457,40.635,-9.377,1.954,12.112,-6.642,2.735,8.987,14.847,-9.768,-10.159,3.516,34.383,-13.284,-14.457,-7.033,-1.563,0.391,10.159,-4.689,42.589,-14.066,-14.457
'[15:23:48.063 02/09/2075]',-15.238,25.397,11.722,-11.722,5.079,-8.205,5.079,6.642,7.424,0.391,-10.940,2.735,39.463,-22.662,3.516,-19.927,-3.126,-1.172,-10.940,0.781,42.198,-17.192,3.516
'[15:23:48.066 02/09/2075]',-1.954,31.648,0.391,-7.814,11.722,0.391,5.079,3.126,11.331,5.861,-4.298,10.549,43.370,-23.443,12.503,-8.205,-0.781,0.781,0.391,-5.861,34.774,-12.894,12.503
'[15:23:48.070 02/09/2075]',5.861,27.741,3.126,-13.675,8.987,1.954,7.033,3.516,16.020,4.689,-8.987,5.470,38.681,-20.317,18.755,-18.755,1.172,1.954,-2.344,-10.549,33.993,-22.662,18.755
'[15:23:48.074 02/09/2075]',-16.020,39.072,-12.503,-7.424,6.642,-8.205,3.126,-1.172,18.364,-1.954,-12.112,-3.126,47.668,-21.099,-3.907,-21.099,0.000,0.000,13.284,-8.987,37.900,-17.582,-3.907
'[15:23:48.078 02/09/2075]',-18.755,62.515,-36.337,-4.689,19.145,-17.192,3.907,-6.252,16.410,-3.907,-3.516,-10.159,49.231,-13.284,-17.192,-19.145,-1.563,1.954,37.118,-25.397,32.821,-4.689,-17.192
'[15:23:48.082 02/09/2075]',-21.099,55.873,-30.476,-1.563,6.252,-8.205,5.470,-2.735,11.331,-6.252,-1.563,-4.298,45.714,-1.172,-29.304,-14.457,-0.781,3.516,31.258,-16.020,39.072,-2.344,-29.304
'[15:23:48.086 02/09/2075]',-22.271,31.258,-6.642,8.987,-2.344,1.563,3.126,6.252,-2.735,1.563,0.000,13.675,38.681,19.145,-40.244,-5.861,0.391,6.642,7.424,8.205,40.244,14.847,-40.244
'[15:23:48.090 02/09/2075]',-12.112,18.755,5.861,0.391,2.735,8.987,-0.391,0.391,-7.033,0.781,1.563,14.066,36.337,1.172,-41.026,13.284,0.781,3.907,-5.079,15.238,35.165,2.344,-41.026
'[15:23:48.094 02/09/2075]',-1.954,6.642,10.159,-0.391,1.563,14.066,0.391,-1.954,-3.516,-0.391,3.126,20.708,28.913,-16.410,-5.861,13.284,5.079,1.954,-9.377,20.317,35.556,-23.834,-5.861
'[15:23:48.098 02/09/2075]',1.563,5.861,21.099,-17.973,4.298,8.596,-1.172,-2.344,-0.391,-8.596,-4.689,8.596,30.476,-24.615,-1.563,-9.768,5.861,-1.172,-20.317,18.755,32.039,-33.602,-1.563
'[15:23:48.102 02/09/2075]',-5.470,33.602,-10.159,-26.178,0.781,3.907,-6.252,-7.814,3.126,-21.099,-9.377,-6.252,34.383,-27.741,-14.066,-25.788,3.907,-6.252,10.940,-6.252,32.821,-35.556,-14.066
'[15:23:48.105 02/09/2075]',-6.642,52.357,-14.457,-35.165,3.516,2.735,0.391,-13.284,4.298,-17.582,-7.814,-15.629,37.509,-14.847,-17.973,-40.244,4.298,-7.033,15.238,-19.145,32.039,-21.490,-17.973
'[15:23:48.109 02/09/2075]',-5.079,37.118,-1.563,-18.364,6.252,2.344,2.735,-1.172,1.954,-14.847,-3.907,-8.987,35.165,7.033,-27.350,-42.198,5.079,-5.861,2.344,0.000,23.443,2.344,-27.350
'[15:23:48.113 02/09/2075]',-2.735,10.940,4.689,3.907,7.814,10.940,-2.344,0.000,8.205,-13.284,0.000,4.689,32.039,22.662,-30.085,-25.006,5.470,-3.516,-3.907,17.973,25.788,17.192,-30.085
'[15:23:48.117 02/09/2075]',-2.344,10.159,9.377,-3.126,13.675,5.861,-3.907,-2.735,8.205,-12.503,0.391,12.503,33.993,-12.894,-9.377,-1.954,5.470,-7.424,-8.596,15.238,25.788,-9.377,-9.377
'[15:23:48.121 02/09/2075]',5.470,10.940,-5.079,-4.298,22.662,-6.642,-5.470,-2.735,4.298,-14.457,2.735,6.252,28.132,-25.397,8.987,-12.112,5.079,-10.940,5.861,8.596,25.788,-29.695,8.987
'[15:23:48.125 02/09/2075]',8.596,23.834,-35.946,-9.377,8.596,-3.516,-14.847,-2.735,-5.470,-21.490,-7.424,0.781,23.834,-29.695,-17.973,-9.377,3.126,-16.410,36.728,-5.470,25.397,-37.900,-17.973
'[15:23:48.129 02/09/2075]',-0.781,63.687,-51.966,-33.602,0.000,0.000,-11.331,-12.894,-13.284,-19.927,-2.344,-12.112,22.271,-39.853,-5.861,-23.834,0.391,-18.755,52.747,-36.337,16.020,-40.635,-5.861
'[15:23:48.133 02/09/2075]',0.781,47.668,-21.880,-27.741,-1.954,3.516,-2.344,-0.391,-17.192,-10.549,8.987,11.331,19.145,-25.788,13.284,-14.457,1.563,-14.066,22.662,-21.880,14.847,-25.788,13.284
'[15:23:48.137 02/09/2075]',0.391,24.615,0.000,-15.238,0.391,5.861,-3.126,6.252,-9.768,-7.424,6.252,19.536,26.178,-14.847,13.284,-15.238,1.954,-12.112,0.781,8.205,7.033,-13.675,13.284
'[15:23:48.141 02/09/2075]',-4.689,5.079,20.317,-13.675,5.861,-1.954,-1.954,3.907,-0.391,-7.033,4.298,21.099,34.774,-13.284,8.596,-11.331,-0.391,-11.722,-19.536,23.834,14.847,-10.159,8.596
'[15:23:48.145 02/09/2075]',-4.689,-3.907,29.695,-12.503,11.331,-7.814,0.781,3.126,10.549,-7.814,5.079,17.973,42.589,-8.596,8.987,-15.238,0.391,-10.549,-28.913,26.569,24.615,-3.907,8.987
'[15:23:48.148 02/09/2075]',-5.470,10.940,7.814,-10.549,7.033,-6.252,0.000,1.954,13.675,-8.205,-1.172,7.424,38.681,1.954,-12.503,-16.410,0.391,-10.940,-7.033,16.020,27.350,-3.907,-12.503
'[15:23:48.152 02/09/2075]',-10.940,30.085,-17.192,-10.940,-3.516,-6.642,-1.172,1.172,6.642,-8.596,-8.205,-5.861,27.741,19.927,-44.933,-18.755,-1.563,-12.894,17.973,-0.781,30.476,4.689,-44.933
'[15:23:48.156 02/09/2075]',-1.563,35.556,-27.350,-8.596,-5.861,-0.391,5.079,-2.344,7.424,-4.298,-2.735,-9.377,24.615,12.112,-27.350,-18.755,1.563,-10.940,28.132,-10.940,27.741,-0.391,-27.350
'[15:23:48.160 02/09/2075]',2.344,44.933,-26.960,1.954,3.516,-3.516,9.768,11.331,6.252,-2.344,-0.391,4.298,23.834,-2.344,-21.880,8.596,2.735,-7.033,27.741,-14.847,16.801,-8.596,-21.880
'[15:23:48.164 02/09/2075]',5.861,33.211,-9.768,-3.516,14.847,-11.722,8.987,11.331,1.563,-1.172,-3.516,-3.516,18.755,-13.675,-1.563,-9.377,3.126,-4.689,10.549,-3.516,10.549,-22.271,-1.563
'[15:23:48.168 02/09/2075]',11.722,8.987,2.735,4.689,10.159,-5.861,11.331,12.112,5.861,-1.954,-1.954,1.563,21.099,-17.973,3.516,-3.126,4.689,-1.172,-1.954,7.424,12.112,-19.927,3.516
'[15:23:48.172 02/09/2075]',4.298,13.284,32.821,1.172,9.768,9.377,18.755,12.894,10.159,6.642,8.987,19.536,24.615,-12.503,34.383,1.563,10.159,8.205,-32.039,15.629,7.814,-11.331,34.383
'[15:23:48.176 02/09/2075]',5.861,12.894,35.165,-2.344,2.344,18.755,15.629,14.457,2.344,12.112,4.689,19.145,21.880,-5.470,5.861,16.801,13.284,9.377,-34.383,19.536,5.470,-11.331,5.861
'[15:23:48.180 02/09/2075]',10.549,9.768,12.112,-4.298,-10.159,19.536,11.722,7.814,-5.470,17.582,1.172,6.252,24.615,8.596,-11.722,-0.781,11.722,5.861,-11.331,8.205,9.768,2.344,-11.722
'[15:23:48.184 02/09/2075]',6.252,30.476,1.172,-7.424,-10.549,21.880,14.847,3.516,-7.814,22.662,4.689,6.642,23.443,-8.205,10.159,1.563,14.457,7.424,-0.391,-10.549,2.735,-6.252,10.159
'[15:23:48.188 02/09/2075]',8.596,22.271,-14.847,1.954,-7.424,12.503,7.814,4.298,-13.284,17.192,0.391,0.391,22.271,-18.364,-5.470,6.252,15.238,0.781,15.629,-1.563,1.172,-22.662,-5.470
'[15:23:48.191 02/09/2075]',5.079,28.132,-26.569,0.000,-9.377,8.596,6.642,0.391,-14.847,13.284,-0.391,-9.768,16.020,-11.331,0.781,-17.973,14.457,0.000,27.350,-10.159,10.159,-24.225,0.781
'[15:23:48.195 02/09/2075]',-5.079,36.728,-7.814,11.331,8.205,12.503,12.503,0.000,3.516,13.284,5.470,0.391,23.443,-1.172,7.033,-5.861,20.317,4.298,8.596,-5.861,13.675,-7.814,7.033
'[15:23:48.199 02/09/2075]',-1.563,36.337,17.582,7.424,26.569,21.880,9.377,1.172,17.973,9.377,5.470,-0.781,33.993,3.516,-5.079,0.000,24.615,2.735,-16.801,14.847,16.410,-8.987,-5.079
'[15:23:48.203 02/09/2075]',0.781,38.291,24.615,-9.768,21.880,26.569,3.907,1.172,19.145,3.126,0.391,-3.907,39.463,-3.126,-18.755,1.954,23.053,0.391,-23.834,15.629,17.192,-20.317,-18.755
'[15:23:48.207 02/09/2075]',-2.344,43.761,17.192,-8.596,17.582,26.569,3.907,0.000,19.145,0.781,0.781,-3.516,46.496,-19.145,-15.629,6.252,21.099,0.000,-16.410,8.987,16.020,-25.006,-15.629
'[15:23:48.211 02/09/2075]',-2.344,50.794,11.722,2.344,32.039,23.834,6.252,0.000,22.662,3.907,7.424,8.987,55.482,-29.304,-3.126,22.662,24.225,0.391,-10.940,6.252,17.582,-26.178,-3.126
'[15:23:48.215 02/09/2075]',-6.252,36.728,12.894,10.549,23.053,19.536,6.252,3.907,17.582,3.516,7.814,16.410,55.873,-28.913,-7.424,28.913,22.662,0.781,-12.112,15.629,23.834,-26.178,-7.424
'[15:23:48.219 02/09/2075]',-15.238,44.933,18.364,17.973,19.536,16.410,13.284,14.847,17.973,6.252,10.159,28.913,54.701,-20.708,1.563,30.085,24.225,5.470,-17.582,0.391,32.821,-13.675,1.563
'[15:23:48.223 02/09/2075]',-17.582,60.171,25.006,15.238,40.635,17.973,11.722,10.159,28.913,12.112,14.066,20.708,56.654,-6.642,19.536,8.596,26.178,7.424,-24.225,-6.252,32.039,0.391,19.536
'[15:23:48.227 02/09/2075]',-12.112,62.515,21.099,4.689,28.523,28.132,9.768,7.814,29.695,7.424,10.159,3.126,54.701,4.689,-5.079,-2.344,25.006,1.563,-20.317,-6.642,22.662,12.112,-5.079
'[15:23:48.230 02/09/2075]',-10.940,64.860,-0.391,0.391,16.801,26.569,3.126,3.907,21.490,3.516,7.424,-5.861,50.794,-11.722,-0.391,-10.549,23.834,-0.781,1.172,-11.722,21.099,-7.424,-0.391
'[15:23:48.234 02/09/2075]',-8.205,71.111,-25.397,9.377,22.662,18.364,1.172,1.954,15.238,5.470,5.861,-0.781,46.886,-28.132,4.298,4.298,19.927,-3.907,26.178,-22.662,14.066,-16.410,4.298
'[15:23:48.238 02/09/2075]',-1.954,50.794,-18.755,14.066,22.662,14.066,4.298,0.391,12.894,9.768,12.112,-0.391,55.482,-31.258,12.894,-1.172,18.364,-3.516,19.536,-3.907,16.801,-17.582,12.894
'[15:23:48.242 02/09/2075]',3.126,21.099,4.298,13.675,15.629,18.364,2.735,4.298,3.126,18.755,8.987,7.033,55.092,-25.788,-1.172,12.503,18.755,0.000,-3.516,15.629,28.913,-23.053,-1.172
'[15:23:48.246 02/09/2075]',-0.781,20.708,28.132,8.596,26.960,10.159,7.814,9.768,7.814,20.708,8.987,10.549,50.794,-13.284,19.145,-5.470,14.457,3.907,-27.350,10.940,26.960,-5.861,19.145
'[15:23:48.250 02/09/2075]',-4.298,25.397,33.211,-0.781,22.271,14.066,10.159,4.689,13.284,19.927,7.424,-2.735,44.151,10.159,10.159,-25.397,11.722,2.344,-32.430,11.331,19.536,15.629,10.159
'[15:23:48.254 02/09/2075]',-1.172,26.569,39.853,-14.457,12.894,22.271,8.596,4.298,9.377,15.238,0.000,-11.331,31.258,23.834,-20.708,-19.927,11.331,1.563,-39.072,12.503,14.066,20.708,-20.708
'[15:23:48.258 02/09/2075]',-14.847,32.430,28.913,-6.642,10.940,8.596,8.205,8.205,8.205,12.503,-2.735,-4.298,25.397,-5.470,12.894,-17.973,8.205,1.954,-28.132,8.987,8.987,-3.126,12.894
'[15:23:48.262 02/09/2075]',-15.238,46.496,12.112,-1.954,16.801,-1.563,13.675,10.549,16.020,10.549,-4.689,5.079,25.006,-21.490,23.834,0.391,6.252,1.954,-11.331,-9.377,4.298,-11.331,23.834
'[15:23:48.266 02/09/2075]',-8.205,54.701,5.470,0.391,25.006,7.033,12.894,4.298,19.927,19.536,0.781,8.987,32.430,-16.020,30.867,3.907,12.503,3.126,-4.689,-11.331,13.675,-15.629,30.867
'[15:23:48.270 02/09/2075]',-9.377,33.602,16.410,7.814,27.350,2.735,7.814,8.205,21.880,21.880,-2.344,12.503,35.165,-12.112,27.350,4.689,12.503,0.781,-15.629,5.861,19.536,-14.457,27.350
'[15:23:48.273 02/09/2075]',-3.126,25.006,13.675,9.768,41.026,-5.470,7.033,1.954,26.569,15.238,-3.516,4.298,36.337,5.079,-4.298,6.252,9.768,-1.172,-12.894,9.377,19.536,6.642,-4.298
'[15:23:48.277 02/09/2075]',-1.563,32.039,8.205,6.252,38.681,0.781,7.424,-2.735,24.225,14.066,-3.516,-8.205,40.244,18.364,-24.615,-6.642,11.722,-4.689,-7.424,7.033,23.443,19.536,-24.615
'[15:23:48.281 02/09/2075]',-2.735,27.350,1.172,2.344,28.523,-0.781,3.516,-3.907,14.847,9.768,-5.861,-16.020,35.556,2.344,-32.430,-1.563,7.033,-4.689,-0.391,8.596,20.708,0.000,-32.430
'[15:23:48.285 02/09/2075]',-5.470,30.476,2.344,-10.159,22.271,-7.814,6.252,-4.298,16.801,0.781,-10.940,-16.410,30.476,-12.112,-15.629,-10.940,4.298,-5.470,-1.563,-0.781,12.894,-8.987,-15.629
'[15:23:48.289 02/09/2075]',-3.126,30.085,9.377,-10.549,11.331,1.563,13.675,-3.126,12.894,7.424,-3.907,-4.298,28.913,-17.973,14.066,-11.331,5.861,-3.516,-8.596,-6.252,11.722,-12.112,14.066
'[15:23:48.293 02/09/2075]',-0.781,14.847,25.788,-6.642,5.079,12.894,17.192,-3.907,14.066,9.377,0.391,1.563,27.350,-21.490,30.085,-8.205,10.549,-3.126,-25.006,8.987,8.596,-17.582,30.085
'[15:23:48.297 02/09/2075]',-5.470,-2.344,45.324,6.252,9.768,12.503,12.894,4.689,18.755,5.470,-1.172,22.662,25.006,-18.364,32.039,8.205,10.159,-3.516,-44.542,20.708,12.112,-5.861,32.039
'[15:23:48.301 02/09/2075]',-11.331,0.781,37.900,13.284,14.457,10.940,9.377,3.126,19.536,4.689,-5.079,14.457,28.913,-12.503,25.006,-4.689,8.205,-6.642,-37.118,17.192,21.099,5.079,25.006
'[15:23:48.305 02/09/2075]',-12.112,22.662,15.629,11.331,23.834,15.629,0.391,-3.516,17.973,3.907,-4.689,-0.781,25.788,-5.079,9.377,-12.112,8.987,-10.940,-14.847,6.642,26.178,0.000,9.377
'[15:23:48.309 02/09/2075]',-7.033,25.788,1.563,14.066,25.788,11.331,-6.252,1.563,17.582,0.781,-8.596,-1.954,25.397,-3.126,-6.642,-5.470,6.642,-10.940,-0.781,3.516,24.225,-4.689,-6.642
'[15:23:48.313 02/09/2075]',-0.391,32.821,-11.722,1.563,32.821,2.735,-6.642,-6.642,18.755,3.516,-10.940,-19.927,30.085,-3.907,-16.801,-14.847,5.470,-12.503,12.503,-8.205,14.066,0.000,-16.801
'[15:23:48.316 02/09/2075]',7.814,41.807,-21.099,-0.391,30.867,7.033,-3.126,-7.424,21.099,5.470,-8.205,-23.053,31.258,14.457,-43.370,-5.861,7.033,-11.722,21.880,-16.020,2.735,19.927,-43.370
'[15:23:48.320 02/09/2075]',11.331,26.569,5.079,6.252,24.615,14.457,4.298,5.079,23.443,5.079,0.000,0.781,28.132,2.344,-19.927,19.927,10.940,-4.298,-4.298,-7.814,-0.391,10.159,-19.927
'[15:23:48.324 02/09/2075]',0.781,16.410,19.536,12.112,24.615,12.112,2.344,8.205,23.053,9.377,0.391,6.642,32.039,-15.629,5.079,19.536,12.503,-2.735,-18.755,-0.781,3.516,2.344,5.079
'[15:23:48.328 02/09/2075]',-4.298,23.443,20.708,11.331,22.271,18.364,4.298,4.689,27.741,4.298,5.470,-0.781,27.741,-3.907,5.079,8.596,14.066,-1.563,-19.927,-2.344,7.814,8.596,5.079
'[15:23:48.332 02/09/2075]',0.391,6.642,27.741,15.629,18.364,21.099,3.126,5.470,25.006,3.126,6.252,-3.907,23.834,-12.112,18.364,1.172,12.503,-3.516,-26.960,9.768,16.801,-8.596,18.364
'[15:23:48.336 02/09/2075]',-2.735,21.490,13.284,12.112,17.582,19.536,0.391,5.861,28.132,5.470,-0.781,-14.847,25.397,-7.424,14.457,-13.284,12.503,-6.642,-12.503,-1.172,21.490,-11.722,14.457
'[15:23:48.340 02/09/2075]',2.735,43.761,-16.801,5.861,19.536,17.582,-1.563,0.000,38.681,1.563,-9.768,-30.867,33.993,4.689,-11.331,-27.350,11.331,-12.894,17.582,-19.145,18.364,3.126,-11.331
'[15:23:48.344 02/09/2075]',12.503,16.410,1.563,-0.781,20.317,10.159,0.781,-2.735,39.853,-3.907,-8.987,-32.430,35.556,0.391,-22.662,-17.973,7.033,-15.238,-0.781,-0.781,13.284,2.344,-22.662
'[15:23:48.348 02/09/2075]',-0.781,18.755,10.549,1.954,21.490,0.781,0.391,7.814,31.258,-1.563,-8.596,-9.768,34.774,-6.642,-21.099,4.298,5.470,-13.675,-9.768,0.391,17.192,-1.954,-21.099
'[15:23:48.352 02/09/2075]',-5.470,22.271,15.238,3.516,28.132,0.000,-3.126,11.331,27.741,2.344,-4.689,-0.391,35.946,-6.252,-12.112,9.377,5.470,-9.768,-14.457,-2.344,18.755,3.516,-12.112
'[15:23:48.355 02/09/2075]',-0.781,8.205,24.615,1.563,28.913,-1.172,1.954,3.516,23.053,10.159,-1.563,-6.642,33.602,-10.549,3.516,-1.172,3.907,-7.814,-23.834,10.159,11.722,3.907,3.516
'[15:23:48.359 02/09/2075]',-6.642,14.066,19.927,15.238,25.788,2.344,4.689,8.596,16.410,18.364,-0.781,0.000,16.020,-8.205,19.536,7.814,7.424,-4.689,-19.145,5.861,17.582,-9.377,19.536
'[15:23:48.363 02/09/2075]',-5.470,14.847,15.629,22.662,23.053,3.907,5.470,12.894,26.569,18.364,-5.861,2.344,17.973,5.861,1.563,15.629,8.205,-2.344,-14.847,0.000,14.847,8.987,1.563
'[15:23:48.367 02/09/2075]',-3.907,3.126,8.596,28.132,18.364,0.391,6.642,9.377,35.556,13.675,-7.033,0.391,17.582,21.880,-6.252,9.768,5.861,-3.126,-7.814,5.861,8.596,27.350,-6.252
'[15:23:48.371 02/09/2075]',-11.722,-2.344,23.053,23.053,17.192,-3.907,7.033,10.159,41.416,7.033,-11.722,-0.391,23.834,24.615,-39.072,27.350,5.470,-7.033,-22.271,17.192,21.880,22.271,-39.072
'[15:23:48.375 02/09/2075]',-1.563,2.735,21.099,8.987,24.225,-4.298,0.391,11.331,41.416,4.689,-15.238,0.000,33.993,41.416,-43.370,0.391,4.689,-8.596,-20.317,10.940,21.880,45.714,-43.370
'[15:23:48.379 02/09/2075]',9.377,5.079,25.397,-9.377,25.397,1.563,-1.172,3.516,37.118,11.331,-20.317,-14.066,39.463,23.834,-33.993,-13.675,4.689,-12.112,-24.615,5.470,17.582,38.291,-33.993
'[15:23:48.383 02/09/2075]',8.596,30.085,10.549,-20.708,22.662,10.159,0.391,-5.470,37.509,16.020,-25.397,-28.523,38.291,-7.424,-3.126,-26.178,6.642,-15.238,-9.768,-14.457,16.410,4.689,-3.126
'[15:23:48.387 02/09/2075]',14.457,37.509,-10.159,-8.596,18.364,18.755,-7.033,1.172,25.788,15.629,-27.350,-17.973,25.788,-16.020,-6.642,-5.861,7.814,-16.801,10.940,-24.225,11.722,-7.033,-6.642
'[15:23:48.391 02/09/2075]',13.675,37.900,-29.695,0.781,14.066,11.331,-7.033,2.344,21.099,16.801,-21.490,-3.516,23.053,-17.973,8.596,0.391,7.814,-14.847,30.476,-37.509,10.940,-8.205,8.596
'[15:23:48.395 02/09/2075]',2.344,25.788,-14.847,5.079,26.960,0.000,-5.861,-1.954,23.443,8.987,-13.675,-5.470,21.880,-3.907,0.391,-5.470,6.642,-14.457,15.629,-17.582,16.801,0.781,0.391
'[15:23:48.398 02/09/2075]',1.563,17.192,-17.582,12.112,30.085,-5.470,-10.549,0.000,14.457,0.391,-10.940,-3.516,20.317,5.861,-25.006,-0.391,3.516,-15.238,18.364,-2.344,20.708,0.391,-25.006
'[15:23:48.402 02/09/2075]',6.642,-7.424,15.629,1.172,30.476,-5.861,-9.377,0.781,7.033,-0.391,-5.861,0.391,22.662,7.033,-15.629,-12.503,1.954,-12.112,-14.847,13.675,24.615,3.126,-15.629
'[15:23:48.406 02/09/2075]',1.563,-1.563,25.006,-2.344,33.993,-2.735,-7.033,-1.172,15.629,-7.033,-3.907,0.391,23.834,-3.126,-11.722,-3.516,1.563,-9.768,-24.225,17.973,12.112,-1.172,-11.722
'[15:23:48.410 02/09/2075]',4.298,1.954,10.549,0.391,11.331,13.284,-5.079,-1.563,7.033,-7.814,-1.172,2.344,21.490,-14.847,-6.252,0.781,0.391,-10.159,-9.768,19.536,3.126,-10.940,-6.252
'[15:23:48.414 02/09/2075]',4.298,-9.377,4.689,10.159,-0.781,14.066,-7.424,3.907,-0.781,-7.814,-1.563,20.708,18.364,-7.814,-6.642,5.470,-1.563,-8.205,-3.907,23.443,5.079,-3.907,-6.642
'[15:23:48.418 02/09/2075]',1.563,-7.424,-1.954,5.861,-6.642,10.940,-7.033,0.391,-5.079,-7.424,-6.642,19.927,14.066,-1.954,-14.457,2.344,-2.344,-7.814,2.735,16.801,5.861,0.781,-14.457
'[15:23:48.422 02/09/2075]',8.987,-10.940,-7.424,5.079,1.954,-0.391,-3.516,-1.563,-10.549,-6.642,-4.689,11.722,14.066,9.377,-26.178,-7.814,-4.689,-8.987,8.205,19.145,9.377,5.470,-26.178
'[15:23:48.426 02/09/2075]',8.987,0.391,-10.549,0.391,8.987,3.516,-9.377,-4.298,-7.424,-7.814,-3.907,5.861,16.801,12.112,-27.350,-14.847,-0.781,-8.596,11.331,10.549,20.317,-2.344,-27.350
'[15:23:48.430 02/09/2075]',3.516,14.457,-14.847,-11.722,3.907,6.252,-8.596,-10.159,-4.298,-7.033,-6.252,-3.907,18.755,-2.344,-23.053,-16.020,-0.781,-6.642,15.629,-2.735,19.927,-15.238,-23.053
'[15:23:48.434 02/09/2075]',3.907,16.410,-23.443,-10.159,3.126,7.424,-7.033,-16.020,-0.391,-5.861,-3.516,-12.894,21.099,-3.907,-27.350,-12.503,-1.172,-6.642,24.225,0.391,9.377,-10.549,-27.350
'[15:23:48.438 02/09/2075]',3.907,14.457,-25.006,-3.516,-5.861,13.284,-4.298,-12.503,1.563,-8.596,0.391,-6.252,18.755,0.000,-33.602,1.172,0.000,-4.689,25.788,3.516,7.424,-9.768,-33.602
'[15:23:48.441 02/09/2075]',2.735,0.000,-16.410,8.596,-10.940,9.377,0.391,-2.735,1.563,-6.642,1.172,7.814,16.410,1.563,-21.490,7.033,-1.563,0.781,17.192,13.675,7.033,-10.159,-21.490
'[15:23:48.445 02/09/2075]',7.424,-10.549,-10.159,19.927,1.954,-2.735,6.252,0.781,0.391,-5.079,3.126,13.284,16.801,-10.159,-23.443,28.913,-2.735,3.126,10.940,21.099,5.470,-15.238,-23.443
'[15:23:48.449 02/09/2075]',11.331,-0.781,-8.205,11.722,1.563,-1.172,11.331,1.954,1.954,-0.781,9.768,13.675,15.238,-8.205,8.205,9.377,-0.391,5.861,8.987,8.596,9.377,-20.708,8.205
'[15:23:48.453 02/09/2075]',0.391,24.615,-24.225,8.205,-4.298,-2.735,9.377,6.642,-1.954,2.735,5.470,10.159,16.410,-4.298,15.238,-9.377,-0.781,5.470,25.006,-13.284,23.053,-23.053,15.238
'[15:23:48.457 02/09/2075]',-1.172,25.788,-16.020,-10.940,-12.112,0.391,7.814,1.172,-9.377,7.424,1.172,1.172,20.317,-11.722,3.907,-10.940,-2.735,4.298,16.801,-10.159,14.457,-22.271,3.907
'[15:23:48.461 02/09/2075]',-2.344,14.457,-0.391,-14.457,-12.503,0.391,10.549,-1.954,-6.252,10.159,3.126,-1.954,17.192,-3.126,18.364,-27.350,-1.954,3.907,1.172,-0.391,3.907,-6.642,18.364
'[15:23:48.465 02/09/2075]',-1.563,10.549,9.377,-3.516,-4.689,0.781,10.549,7.033,-1.954,6.642,3.907,5.861,16.801,-0.781,14.066,-14.066,-1.172,6.252,-8.596,5.470,5.470,-3.516,14.066
'[15:23:48.469 02/09/2075]',1.954,-2.344,22.271,6.642,5.079,4.689,6.252,10.159,0.781,5.470,1.563,24.225,15.629,-3.907,3.516,16.801,-2.735,7.424,-21.490,18.364,7.424,-8.205,3.516
'[15:23:48.473 02/09/2075]',5.861,-1.172,12.503,10.549,14.457,-1.563,8.205,6.642,1.954,1.172,7.033,26.569,7.814,-5.470,10.159,24.615,-2.344,6.252,-11.722,12.503,1.563,-7.033,10.159
'[15:23:48.477 02/09/2075]',8.987,19.145,-10.940,12.894,11.331,-0.391,9.377,7.424,1.563,-3.907,9.768,27.350,10.549,0.391,-1.172,26.569,-0.391,5.861,11.722,-9.768,3.907,0.000,-1.172
'[15:23:48.480 02/09/2075]',8.205,14.066,-16.801,13.284,2.735,2.735,3.516,8.596,0.000,-11.722,8.987,31.648,11.722,0.781,-14.847,32.039,-0.781,4.298,17.582,-8.205,7.033,-3.126,-14.847
'[15:23:48.484 02/09/2075]',7.424,11.722,-12.112,4.298,0.391,3.907,5.861,1.563,-0.781,-16.410,9.377,19.536,12.503,-8.205,-1.563,9.768,0.391,2.344,12.894,-6.642,-0.781,-1.563,-1.563
'[15:23:48.488 02/09/2075]',6.642,19.145,-19.927,11.331,1.954,9.377,3.907,1.172,5.470,-14.847,11.331,8.987,10.549,11.331,-9.377,-0.391,1.954,2.735,20.708,-6.642,-5.861,8.205,-9.377
'[15:23:48.492 02/09/2075]',9.377,-1.563,-1.563,10.549,-1.172,18.755,-3.126,2.344,0.391,-10.159,5.079,9.377,9.768,-7.814,-6.642,10.159,4.689,1.172,2.344,14.457,-3.126,-15.238,-6.642
'[15:23:48.496 02/09/2075]',-0.391,0.781,1.954,7.033,6.642,9.768,-3.516,-3.126,-1.954,-6.252,3.126,3.126,-1.563,-10.940,7.814,3.516,2.735,0.000,-1.172,12.112,-3.907,-18.364,7.814
'[15:23:48.500 02/09/2075]',-9.377,0.391,22.271,3.126,7.814,9.768,-1.172,-1.172,5.079,-3.516,8.205,8.205,-1.954,2.735,14.457,4.298,6.252,0.391,-21.490,11.722,-7.424,0.391,14.457
'[15:23:48.504 02/09/2075]',-9.377,-22.271,31.258,3.516,1.563,7.814,-7.814,0.391,14.457,-14.066,5.079,13.675,0.000,-8.596,18.364,10.940,4.689,-2.735,-30.476,32.430,-9.377,-12.894,18.364
'[15:23:48.508 02/09/2075]',-10.159,0.391,24.615,-3.516,11.331,12.894,-9.768,-4.689,15.629,-13.675,7.033,16.410,1.563,-10.549,25.788,9.768,3.907,-1.563,-23.834,4.689,-7.424,-7.424,25.788
'[15:23:48.512 02/09/2075]',-8.987,20.708,6.642,1.563,14.066,15.238,-7.424,-2.735,23.443,-16.410,5.079,18.755,1.172,-8.205,14.457,25.006,4.689,-1.954,-5.861,-15.238,-7.033,-4.689,14.457
'[15:23:48.516 02/09/2075]',-3.126,21.099,-9.768,0.781,17.192,12.894,-13.675,-8.596,21.490,-18.364,-2.344,5.470,0.391,-12.112,0.000,18.755,0.391,-6.642,10.549,-8.596,-8.987,-13.675,0.000
'[15:23:48.520 02/09/2075]',-1.563,37.118,-23.443,-7.814,17.582,8.205,-12.503,-10.940,12.894,-17.192,-5.470,-5.861,-3.516,-15.629,-12.112,16.020,-1.172,-7.033,24.225,-25.006,-4.689,-20.708,-12.112
'[15:23:48.523 02/09/2075]',-2.344,21.490,-14.847,0.391,16.801,-0.391,-8.987,-4.689,14.457,-17.973,-4.689,-7.424,-4.298,-21.099,-3.907,13.675,-1.954,-7.424,15.629,-18.364,-8.987,-15.238,-3.907
'[15:23:48.527 02/09/2075]',2.735,-13.675,11.722,3.126,22.662,-8.205,-4.689,-5.861,17.582,-14.847,1.563,-16.020,4.689,-13.675,11.331,-13.284,-2.344,-7.424,-10.940,15.629,-11.722,0.391,11.331
'[15:23:48.531 02/09/2075]',7.424,-14.847,20.317,5.470,25.397,-7.424,-2.344,3.907,12.503,-4.689,5.470,-0.781,7.424,-10.549,9.768,5.470,-1.172,-1.954,-19.536,11.722,-10.940,6.252,9.768
'[15:23:48.535 02/09/2075]',7.424,-15.629,15.629,13.675,12.894,6.642,-4.689,6.642,14.066,3.516,0.391,7.424,0.781,-2.344,12.112,16.410,1.172,-0.781,-14.847,5.861,-11.331,11.331,12.112
'[15:23:48.539 02/09/2075]',2.735,4.298,6.642,5.861,21.490,3.907,-4.298,0.391,19.145,11.331,-0.781,1.172,1.172,13.284,17.192,0.391,1.172,-3.516,-5.861,-0.781,-11.331,22.662,17.192
'[15:23:48.543 02/09/2075]',-0.391,20.708,-1.954,-5.079,19.536,10.940,-8.205,-8.205,20.708,16.801,-2.344,-9.377,-0.391,21.880,6.642,-2.344,4.689,-4.689,2.735,-8.596,-8.987,18.755,6.642
'[15:23:48.547 02/09/2075]',-5.079,16.410,-3.907,-2.735,8.987,12.503,-10.159,-7.424,22.662,14.847,-8.205,-12.503,-1.563,8.596,3.516,6.642,5.470,-5.470,4.689,-10.940,-8.987,7.814,3.516
'[15:23:48.551 02/09/2075]',-6.642,8.987,13.284,-1.563,17.192,10.940,-5.079,-8.205,25.006,13.675,-5.470,-8.205,0.781,-6.642,23.443,7.814,5.470,-4.689,-12.503,-4.298,-6.642,3.907,23.443
'[15:23:48.555 02/09/2075]',0.391,12.503,17.192,7.814,25.397,11.722,0.391,0.781,28.913,15.238,-1.563,6.252,4.689,-3.907,22.662,25.397,8.596,0.391,-16.410,-5.079,-2.735,4.689,22.662
'[15:23:48.559 02/09/2075]',0.000,12.894,7.814,8.987,15.238,13.675,-2.735,3.516,23.443,10.940,-11.722,10.940,3.126,-8.596,0.000,40.244,7.033,0.391,-7.033,-7.814,2.735,-1.563,0.000
'[15:23:48.563 02/09/2075]',-4.689,19.536,-1.563,12.112,18.755,8.596,-3.126,1.172,19.927,11.331,-6.642,8.987,-0.781,1.954,16.410,17.192,5.079,-0.391,2.344,-15.238,-0.781,13.284,16.410
'[15:23:48.566 02/09/2075]',-3.126,38.291,-16.020,2.344,25.788,3.126,-1.563,-5.470,19.536,12.894,-3.907,-4.689,3.516,10.159,13.675,-5.079,4.298,-0.781,16.801,-32.430,1.954,22.271,13.675
'[15:23:48.570 02/09/2075]',-1.172,14.457,1.954,-2.735,20.317,2.735,-3.516,-7.033,16.410,13.284,-1.954,-10.549,3.907,15.238,21.880,-24.225,5.079,-1.563,-1.172,-7.814,2.344,13.284,21.880
'[15:23:48.574 02/09/2075]',-0.391,-7.814,29.695,-6.642,16.020,3.907,0.391,-7.424,14.457,10.159,3.126,-12.503,4.689,12.112,25.006,-27.350,5.079,-0.391,-28.913,7.814,0.781,17.582,25.006
'[15:23:48.578 02/09/2075]',3.126,-7.033,32.821,-2.344,19.536,4.689,7.814,-6.252,24.615,3.126,10.159,0.391,7.814,25.006,21.099,-15.629,7.033,2.344,-32.039,6.252,5.861,30.085,21.099
'[15:23:48.582 02/09/2075]',12.503,-7.814,26.178,-5.861,12.503,12.503,5.470,-6.642,17.973,2.735,11.722,1.172,9.768,30.085,5.861,-10.549,7.814,1.563,-25.397,7.814,7.424,25.397,5.861
'[15:23:48.586 02/09/2075]',9.377,-1.172,7.814,-6.642,0.000,18.755,1.172,-9.768,13.284,1.172,5.079,-6.252,10.159,21.099,-7.033,-9.768,8.596,0.000,-7.033,1.172,10.159,15.629,-7.033
'[15:23:48.590 02/09/2075]',4.689,31.258,-21.490,-16.801,-1.563,21.490,-3.907,-17.192,10.549,1.563,2.735,-17.973,7.033,6.252,-0.781,-13.675,5.861,-2.344,22.271,-30.476,4.298,1.172,-0.781
'[15:23:48.594 02/09/2075]',13.284,23.053,-23.834,-10.159,1.954,24.225,-8.205,-16.020,7.814,5.861,3.907,-25.006,9.768,3.516,0.391,-19.927,8.596,-3.126,24.615,-20.708,-1.563,-1.172,0.391
'[15:23:48.598 02/09/2075]',6.252,23.834,-15.238,-8.205,6.642,15.629,-7.814,-7.814,2.344,6.252,3.907,-15.629,8.987,-4.298,1.172,-7.424,8.987,-0.781,16.020,-12.894,-7.033,-5.861,1.172
'[15:23:48.602 02/09/2075]',1.172,9.768,5.861,-6.642,8.987,10.549,-6.252,-3.126,2.344,3.516,12.112,1.172,3.126,5.470,12.894,-1.954,7.814,3.126,-5.079,1.172,-6.642,5.861,12.894
'[15:23:48.605 02/09/2075]',6.642,-4.298,10.159,-0.391,8.987,9.768,-3.126,-4.298,3.516,3.907,19.145,5.470,6.252,22.271,7.814,-2.735,7.033,5.079,-9.377,17.192,-9.377,26.569,7.814
'[15:23:48.609 02/09/2075]',8.205,-11.331,12.503,1.563,4.298,9.768,-1.954,-0.781,-4.298,9.377,15.629,8.205,7.424,8.987,4.689,7.424,8.205,6.252,-11.722,28.523,-9.768,9.377,4.689
'[15:23:48.613 02/09/2075]',8.205,-27.741,8.596,2.735,3.126,-2.735,-4.298,-3.126,-8.596,8.205,9.377,0.391,5.861,-7.424,17.582,-5.861,5.079,5.079,-7.814,39.463,-11.722,-7.814,17.582
'[15:23:48.617 02/09/2075]',9.768,-27.741,-10.940,4.689,-4.298,-5.861,-5.861,-7.033,-1.954,4.298,2.344,-11.722,8.205,-14.457,8.987,-10.159,4.298,0.391,11.722,27.350,-8.987,-15.629,8.987
'[15:23:48.621 02/09/2075]',12.503,-14.457,-6.252,1.954,-1.172,-2.344,0.391,-1.172,0.781,1.172,2.344,-7.424,10.159,-14.457,-1.563,2.735,10.549,1.563,7.033,16.020,-2.735,-21.099,-1.563
'[15:23:48.625 02/09/2075]',7.424,-12.112,-0.391,11.331,6.252,-13.284,4.689,8.987,0.391,8.205,8.205,1.563,6.642,1.954,23.443,-12.503,13.675,7.033,1.172,15.238,2.735,-9.377,23.443
'[15:23:48.629 02/09/2075]',1.563,1.172,-3.516,7.424,-14.847,12.112,5.079,4.689,8.596,8.205,10.159,1.563,8.205,22.271,8.205,-9.768,15.238,7.424,4.298,-7.424,12.894,15.629,8.205
'[15:23:48.633 02/09/2075]',2.735,23.053,-7.814,16.410,-9.377,21.880,6.642,15.238,-3.907,23.443,7.814,6.252,3.907,30.085,6.252,-6.642,17.973,7.033,8.596,-21.880,16.410,26.178,6.252
'[15:23:48.637 02/09/2075]',-1.563,22.271,-8.987,16.801,-3.516,11.722,1.954,17.192,-7.814,31.648,1.172,0.781,9.768,23.834,-1.563,-6.642,16.410,2.344,9.768,-11.722,14.457,20.317,-1.563
'[15:23:48.641 02/09/2075]',-0.781,22.662,-21.099,11.722,-0.781,3.907,-2.735,11.722,-8.205,29.304,-7.814,-14.066,7.033,15.629,-17.582,-6.642,15.629,-4.298,21.880,-19.927,12.112,16.020,-17.582
'[15:23:48.645 02/09/2075]',6.252,24.615,-28.132,7.033,10.940,-5.470,-1.172,5.079,-1.954,25.397,-7.033,-15.629,6.642,2.735,-16.410,6.642,15.238,-7.424,28.913,-23.053,5.470,3.516,-16.410
'[15:23:48.648 02/09/2075]',4.298,1.563,-0.391,10.549,17.973,-10.940,2.735,5.470,2.735,25.006,-0.391,-11.722,8.205,2.344,-3.907,9.768,18.755,-5.079,1.172,5.079,0.391,2.735,-3.907
'[15:23:48.652 02/09/2075]',6.642,-27.350,23.443,15.629,12.112,-7.033,5.861,7.424,8.987,19.536,2.735,-3.516,-3.907,19.536,-1.563,14.457,21.099,-1.172,-22.662,26.960,2.735,7.424,-1.563
'[15:23:48.656 02/09/2075]',1.563,-30.476,27.350,32.430,8.205,0.000,8.596,13.675,11.722,16.801,3.126,9.768,-4.298,17.973,0.391,30.476,21.490,-0.391,-26.569,30.867,-1.172,14.847,0.391
'[15:23:48.660 02/09/2075]',-1.954,-28.523,42.979,23.443,10.549,1.954,10.549,11.722,18.364,10.549,3.516,0.781,1.954,10.549,7.033,14.066,22.271,-1.172,-42.198,34.774,4.298,7.033,7.033
'[15:23:48.664 02/09/2075]',-5.861,-17.582,35.165,17.582,14.457,-9.377,10.159,12.894,15.238,2.344,1.563,0.781,0.391,-2.344,10.549,12.894,18.755,-1.954,-34.383,21.490,5.079,-3.907,10.549
'[15:23:48.668 02/09/2075]',-12.894,8.205,14.457,16.020,7.814,-1.954,7.814,12.112,12.503,-0.781,0.391,8.596,-2.735,-13.284,23.834,13.675,16.020,-1.563,-13.675,-3.907,3.907,-10.940,23.834
'[15:23:48.672 02/09/2075]',-9.768,17.582,6.642,9.377,19.536,-4.689,6.642,1.563,19.927,-3.907,4.298,0.391,-0.391,-11.331,38.681,-5.470,14.457,-2.735,-5.861,-7.033,0.391,-13.675,38.681
'[15:23:48.676 02/09/2075]',-1.172,13.284,8.205,8.205,14.066,0.781,7.424,4.689,14.847,-8.987,5.470,3.907,-5.861,-12.503,25.397,9.768,14.457,-0.781,-7.424,-5.470,0.391,-23.443,25.397
'[15:23:48.680 02/09/2075]',-0.781,5.861,8.596,14.457,9.768,0.000,7.424,10.159,10.159,-12.894,5.861,8.596,-7.814,-13.284,20.317,14.066,13.675,0.000,-7.814,-5.470,-1.172,-15.238,20.317
'[15:23:48.684 02/09/2075]',6.642,1.172,5.079,11.722,13.675,3.516,2.735,2.344,9.768,-14.066,7.424,-1.563,-5.079,-11.331,2.344,17.192,13.284,-1.563,-4.298,-9.768,0.000,-8.596,2.344
'[15:23:48.688 02/09/2075]',10.549,-13.284,-8.205,23.834,4.298,2.735,0.781,3.126,0.000,-19.145,15.629,-11.331,-8.987,-10.159,0.391,4.298,11.722,-0.781,8.987,3.516,-0.781,-10.159,0.391
'[15:23:48.691 02/09/2075]',6.642,-10.159,12.894,13.675,7.033,9.377,2.735,3.516,2.344,-10.940,20.317,-3.516,-14.066,5.470,16.801,0.000,17.582,5.861,-12.112,2.735,-4.689,0.781,16.801
'[15:23:48.695 02/09/2075]',11.722,-2.735,9.768,22.662,22.271,13.284,5.079,0.781,21.099,0.000,26.569,4.689,-11.722,31.648,13.284,19.927,20.317,12.112,-8.987,1.954,-16.801,16.020,13.284
'[15:23:48.699 02/09/2075]',25.788,-10.940,14.066,16.020,18.755,16.020,7.424,1.563,19.927,3.516,27.350,4.298,-11.331,39.853,16.801,11.722,19.536,14.457,-13.284,8.205,-25.006,16.020,16.801
'[15:23:48.703 02/09/2075]',35.165,-15.629,17.973,2.344,9.377,18.364,7.424,3.516,18.755,5.079,16.801,-3.516,-8.205,32.039,0.781,14.457,16.410,15.238,-17.192,8.596,-21.490,-2.735,0.781
'[15:23:48.707 02/09/2075]',40.635,-17.192,7.814,-1.172,3.907,15.629,8.205,0.391,19.145,5.861,13.675,-16.020,-2.735,26.569,-3.126,3.126,11.722,15.238,-7.033,0.391,-20.708,-2.735,-3.126
'[15:23:48.711 02/09/2075]',51.575,-8.987,-16.410,-1.172,-4.298,14.847,8.987,2.344,10.940,7.814,17.973,-22.662,-1.563,23.834,8.596,-14.847,8.205,16.801,17.192,-17.192,-25.397,5.079,8.596
'[15:23:48.715 02/09/2075]',46.886,-3.126,-22.662,0.391,-10.940,14.457,12.112,4.689,13.284,6.252,17.973,-26.569,-0.781,38.291,-7.424,-17.192,7.033,17.973,23.443,-18.364,-25.788,19.536,-7.424
'[15:23:48.719 02/09/2075]',37.900,-14.457,-3.126,8.987,-9.768,13.675,13.284,10.940,21.490,6.252,18.364,-6.252,-5.470,42.198,-3.907,9.768,7.424,21.880,3.907,-5.861,-26.960,21.880,-3.907
'[15:23:48.723 02/09/2075]',37.900,-12.503,-1.563,0.391,-3.126,7.814,12.503,5.861,14.066,16.020,23.443,-3.126,-8.596,49.231,7.814,5.079,5.079,20.708,2.344,-7.424,-33.993,32.821,7.814
'[15:23:48.727 02/09/2075]',38.681,-34.383,8.987,8.987,-1.563,4.298,13.675,5.470,10.549,17.973,22.271,0.391,-10.549,48.840,1.172,13.675,6.642,19.927,-8.205,16.801,-30.476,26.960,1.172
'[15:23:48.730 02/09/2075]',32.430,-47.668,21.490,3.126,-1.563,4.298,6.252,-0.391,5.079,20.317,15.238,-10.549,-9.377,27.741,25.397,-11.722,5.861,18.364,-20.708,33.602,-16.801,-2.735,25.397
'[15:23:48.734 02/09/2075]',35.556,-40.635,7.033,3.907,-5.861,6.252,6.642,-1.954,3.516,18.364,18.755,-8.596,-8.596,12.894,36.728,-6.642,5.470,18.755,-6.252,21.490,-25.397,-8.205,36.728
'[15:23:48.738 02/09/2075]',37.900,-44.542,10.159,21.880,-14.066,15.238,12.112,10.549,5.079,20.708,19.145,8.987,-5.470,14.066,30.867,17.192,8.596,21.490,-9.377,25.397,-24.225,-9.377,30.867
'[15:23:48.742 02/09/2075]',37.509,-41.416,20.317,12.503,-14.847,17.973,8.987,16.020,3.907,17.973,10.159,8.987,-5.861,14.066,20.708,14.457,10.159,20.317,-19.536,25.006,-18.755,-13.675,20.708
'[15:23:48.746 02/09/2075]',45.324,-34.383,10.940,4.689,-12.503,16.020,8.205,14.066,5.470,12.894,7.814,15.238,-12.894,27.350,3.126,26.178,8.205,19.927,-10.159,8.205,-24.225,5.470,3.126
'[15:23:48.750 02/09/2075]',39.853,-29.304,9.377,7.814,-13.675,12.112,12.503,16.020,-5.861,20.708,11.331,20.708,-15.629,35.946,8.987,19.145,6.252,20.708,-8.596,7.033,-23.443,16.410,8.987
'[15:23:48.754 02/09/2075]',36.728,-33.993,14.457,3.516,-6.252,1.563,8.596,16.801,-5.079,15.629,9.377,21.099,-16.801,44.151,16.020,-0.391,5.470,18.364,-13.675,14.066,-17.582,22.271,16.020
'[15:23:48.758 02/09/2075]',39.463,-35.946,10.549,-2.344,-16.020,6.642,7.814,11.722,-5.079,14.847,13.675,21.099,-15.238,43.370,25.397,-6.642,3.516,19.145,-9.768,14.457,-19.536,20.708,25.397
'[15:23:48.762 02/09/2075]',30.476,-33.211,4.298,1.172,-27.350,8.205,9.768,11.331,-1.563,16.020,17.582,15.238,-5.470,34.383,21.490,-0.391,1.172,19.536,-3.516,11.722,-21.490,16.020,21.490
'[15:23:48.766 02/09/2075]',30.867,-27.350,3.126,-3.126,-26.569,9.768,7.424,10.159,3.126,12.112,14.457,8.596,-4.689,25.397,13.284,7.424,1.172,15.238,-2.344,9.377,-11.722,-4.298,13.284
'[15:23:48.770 02/09/2075]',39.463,-21.880,-3.126,-10.159,-20.708,10.549,4.298,7.424,2.344,11.722,13.284,0.391,-8.987,25.006,10.159,3.516,4.298,13.284,3.907,1.954,-13.675,-7.033,10.159
'[15:23:48.773 02/09/2075]',29.695,-0.781,-30.476,5.079,-15.238,4.298,5.079,8.987,1.172,8.987,13.284,3.516,-10.549,32.821,-7.424,14.847,3.126,11.331,31.258,-9.768,-14.457,3.907,-7.424
'[15:23:48.777 02/09/2075]',21.490,7.424,-23.443,11.722,-9.377,3.126,9.768,12.503,4.298,7.424,19.536,8.987,-8.596,36.728,10.549,3.516,5.470,12.503,24.225,-13.284,-15.238,16.801,10.549
'[15:23:48.781 02/09/2075]',23.443,-10.159,-13.284,22.662,-1.563,-3.907,6.642,20.708,0.391,6.252,19.927,21.880,-5.079,46.496,18.755,-8.596,5.079,13.675,14.066,1.954,-14.066,32.430,18.755
'[15:23:48.785 02/09/2075]',21.099,-11.722,3.907,18.364,-8.205,0.391,11.722,27.741,-0.781,4.689,18.364,25.788,-5.861,55.482,7.033,-5.861,3.516,16.801,-3.126,0.391,-14.066,44.933,7.033
'[15:23:48.789 02/09/2075]',30.867,-23.053,26.960,10.549,-3.516,12.112,9.377,25.788,4.298,11.722,18.364,11.722,2.344,32.821,32.039,-18.364,1.172,17.973,-26.178,9.377,-21.099,30.867,32.039
'[15:23:48.793 02/09/2075]',39.853,-35.165,33.211,7.033,-0.781,11.722,9.768,23.443,2.735,12.112,14.847,10.940,-1.172,14.847,37.509,-7.033,3.516,14.457,-32.430,14.457,-13.675,7.424,37.509
'[15:23:48.797 02/09/2075]',30.085,-19.145,17.582,5.079,-1.563,5.861,6.252,22.662,4.689,6.642,5.079,5.861,-9.768,12.503,19.536,1.954,1.563,10.549,-16.801,1.954,-12.503,0.000,19.536
'[15:23:48.801 02/09/2075]',22.271,-21.490,25.006,7.814,0.000,7.424,7.033,18.755,11.722,1.172,0.781,5.079,-4.689,-3.126,5.861,23.443,0.391,9.377,-24.225,9.377,-19.927,-1.954,5.861
'[15:23:48.805 02/09/2075]',16.020,-26.569,19.145,16.020,-1.172,3.907,4.689,15.629,12.894,-2.735,3.516,0.781,-11.331,5.079,10.549,11.722,1.563,4.298,-18.364,15.238,-6.642,-9.377,10.549
'[15:23:48.809 02/09/2075]',9.377,-16.020,15.238,17.973,-1.172,0.000,3.516,23.834,8.987,1.954,0.000,12.894,-17.192,27.350,-3.126,19.927,3.126,4.689,-14.457,3.907,0.391,0.391,-3.126
'[15:23:48.813 02/09/2075]',17.192,-13.284,10.549,18.364,8.596,-2.735,4.298,21.490,6.252,7.814,0.000,8.987,-10.159,26.960,-8.596,17.582,0.781,4.689,-9.768,-3.126,-4.298,13.284,-8.596
'[15:23:48.816 02/09/2075]',34.774,-21.099,-9.377,27.741,9.768,1.563,2.344,17.192,2.344,14.847,4.298,5.079,-10.549,34.383,1.563,3.516,1.563,1.172,10.159,-9.377,-3.516,23.053,1.563
'[15:23:48.820 02/09/2075]',21.880,0.781,-8.205,18.755,14.457,-2.344,1.954,20.317,4.298,12.503,3.516,8.205,-12.112,31.648,13.284,-0.391,3.516,0.391,8.987,-16.410,-1.563,16.020,13.284
'[15:23:48.824 02/09/2075]',19.536,-3.126,-3.126,28.913,25.397,-11.331,1.954,25.397,12.503,3.126,-0.391,23.834,-7.033,4.689,17.973,25.006,4.298,0.781,3.907,-5.470,-9.768,1.954,17.973
'[15:23:48.828 02/09/2075]',15.238,0.781,1.172,19.927,22.271,-1.172,3.126,13.284,18.364,-1.954,2.344,14.066,-1.563,-0.781,-2.735,41.416,4.298,0.781,-0.391,-4.298,-13.675,5.079,-2.735
'[15:23:48.832 02/09/2075]',8.205,12.112,14.457,6.252,19.536,0.781,4.298,16.801,23.053,-1.563,6.642,14.066,-7.814,15.238,11.722,24.615,8.205,2.735,-13.675,-10.159,-3.907,3.516,11.722
'[15:23:48.836 02/09/2075]',10.549,4.298,12.503,14.066,23.834,-7.033,4.689,19.927,16.801,-0.781,3.126,25.006,-9.768,9.768,1.563,43.370,5.079,6.252,-11.722,-7.424,-3.516,0.000,1.563
'[15:23:48.840 02/09/2075]',14.457,0.781,1.954,8.205,3.907,9.377,3.907,8.596,18.364,-1.954,6.252,13.675,-3.907,14.457,0.391,28.132,1.563,6.252,-1.172,-13.675,-7.424,13.284,0.391
'[15:23:48.844 02/09/2075]',18.755,-13.675,8.205,4.298,-3.516,12.894,3.907,3.516,23.443,-5.861,14.066,5.470,-2.735,18.364,37.118,-14.847,3.126,4.298,-7.424,-0.391,-5.470,13.675,37.118
'[15:23:48.848 02/09/2075]',12.894,-27.350,1.172,28.523,1.172,1.954,0.391,11.722,15.629,-8.205,8.987,16.801,-3.907,12.112,37.900,-10.549,2.344,3.126,-0.391,18.755,-1.954,5.079,37.900
'[15:23:48.852 02/09/2075]',4.689,-16.410,17.582,0.391,-5.861,7.814,-0.781,3.907,12.112,-16.020,4.298,18.755,-5.861,13.284,18.364,-3.907,0.391,1.172,-16.801,15.629,-7.424,9.768,18.364
'[15:23:48.855 02/09/2075]',10.159,2.344,17.582,-12.894,5.079,8.205,1.172,0.781,15.238,-15.629,12.112,-0.391,0.781,30.867,8.987,-28.523,1.172,0.391,-16.801,-2.344,-3.907,28.132,8.987
'[15:23:48.859 02/09/2075]',14.066,4.689,12.112,-8.596,12.503,1.563,-0.391,7.814,12.503,-14.066,10.549,1.172,-1.563,43.370,-4.298,-25.397,0.391,1.954,-11.331,-2.735,0.391,27.741,-4.298
'[15:23:48.863 02/09/2075]',16.801,-3.907,17.973,-18.364,13.675,0.391,-2.735,1.172,11.722,-15.238,5.861,-6.252,3.126,9.768,0.391,-16.020,-0.781,1.563,-17.192,0.781,-4.298,3.907,0.391
'[15:23:48.867 02/09/2075]',26.178,-8.987,12.894,-16.020,13.284,3.516,-0.391,-3.126,17.192,-10.159,12.894,-12.112,12.894,4.689,12.503,-21.490,-0.781,3.126,-12.112,-6.252,-1.563,8.205,12.503
'[15:23:48.871 02/09/2075]',22.662,-10.159,-1.172,1.954,11.722,1.172,-1.954,1.172,17.192,-5.470,9.768,-2.735,8.205,3.126,21.490,-13.284,1.563,3.907,1.954,-0.781,0.391,-1.563,21.490
'[15:23:48.875 02/09/2075]',8.596,1.172,-14.847,3.126,7.814,-4.298,-3.907,0.000,12.503,-8.205,2.344,1.954,1.954,-3.126,13.675,-2.735,1.172,2.344,15.629,-3.126,1.172,-8.596,13.675
'[15:23:48.879 02/09/2075]',10.940,31.648,-22.271,-10.549,9.377,2.344,0.781,-3.126,12.894,-4.298,3.126,5.470,4.689,4.689,0.000,8.987,0.391,5.861,23.053,-38.291,-3.907,10.940,0.000
'[15:23:48.883 02/09/2075]',11.722,30.085,-13.675,-14.457,6.252,7.814,0.000,-1.954,11.722,-5.079,3.516,1.172,-3.516,17.973,7.424,-8.205,-1.563,6.642,14.457,-32.039,-4.689,14.847,7.424
'[15:23:48.887 02/09/2075]',14.457,3.907,4.689,-16.801,5.470,5.079,0.000,-4.689,-1.563,-1.954,0.391,-3.907,-10.159,17.973,5.861,-20.708,-4.298,5.861,-3.907,-3.907,-1.172,9.377,5.861
'[15:23:48.891 02/09/2075]',22.271,-18.755,12.503,-8.596,3.907,11.331,-4.689,-3.907,-7.033,0.000,-1.563,-3.516,-3.516,15.629,-9.768,-13.675,-7.424,4.689,-11.722,5.470,-2.735,18.364,-9.768
'[15:23:48.895 02/09/2075]',23.443,-32.039,19.145,-13.284,6.252,3.907,-5.079,-8.987,-10.549,-3.126,-1.172,-13.284,0.000,6.642,-11.722,-22.662,-11.331,1.563,-18.364,18.364,-0.391,10.940,-11.722
'[15:23:48.898 02/09/2075]',15.238,-21.099,-2.735,-9.377,3.126,0.391,-8.596,-13.284,-9.377,-5.861,-4.689,-17.192,-0.391,5.861,-16.801,-25.788,-11.722,-0.391,3.516,17.582,1.172,0.781,-16.801
'[15:23:48.902 02/09/2075]',8.596,-10.159,-14.847,-4.689,-1.172,-1.172,-11.722,-6.642,-0.781,-16.801,-4.298,-1.172,-0.781,4.689,-19.927,-6.252,-14.457,0.000,15.629,3.907,-8.987,4.298,-19.927
'[15:23:48.906 02/09/2075]',15.629,7.814,-19.536,-23.443,7.424,-1.954,-9.768,-14.847,4.689,-15.629,-5.079,-3.126,1.563,-3.516,-21.880,5.079,-16.020,-1.172,20.317,-14.066,-8.987,-6.252,-21.880
'[15:23:48.910 02/09/2075]',21.880,1.954,-17.973,-20.317,6.252,0.781,-7.033,-15.238,7.033,-12.894,-4.689,-7.424,1.172,7.814,-11.722,-15.238,-12.503,-2.344,18.755,-8.596,-5.079,0.391,-11.722
'[15:23:48.914 02/09/2075]',22.271,-18.755,4.689,-6.642,4.298,2.735,-3.126,-1.954,5.861,-11.331,-1.172,1.954,7.814,0.391,-8.987,-2.344,-10.940,0.391,-3.907,6.642,-3.126,1.172,-8.987
'[15:23:48.918 02/09/2075]',30.085,-34.383,8.987,2.735,2.735,3.516,-1.954,3.907,5.861,-7.814,0.391,16.410,12.112,12.112,-19.145,8.987,-8.987,1.563,-8.205,5.470,0.781,21.880,-19.145
'[15:23:48.922 02/09/2075]',14.066,-14.457,2.735,3.126,2.735,-0.391,0.391,2.735,7.424,-12.503,0.781,10.159,11.722,7.814,-10.549,-1.563,-7.424,-0.781,-1.954,1.172,2.344,14.457,-10.549
'[15:23:48.926 02/09/2075]',5.079,-8.987,-3.126,11.331,1.954,1.172,-3.516,5.079,1.954,-8.205,3.126,13.675,2.735,-0.391,13.284,-3.907,-7.033,0.391,3.907,1.172,5.861,-4.298,13.284
'[15:23:48.930 02/09/2075]',2.735,-3.907,-8.596,-0.391,3.516,-4.689,-5.470,-3.126,-1.563,-7.033,0.391,10.549,-1.563,7.033,9.768,-12.112,-11.331,-0.391,9.377,-7.424,1.954,8.596,9.768
'[15:23:48.934 02/09/2075]',1.563,14.457,-9.377,-11.722,7.033,-5.079,-2.735,-4.298,-5.470,-7.424,-2.735,-1.954,-6.642,-5.861,12.112,-17.192,-11.331,-1.563,10.159,-25.397,-1.563,1.172,12.112
'[15:23:48.938 02/09/2075]',6.642,1.954,-11.722,-7.424,-1.954,4.298,-6.252,-5.861,-5.470,-6.252,-7.424,-14.457,-8.596,-7.033,4.298,-22.662,-10.549,-1.954,12.503,-6.252,-1.954,-10.159,4.298
'[15:23:48.941 02/09/2075]',12.112,-25.397,13.284,-12.503,-1.563,2.735,-7.033,-5.861,-4.689,-12.112,-8.596,-6.252,-6.252,-7.033,-9.377,-8.205,-9.768,-3.907,-12.503,16.801,-13.675,-0.391,-9.377
'[15:23:48.945 02/09/2075]',10.159,-22.662,11.722,-2.735,0.391,5.079,-3.126,-5.861,-1.563,-14.457,-0.781,5.470,-9.768,0.391,-17.973,17.582,-7.424,-3.126,-10.940,11.722,-17.973,12.503,-17.973
'[15:23:48.949 02/09/2075]',9.377,-2.735,-6.252,0.391,0.781,6.252,-2.735,-3.907,2.344,-8.596,2.735,10.940,-8.987,-2.344,3.126,16.801,-5.470,-1.563,7.033,-10.940,-9.377,0.000,3.126
'[15:23:48.953 02/09/2075]',14.847,-1.954,-10.549,-0.391,20.317,-10.940,-2.735,-4.298,-0.781,0.000,0.781,14.066,-10.159,-7.033,25.006,7.033,-4.689,-3.516,11.331,-19.145,-1.172,-7.814,25.006
'[15:23:48.957 02/09/2075]',15.238,15.629,-6.642,-7.814,15.629,-2.735,3.126,-0.391,5.470,-1.563,0.391,13.675,-5.079,6.252,7.814,8.596,-2.344,-0.781,7.424,-44.933,2.735,15.238,7.814
'[15:23:48.961 02/09/2075]',19.536,21.099,-17.582,-12.894,12.894,-2.735,1.172,-1.172,3.126,2.344,-7.424,-3.126,-3.516,5.470,-11.331,3.907,-1.563,-3.907,18.364,-52.357,-0.391,13.675,-11.331
'[15:23:48.965 02/09/2075]',17.192,-4.689,-5.470,-3.516,12.894,-4.689,-2.735,-1.563,0.781,0.391,-16.801,-8.596,-7.033,1.563,-10.940,-8.205,-1.954,-7.424,6.252,-8.987,-10.940,8.987,-10.940
'[15:23:48.969 02/09/2075]',9.768,-27.350,23.443,-10.549,-0.391,5.470,-4.298,-4.298,3.907,-4.689,-19.927,-3.907,-10.159,25.006,-44.542,4.689,-2.344,-8.205,-22.662,16.410,-18.364,31.648,-44.542
'[15:23:48.973 02/09/2075]',8.205,-24.615,18.364,-7.033,1.954,4.298,-5.470,-4.298,1.563,0.391,-18.364,0.391,-9.377,8.205,-21.880,7.033,-4.689,-8.596,-17.582,16.020,-23.834,17.582,-21.880
'[15:23:48.977 02/09/2075]',5.470,-3.126,0.781,8.596,12.894,7.424,-2.735,-4.298,11.722,9.768,-12.503,10.549,-7.033,-0.781,21.490,6.642,-1.563,-6.252,0.000,2.344,-15.238,0.391,21.490
'[15:23:48.980 02/09/2075]',8.205,2.735,-2.344,7.033,17.973,2.344,-3.126,-0.391,10.940,10.159,-14.066,13.284,-8.987,1.563,32.821,-3.516,-0.781,-7.033,3.126,-8.205,-5.470,-2.735,32.821
'[15:23:48.984 02/09/2075]',3.907,8.205,-4.689,5.470,17.582,3.907,-3.126,-4.689,16.020,10.549,-16.020,5.861,0.391,-2.344,17.582,1.563,1.172,-7.033,5.470,-13.675,-0.391,-1.563,17.582
'[15:23:48.988 02/09/2075]',4.689,6.642,-18.755,14.847,19.927,-1.563,-3.126,-6.642,17.973,7.814,-15.629,-8.596,3.126,1.954,0.000,-3.907,1.563,-7.814,19.536,-7.033,0.391,-1.172,0.000
'[15:23:48.992 02/09/2075]',4.689,-5.470,-5.861,0.781,12.503,-5.861,-5.079,-6.252,12.503,-1.563,-16.410,-16.020,-1.954,8.596,-16.801,-10.940,0.391,-8.596,6.642,4.689,-2.735,1.172,-16.801
'[15:23:48.996 02/09/2075]',1.172,-4.298,15.238,-19.536,7.033,-3.516,-0.391,-9.377,17.192,-8.987,-14.066,-12.503,-3.516,10.549,-31.648,5.861,-2.735,-5.470,-14.457,-0.391,-8.205,9.377,-31.648
'[15:23:49.000 02/09/2075]',5.079,0.000,5.470,-14.066,10.159,-6.642,0.391,-6.252,10.549,-8.596,-9.768,-2.344,-5.470,13.675,-24.615,5.861,-6.252,-4.689,-4.689,-7.814,-10.159,16.410,-24.615
'[15:23:49.004 02/09/2075]',7.814,4.298,13.675,-21.490,8.596,-2.735,1.172,-1.172,5.079,-11.722,-5.861,3.907,-9.768,3.907,7.033,-9.377,-6.252,-5.079,-12.894,-9.377,-10.549,3.516,7.033
'[15:23:49.008 02/09/2075]',5.470,1.563,8.205,-12.112,4.689,-1.172,0.391,0.000,3.126,-6.642,-8.205,11.331,-5.079,-1.954,14.066,-6.642,-3.907,-5.861,-7.424,-8.987,-3.516,0.000,14.066
'[15:23:49.012 02/09/2075]',3.126,0.000,-1.954,-4.689,5.861,-1.954,-2.735,-4.298,5.079,-8.596,-4.689,2.735,2.344,-7.033,16.020,-17.192,-3.907,-7.814,2.735,-12.503,0.000,3.516,16.020
'[15:23:49.016 02/09/2075]',4.689,1.954,-1.563,-8.596,7.424,-2.735,-2.735,-4.689,1.954,-3.516,-3.907,0.391,3.126,-10.159,4.298,-2.344,-0.781,-9.768,2.344,-14.847,1.954,-4.689,4.298
'[15:23:49.020 02/09/2075]',1.563,4.689,-16.020,-1.954,5.470,-6.642,-4.298,-4.689,7.424,-3.516,-3.126,0.391,-3.126,6.642,9.768,-12.503,-1.172,-12.112,16.801,-16.801,-1.172,4.298,9.768
'[15:23:49.023 02/09/2075]',7.424,3.126,-7.033,-5.079,10.549,-6.642,-0.391,-3.907,11.331,-5.861,-0.391,5.861,-5.470,16.020,-4.298,5.470,-3.126,-8.596,7.814,-26.569,-5.079,17.973,-4.298
'[15:23:49.027 02/09/2075]',4.689,0.000,5.470,-2.344,17.192,-10.940,3.516,-0.391,6.642,-4.298,5.079,8.987,-7.424,23.443,-9.768,10.940,-1.954,-7.424,-4.689,-15.238,-7.033,25.006,-9.768
'[15:23:49.031 02/09/2075]',0.781,-4.689,3.516,-1.954,8.205,-15.629,1.954,1.954,2.735,-8.205,0.781,3.126,-10.549,29.695,-17.973,-1.172,-2.735,-9.377,-2.735,-1.172,-14.066,26.960,-17.973
'[15:23:49.035 02/09/2075]',-4.298,5.470,7.424,-6.252,1.172,-4.689,1.954,4.298,8.987,-15.238,0.000,0.000,-5.079,3.907,0.391,-5.470,-1.172,-5.470,-6.642,-16.410,-4.689,4.298,0.391
'[15:23:49.039 02/09/2075]',-3.907,1.172,16.020,-20.317,0.391,-7.424,0.391,0.000,10.159,-19.145,-1.172,-8.205,-0.781,-13.284,3.516,-7.424,-3.516,-8.205,-15.238,-10.159,-14.066,-4.298,3.516
'[15:23:49.043 02/09/2075]',-7.424,9.377,-5.470,-17.973,-2.735,-6.642,-3.907,-7.033,-0.391,-14.066,-2.344,-17.192,-4.689,-8.596,-6.642,-13.675,-5.079,-10.940,6.252,-12.894,-12.503,-4.689,-6.642
'[15:23:49.047 02/09/2075]',-2.735,12.503,-13.675,-7.814,-2.344,0.391,-5.470,-3.516,-1.563,-14.066,-4.689,1.563,-8.205,-8.987,-1.954,1.172,-5.861,-8.596,14.457,-19.927,-9.377,-5.861,-1.954
'[15:23:49.051 02/09/2075]',-1.172,-1.563,-14.847,7.424,1.563,-2.344,-4.298,-4.689,-3.516,-9.377,-0.391,6.252,-8.987,3.516,0.781,-2.735,-7.033,-7.033,15.629,-5.861,-8.596,12.112,0.781
'[15:23:49.055 02/09/2075]',0.000,-7.814,-16.801,2.735,-0.391,-3.126,-7.424,-9.768,-15.629,0.391,-4.689,-5.079,-14.066,13.675,-8.596,-16.020,-7.033,-8.987,17.582,5.079,-6.642,12.112,-8.596
'[15:23:49.059 02/09/2075]',4.298,-12.503,1.954,-3.516,-4.689,3.126,-5.470,-1.563,-1.954,0.000,-12.112,-5.079,-10.159,8.987,-5.861,-12.112,-1.563,-6.642,-1.172,5.079,-5.470,1.954,-5.861
'[15:23:49.063 02/09/2075]',5.861,-9.768,11.331,-18.364,-0.781,4.689,-5.861,-8.205,10.159,0.781,-9.768,-17.582,-3.907,4.298,14.457,-32.430,-0.781,-4.298,-10.549,0.000,-8.596,4.689,14.457
'[15:23:49.066 02/09/2075]',-0.781,7.814,-0.391,-28.523,1.172,0.781,-7.424,-15.238,0.391,14.457,-10.940,-19.145,-7.033,0.391,13.284,-21.490,-0.391,-4.689,1.172,-17.582,-9.377,2.735,13.284
'[15:23:49.070 02/09/2075]',0.391,22.271,-10.549,-16.410,5.470,1.563,-6.642,-5.079,-1.954,19.927,-10.159,-8.987,-11.331,9.377,1.563,-1.563,1.563,-2.344,11.331,-29.304,-5.861,4.689,1.563
'[15:23:49.074 02/09/2075]',2.344,20.708,-22.662,-8.205,8.596,-2.735,-7.033,-5.079,5.079,12.503,-12.894,-1.563,-6.642,16.020,-9.377,2.735,-0.781,-3.126,23.443,-30.476,-0.781,12.894,-9.377
'[15:23:49.078 02/09/2075]',4.298,17.192,-35.946,-5.861,11.722,-14.066,-8.205,-9.377,2.344,8.205,-15.238,-12.503,0.000,3.907,-18.755,-0.781,-6.252,-7.033,36.728,-30.085,-3.516,7.814,-18.755
'[15:23:49.082 02/09/2075]',8.987,-4.298,-18.755,-8.596,0.781,-8.987,-7.033,-6.642,6.252,2.344,-16.410,-21.099,5.079,6.642,-30.085,-10.159,-8.596,-8.205,19.536,-9.768,-1.563,6.252,-30.085
'[15:23:49.086 02/09/2075]',11.331,-29.695,2.735,-3.907,-6.252,-3.516,-6.252,-1.954,12.503,-5.079,-12.894,-5.079,3.516,5.470,-14.066,-5.861,-8.987,-7.033,-1.954,10.549,-4.689,2.735,-14.066
'[15:23:49.090 02/09/2075]',-5.861,-12.503,-3.907,0.391,-6.642,-7.424,-2.735,-3.907,2.735,-0.391,-5.079,1.563,0.781,-0.391,-3.516,3.126,-10.159,-4.689,4.689,3.126,-11.331,6.642,-3.516
'[15:23:49.094 02/09/2075]',-12.503,0.391,-17.973,10.549,-11.722,-5.079,0.781,-1.954,-2.735,6.642,0.391,3.126,-1.563,12.894,-1.954,-1.563,-4.689,-3.126,18.755,0.391,-10.549,14.457,-1.954
'[15:23:49.098 02/09/2075]',-8.596,-10.159,-5.079,18.364,-5.470,0.000,-0.781,1.563,-5.861,2.735,0.391,15.238,-9.377,21.490,-14.847,16.410,-1.954,-3.126,5.861,15.629,-5.470,16.410,-14.847
'[15:23:49.102 02/09/2075]',-5.079,-9.768,-1.563,13.284,-0.781,-0.781,-0.391,0.391,0.391,-6.252,0.391,10.159,-7.424,13.284,-1.172,1.563,-2.344,-4.298,2.344,12.112,-3.126,12.503,-1.172
'[15:23:49.105 02/09/2075]',1.172,-12.112,0.781,12.894,3.907,-0.781,0.391,0.000,6.252,-3.516,1.172,5.470,-8.205,2.344,21.490,-4.298,-0.781,-5.470,0.000,13.284,-5.470,-3.516,21.490
'[15:23:49.109 02/09/2075]',10.549,-19.145,19.536,3.907,-0.781,12.503,1.172,3.126,4.689,-0.391,5.470,13.675,-6.642,-3.126,32.430,3.126,2.735,-1.954,-18.755,16.801,-0.781,-14.066,32.430
'[15:23:49.113 02/09/2075]',4.298,-7.033,7.033,2.735,-5.861,5.861,2.344,5.079,0.391,-2.344,3.516,19.536,-8.596,-14.847,29.304,16.410,0.391,0.391,-6.252,0.781,-7.033,-17.582,29.304
'[15:23:49.117 02/09/2075]',-8.205,5.470,0.391,0.391,-4.298,-3.516,3.516,3.516,-8.205,1.954,5.470,9.768,-11.722,-12.503,21.099,12.894,0.781,0.391,0.391,-8.987,-9.768,-9.377,21.099
'[15:23:49.121 02/09/2075]',-2.735,4.298,-10.159,6.252,-14.066,7.424,1.172,3.126,-21.880,9.377,5.079,6.252,-16.020,0.781,3.907,11.331,2.735,0.391,10.940,-2.735,-7.033,-5.079,3.907
'[15:23:49.125 02/09/2075]',-5.079,-10.159,6.252,7.033,-15.238,5.470,0.391,7.424,-28.132,4.298,5.861,12.503,-28.132,15.238,-5.470,13.284,2.735,0.781,-5.470,10.159,-2.735,3.126,-5.470
'[15:23:49.129 02/09/2075]',-3.907,-10.940,4.298,8.987,-8.205,1.172,1.563,3.126,-20.317,6.252,6.252,0.391,-17.973,14.066,12.503,-15.629,3.516,2.344,-3.516,8.205,-3.907,9.768,12.503
'[15:23:49.133 02/09/2075]',3.907,-13.284,1.954,12.503,-16.801,12.503,5.861,2.735,-11.331,8.205,9.377,10.159,-8.987,8.596,17.973,-0.781,6.252,4.689,-1.172,8.205,-5.079,3.907,17.973
'[15:23:49.137 02/09/2075]',3.907,-15.238,14.847,9.768,-17.582,14.066,8.205,8.205,-1.954,1.172,11.722,17.973,-5.470,2.735,24.615,7.033,7.033,8.987,-14.066,8.987,-4.298,-2.344,24.615
'[15:23:49.141 02/09/2075]',0.391,-3.126,-6.252,13.675,-11.722,6.642,6.252,3.516,4.298,-0.391,2.344,7.424,0.391,-3.126,7.814,9.377,6.252,7.814,7.033,-3.126,-9.377,3.126,7.814
'[15:23:49.145 02/09/2075]',3.126,-7.033,4.689,14.457,-2.344,3.516,9.768,2.735,7.033,1.954,2.735,3.907,2.344,-6.642,3.126,18.364,8.205,7.814,-3.907,8.205,-15.629,3.126,3.126
'[15:23:49.148 02/09/2075]',-1.563,-12.503,4.298,29.695,-0.391,6.252,1.172,12.503,-5.079,10.940,1.172,8.987,-10.940,5.861,6.252,16.410,9.377,7.424,-3.516,19.145,-10.940,7.424,6.252
'[15:23:49.152 02/09/2075]',-5.470,-1.954,-1.172,20.708,-3.126,6.642,-0.391,7.033,-5.861,19.536,-1.172,-0.391,-4.298,17.192,-3.126,1.563,10.159,6.642,1.954,10.549,-1.954,13.675,-3.126
'[15:23:49.156 02/09/2075]',-3.907,-7.033,3.907,17.582,-5.861,6.642,2.735,6.252,-3.126,17.582,0.391,-5.470,5.079,-0.391,10.940,-6.642,9.377,6.252,-3.126,15.238,0.391,1.172,10.940
'[15:23:49.160 02/09/2075]',0.391,1.563,4.298,6.642,-10.549,13.675,3.126,6.642,-8.987,21.099,3.907,0.781,-0.391,10.159,13.284,-5.861,9.768,7.424,-3.516,4.689,4.298,0.391,13.284
'[15:23:49.164 02/09/2075]',6.252,-14.066,20.708,-5.861,-14.457,11.331,5.861,3.907,-10.549,13.284,1.954,-2.735,-0.391,1.954,8.205,-7.033,7.424,7.424,-19.927,19.927,0.000,-9.377,8.205
'[15:23:49.168 02/09/2075]',6.252,-5.079,11.331,-2.735,-8.205,5.861,5.079,7.033,-12.894,4.298,0.781,-0.781,-6.252,-9.768,12.894,-4.298,5.861,8.596,-10.549,7.814,-8.596,-10.940,12.894
'[15:23:49.172 02/09/2075]',6.642,-10.940,30.867,0.000,-10.159,17.582,7.033,10.940,-16.410,10.940,12.112,11.722,-13.675,-2.344,43.761,-7.033,9.768,12.503,-30.085,16.801,-17.192,-7.033,43.761
'[15:23:49.176 02/09/2075]',4.689,-8.205,13.284,13.675,-15.629,16.801,5.470,16.801,-20.317,8.987,14.457,26.178,-12.894,-7.033,40.244,9.768,12.112,14.457,-12.503,13.284,-15.629,-12.894,40.244
'[15:23:49.180 02/09/2075]',-0.781,7.814,-4.689,16.020,-17.582,12.112,8.987,13.675,-25.397,6.252,15.629,26.178,-16.020,-5.470,33.602,12.112,11.331,16.020,5.470,-10.940,-7.033,-8.596,33.602
'[15:23:49.184 02/09/2075]',-0.781,0.000,-3.516,17.582,-23.834,12.503,11.331,11.331,-19.927,5.470,11.722,30.867,-7.814,-0.781,12.112,25.397,10.159,15.238,4.298,-5.470,-3.126,-1.172,12.112
'[15:23:49.188 02/09/2075]',6.642,-16.801,0.391,11.722,-19.536,5.079,9.377,6.252,-21.490,5.470,3.907,14.066,-1.954,-3.126,-0.781,10.159,6.642,11.722,0.391,14.457,4.689,-14.457,-0.781
'[15:23:49.191 02/09/2075]',13.675,-26.178,19.927,4.298,-12.503,7.424,9.377,6.642,-17.582,7.033,1.563,-1.172,-7.814,4.689,7.424,-12.894,7.814,14.066,-19.145,23.053,0.000,-10.159,7.424
'[15:23:49.195 02/09/2075]',9.768,-24.615,39.463,7.424,-4.689,16.020,12.503,8.205,-6.252,13.284,7.033,-2.344,-4.298,17.192,12.894,-12.894,8.596,18.364,-38.681,33.211,-11.331,6.252,12.894
'[15:23:49.199 02/09/2075]',11.722,-19.536,28.132,10.549,-7.424,20.317,10.940,7.424,-5.470,14.457,17.582,3.126,-7.814,21.099,34.774,-17.192,9.768,18.364,-27.350,33.211,-17.582,2.344,34.774
'[15:23:49.203 02/09/2075]',7.424,-15.629,22.271,18.364,-7.033,17.192,9.768,12.503,-0.781,5.079,19.536,13.284,-9.768,31.258,17.192,0.000,11.331,19.145,-21.490,27.350,-14.457,10.940,17.192
'[15:23:49.207 02/09/2075]',0.391,-9.768,21.490,19.536,-9.377,17.582,10.159,13.284,-1.172,1.172,21.099,32.039,-7.814,26.178,4.689,29.304,10.159,20.708,-20.708,13.675,-10.159,16.801,4.689
'[15:23:49.211 02/09/2075]',3.126,-10.549,7.814,13.675,-12.894,13.675,5.470,7.424,-3.126,-6.252,18.364,26.178,-3.126,25.006,-7.033,19.927,7.424,15.629,-7.033,8.596,-8.596,23.834,-7.033
'[15:23:49.215 02/09/2075]',5.861,-17.192,17.973,2.344,-7.814,10.159,2.735,4.298,-8.596,-2.735,12.503,10.549,2.735,15.238,-0.781,-4.298,8.205,10.159,-17.192,16.020,-3.126,14.457,-0.781
'[15:23:49.219 02/09/2075]',5.470,-19.536,30.867,0.000,-5.079,8.987,3.516,7.814,-16.410,3.126,10.549,7.033,-2.344,-8.205,18.364,-1.563,8.205,9.768,-30.085,15.629,-3.126,-7.033,18.364
'[15:23:49.223 02/09/2075]',5.470,-7.814,6.642,2.735,-4.689,6.642,3.126,1.563,-23.443,8.987,14.847,-2.735,-6.252,0.000,17.582,-12.894,7.033,8.596,-5.861,7.424,-2.735,-1.954,17.582
'[15:23:49.227 02/09/2075]',10.159,-1.563,4.298,-2.735,0.391,3.516,7.033,-1.954,-24.615,13.675,17.192,-12.503,-7.033,0.391,20.708,-18.755,10.940,8.596,-3.516,4.689,1.954,-11.722,20.708
'[15:23:49.230 02/09/2075]',7.033,-7.814,11.331,5.079,7.033,-5.079,6.252,7.424,-22.662,14.847,14.066,-5.861,-11.331,8.987,9.768,-6.252,11.722,14.847,-10.549,6.642,5.079,-8.205,9.768
'[15:23:49.234 02/09/2075]',5.079,4.298,-2.735,0.391,-14.066,7.424,8.987,3.516,-26.178,13.675,16.410,-3.126,-16.801,16.801,-0.391,1.563,10.159,18.755,3.516,-7.033,-5.079,8.205,-0.391
'[15:23:49.238 02/09/2075]',8.205,-3.126,10.940,0.391,-9.377,10.940,10.549,3.516,-14.066,14.847,16.020,-4.298,-5.861,16.801,12.894,-9.768,10.940,19.927,-10.159,10.549,-8.596,6.642,12.894
'[15:23:49.242 02/09/2075]',8.205,-30.867,45.324,2.344,-9.768,13.284,10.159,10.159,-12.894,16.020,14.847,4.298,-1.954,4.689,20.708,-0.391,10.549,19.145,-44.542,43.761,-14.457,-3.126,20.708
'[15:23:49.246 02/09/2075]',9.768,-21.099,23.053,5.079,-19.536,17.192,9.768,8.987,-12.112,8.596,12.894,15.629,2.344,-8.596,12.112,18.755,7.033,16.020,-22.271,27.741,-22.271,-0.781,12.112
'[15:23:49.250 02/09/2075]',11.331,-3.126,7.814,0.000,-10.159,17.192,6.642,0.781,-6.252,3.907,10.549,-1.954,7.424,-10.549,17.192,-7.033,5.470,11.722,-7.033,12.503,-12.112,-8.205,17.192
'[15:23:49.254 02/09/2075]',8.205,3.516,0.391,1.563,-12.894,14.066,7.424,5.079,-6.642,0.391,8.987,1.172,2.344,-0.781,0.391,2.735,5.079,11.722,0.391,5.079,-3.516,-8.596,0.391
'[15:23:49.258 02/09/2075]',7.814,34.774,-38.291,1.954,-21.490,14.066,7.814,5.079,-20.708,3.907,7.424,5.470,-7.033,1.172,-5.079,7.424,4.298,12.503,39.072,-35.946,-2.344,-4.298,-5.079
'[15:23:49.262 02/09/2075]',-3.907,37.509,-25.006,-0.391,-16.410,10.940,11.331,0.781,-22.271,6.252,10.549,0.391,-8.205,2.735,11.722,-9.377,3.126,14.457,25.788,-30.867,3.126,-0.391,11.722
'[15:23:49.266 02/09/2075]',-3.516,-12.112,24.225,3.516,-14.457,11.331,11.722,1.954,-12.894,4.689,12.503,11.722,-2.344,5.861,4.689,8.596,5.861,14.457,-23.443,20.708,4.298,0.781,4.689
'[15:23:49.270 02/09/2075]',-0.781,-35.556,35.165,8.596,-13.675,11.331,3.516,5.079,-14.066,1.563,8.987,21.880,-1.172,10.940,0.391,9.377,6.252,8.596,-34.383,40.635,2.735,4.689,0.391
'[15:23:49.273 02/09/2075]',2.735,-37.900,38.291,-2.344,-8.987,10.940,1.563,-2.735,-7.814,-1.954,4.298,7.424,3.907,-5.079,10.549,-6.642,4.689,6.252,-37.509,36.728,3.516,-6.252,10.549
'[15:23:49.277 02/09/2075]',5.079,-37.118,30.867,3.907,-7.424,10.159,2.735,-3.516,1.563,-8.987,3.907,2.344,1.954,-5.861,5.079,-1.172,5.079,6.252,-30.085,36.337,2.344,-12.503,5.079
'[15:23:49.281 02/09/2075]',5.079,-12.894,-0.781,9.768,-10.159,8.205,3.516,-0.391,-5.079,-3.907,4.689,0.391,-4.689,-1.954,14.847,-10.940,3.516,8.987,1.563,12.503,2.344,-18.364,14.847
'[15:23:49.285 02/09/2075]',-5.861,5.470,-10.159,10.940,-21.880,9.377,6.252,5.861,-14.457,-0.781,1.172,7.033,-8.596,-12.112,10.159,3.126,0.391,13.284,10.940,-6.642,1.563,-18.755,10.159
'[15:23:49.289 02/09/2075]',-5.861,10.159,-5.079,5.861,-14.847,7.814,9.377,1.172,-10.159,0.000,1.563,-4.298,-4.298,0.000,-0.781,-7.033,-1.172,13.675,5.861,-0.391,-0.391,-7.424,-0.781
'[15:23:49.293 02/09/2075]',0.391,10.549,-20.708,17.582,-8.987,8.205,5.079,3.126,-3.907,0.391,0.781,-0.391,-2.344,16.801,-17.973,0.781,1.172,9.768,21.490,1.172,0.000,5.861,-17.973
'[15:23:49.297 02/09/2075]',-3.516,8.205,12.112,-5.079,-6.252,7.814,5.861,2.735,-7.033,-0.391,-1.954,4.298,-1.954,16.410,-37.509,17.192,0.000,9.768,-11.331,2.735,0.000,11.722,-37.509
'[15:23:49.301 02/09/2075]',-1.172,0.781,17.973,-0.781,-3.516,8.205,8.205,2.344,-6.642,0.781,0.781,3.907,-0.391,14.847,-9.377,-3.907,0.391,12.112,-17.192,7.814,-5.861,23.053,-9.377
'[15:23:49.305 02/09/2075]',3.907,-16.410,13.284,10.549,-4.689,5.079,7.424,2.735,-3.126,1.563,5.861,-1.172,-1.172,6.642,4.689,-6.252,0.391,12.894,-12.503,23.053,-0.781,6.642,4.689
'[15:23:49.309 02/09/2075]',-1.954,-29.695,23.834,13.675,-15.238,1.954,8.987,8.987,-13.284,2.344,7.814,14.457,0.000,-13.675,23.834,2.344,0.391,16.410,-23.053,37.509,0.391,-9.768,23.834
'[15:23:49.313 02/09/2075]',-1.563,-23.443,3.907,28.523,-17.582,1.563,7.814,14.847,-22.662,10.159,7.424,12.894,-0.391,-7.814,20.708,-3.516,-0.781,17.973,-3.126,25.006,3.516,0.781,20.708
'[15:23:49.316 02/09/2075]',7.424,1.172,-23.443,14.457,-14.457,4.298,2.735,6.252,-15.629,10.940,6.642,6.252,1.563,3.516,2.735,0.391,-1.172,12.894,24.225,-2.344,8.205,0.781,2.735
'[15:23:49.320 02/09/2075]',1.563,11.331,-11.331,11.722,-12.503,10.159,2.344,12.894,-12.894,10.940,10.549,24.225,3.516,23.053,-26.178,32.430,1.954,14.066,12.112,-5.079,7.033,14.847,-26.178
'[15:23:49.324 02/09/2075]',0.391,16.020,-3.516,-1.954,-5.861,5.079,-0.391,11.331,-13.675,8.205,5.079,29.304,-1.563,23.053,-31.258,40.244,0.000,13.284,4.298,-18.364,7.424,17.192,-31.258
'[15:23:49.328 02/09/2075]',10.159,6.642,-6.642,-12.112,-1.954,0.000,-1.563,0.391,-8.596,3.516,3.516,14.847,0.391,-1.172,-23.443,39.072,-2.344,8.596,7.424,-13.675,0.000,-3.907,-23.443
'[15:23:49.332 02/09/2075]',1.954,-14.847,12.503,-5.079,-4.298,-2.735,-1.563,2.344,-6.642,1.563,1.563,13.675,2.735,-18.364,-2.344,29.695,-2.735,8.987,-11.722,18.755,-1.172,-19.927,-2.344
'[15:23:49.336 02/09/2075]',6.252,-14.066,-5.470,2.344,3.907,-14.847,-5.470,3.907,-11.722,-1.563,-4.298,14.457,-4.298,-28.523,5.470,23.834,-5.470,7.033,6.252,16.410,-1.954,-32.821,5.470
'[15:23:49.340 02/09/2075]',12.503,-1.954,-17.582,0.000,6.642,-11.331,-0.781,-1.172,-10.940,1.954,0.000,-0.781,0.000,-24.225,30.085,-16.410,-6.642,7.424,18.364,5.861,-3.907,-23.443,30.085
'[15:23:49.344 02/09/2075]',5.470,3.907,0.391,-6.252,-4.298,3.907,3.907,-1.172,-6.642,0.391,7.814,-7.033,5.470,-8.596,21.099,-22.662,-3.516,9.768,0.391,6.642,0.000,-8.205,21.099
'[15:23:49.348 02/09/2075]',-2.735,5.861,0.781,0.781,-9.377,3.907,5.861,4.298,-6.252,-2.735,15.629,9.377,2.344,10.159,8.596,-5.470,-1.954,11.722,0.000,2.344,6.642,1.954,8.596
'[15:23:49.352 02/09/2075]',-2.344,-9.768,-1.172,9.768,-17.582,-0.781,6.252,7.033,-8.596,-11.722,11.331,4.689,-3.907,7.814,-0.781,-6.252,-5.079,8.596,1.954,13.284,2.735,1.563,-0.781
'[15:23:49.355 02/09/2075]',-6.252,-20.708,0.391,11.331,-23.053,-4.298,6.252,4.298,-18.755,-11.331,14.066,5.079,-1.563,-13.675,-1.954,8.205,-6.642,5.079,0.391,25.397,1.563,-13.675,-1.954
'[15:23:49.359 02/09/2075]',-1.172,-17.582,-7.814,18.755,-13.284,-4.689,1.563,7.424,-23.834,-7.814,15.629,25.397,-9.377,-6.252,0.781,25.006,-3.907,6.642,8.596,25.006,0.391,-14.847,0.781
'[15:23:49.363 02/09/2075]',8.987,-13.675,-22.662,22.662,-10.159,-6.252,0.000,12.112,-28.523,-12.894,8.205,38.291,-13.675,-17.582,7.033,29.304,-5.861,7.033,23.443,8.987,-3.126,-17.582,7.033
'[15:23:49.367 02/09/2075]',7.424,-3.907,11.722,-15.629,-6.642,7.424,2.344,-3.126,-19.536,-8.205,9.377,17.192,-0.391,-14.066,8.987,3.907,-2.344,7.814,-10.940,6.642,-9.768,-1.954,8.987
'[15:23:49.371 02/09/2075]',7.033,-4.298,32.821,-21.880,-5.470,16.801,2.344,-1.172,-5.470,-10.549,8.596,14.847,0.391,6.252,-2.344,3.126,2.735,8.205,-32.039,9.768,-4.689,5.470,-2.344
'[15:23:49.375 02/09/2075]',10.159,-8.987,15.238,-12.503,-5.470,12.894,-3.516,-0.781,-1.563,-19.536,0.781,1.172,-2.344,5.861,-12.894,-9.768,1.172,5.079,-14.457,11.331,0.391,0.781,-12.894
'[15:23:49.379 02/09/2075]',0.781,-2.735,-3.126,-8.987,-2.735,-0.391,-4.689,-6.642,-3.907,-17.582,-0.391,-18.755,1.954,-19.927,-3.516,-19.536,-2.344,0.391,3.907,10.159,1.172,-19.145,-3.516
'[15:23:49.383 02/09/2075]',0.391,5.861,-25.006,0.781,-1.563,-7.814,-6.252,-2.344,-11.722,-8.205,-0.391,-0.781,2.344,-35.556,0.391,9.768,-4.689,-0.781,25.788,-0.391,2.735,-33.993,0.391
'[15:23:49.387 02/09/2075]',6.252,23.443,-69.548,17.192,1.172,-14.457,-10.549,1.954,-28.523,-6.252,-1.954,13.675,-7.814,-34.383,-5.861,25.397,-8.987,-3.126,70.330,-22.271,5.079,-34.774,-5.861
'[15:23:49.391 02/09/2075]',5.861,27.350,-50.403,3.516,0.000,-13.675,-4.689,5.861,-22.662,-6.252,-5.470,24.225,-4.689,-29.695,-0.781,23.834,-10.159,-0.391,51.184,-34.383,3.516,-17.973,-0.781
'[15:23:49.395 02/09/2075]',14.457,12.112,-10.549,-22.662,4.689,-6.642,-2.344,-1.172,-5.079,-4.689,-7.814,19.145,9.377,-12.503,-30.085,33.602,-7.814,-0.781,11.331,-21.099,-1.563,6.252,-30.085
'[15:23:49.398 02/09/2075]',15.238,-10.940,11.331,-16.020,10.549,-8.987,-4.689,2.735,6.642,-16.020,-5.079,7.424,8.596,8.205,-30.867,6.642,-5.861,-1.172,-10.549,5.079,4.298,18.755,-30.867
'[15:23:49.402 02/09/2075]',15.629,-21.099,19.927,-18.755,13.284,-12.894,-5.079,0.391,19.145,-21.490,-8.205,-12.503,14.066,-3.516,-12.112,-22.662,-6.252,-1.954,-19.145,15.629,8.596,5.861,-12.112
'[15:23:49.406 02/09/2075]',8.205,-8.596,6.642,-21.099,17.192,-16.801,-7.424,-7.033,17.192,-9.768,-12.503,-23.053,14.847,-22.662,0.391,-21.099,-8.596,-5.079,-5.861,14.847,1.954,-12.894,0.391
'[15:23:49.410 02/09/2075]',5.861,-7.424,1.954,-10.940,15.629,-12.503,-7.424,-5.470,9.768,-5.079,-8.205,-20.708,5.861,-25.788,13.675,-18.364,-8.205,-5.470,-1.172,17.582,1.954,-22.271,13.675
'[15:23:49.414 02/09/2075]',5.079,-10.159,-3.516,-1.954,10.940,-11.331,-8.987,-1.563,3.907,-5.470,-12.503,-16.801,-3.907,-19.927,4.689,-11.722,-8.205,-6.252,4.298,14.066,1.563,-16.410,4.689
'[15:23:49.418 02/09/2075]',3.907,-14.847,1.954,-3.516,8.987,-9.768,-9.377,-1.563,3.516,1.563,-16.801,-4.298,-7.814,-8.987,-0.391,1.954,-6.252,-4.298,-1.172,5.079,0.781,0.000,-0.391
'[15:23:49.422 02/09/2075]',0.391,-23.834,6.252,-0.781,3.907,-9.768,-11.331,-0.781,0.781,2.344,-12.503,-2.735,-5.470,7.033,-13.284,0.391,-7.033,-6.252,-5.470,10.159,-1.954,23.053,-13.284
'[15:23:49.426 02/09/2075]',7.033,-38.681,1.172,1.172,4.298,-14.847,-17.582,0.391,-0.781,0.000,-19.536,-5.861,-5.079,0.000,-18.755,-1.563,-7.033,-10.940,-0.391,14.066,5.079,9.768,-18.755
'[15:23:49.430 02/09/2075]',-2.344,-8.205,-22.271,0.000,19.145,-28.913,-19.145,-4.298,2.735,3.126,-27.350,-11.331,0.781,-16.801,-8.205,-7.424,-9.768,-14.066,23.053,-8.205,8.205,-0.781,-8.205
'[15:23:49.434 02/09/2075]',-3.126,7.814,-21.880,-17.582,11.722,-16.020,-19.145,-11.331,3.516,1.563,-27.741,-17.973,0.000,-23.834,-6.252,-9.768,-12.503,-18.755,22.662,-20.708,4.298,-4.298,-6.252
'[15:23:49.438 02/09/2075]',-6.252,3.907,-22.662,-5.079,10.940,-11.331,-21.880,-8.205,3.126,-5.079,-27.350,-9.768,1.563,-24.615,-26.178,10.159,-10.159,-20.317,23.443,-3.907,7.814,-11.331,-26.178
'[15:23:49.441 02/09/2075]',-7.814,8.205,-5.079,-14.066,5.861,-1.954,-18.364,-5.470,10.549,-14.457,-19.927,-6.252,-5.470,-12.503,-13.284,1.954,-7.033,-15.629,5.861,-10.549,10.940,-7.033,-13.284
'[15:23:49.445 02/09/2075]',-2.735,16.410,-16.020,-12.503,2.735,3.516,-14.066,-8.596,8.205,-14.457,-3.126,-0.391,-7.033,3.126,3.126,-8.987,-7.424,-10.549,16.801,-24.615,1.954,15.629,3.126
'[15:23:49.449 02/09/2075]',0.391,2.735,-6.642,-8.987,8.987,-4.689,-11.331,-5.861,5.861,-19.145,3.516,21.880,-10.159,0.391,5.861,16.410,-6.252,-6.642,7.424,-11.722,-0.781,9.768,5.861
'[15:23:49.453 02/09/2075]',4.298,5.079,0.391,-13.284,11.722,-4.689,-6.642,-4.689,8.205,-21.099,7.033,11.331,-9.768,1.563,11.722,2.735,-6.642,-3.907,0.391,-16.410,0.000,6.642,11.722
'[15:23:49.457 02/09/2075]',3.516,4.298,-6.642,-11.722,14.457,-8.987,-7.424,-8.596,-0.391,-10.159,3.907,0.391,-6.252,-10.549,20.317,-10.159,-8.205,-4.298,7.424,-19.145,0.781,0.391,20.317
'[15:23:49.461 02/09/2075]',-3.516,-3.907,0.391,-15.238,8.205,-7.033,-8.205,-16.020,-3.516,-12.503,-2.344,-7.424,-7.424,-20.708,2.735,-0.781,-6.642,-6.642,0.391,-3.126,-4.298,-8.596,2.735
'[15:23:49.465 02/09/2075]',-6.642,-2.344,9.768,-4.298,-0.781,7.424,-6.642,-5.079,1.954,-9.377,-5.470,-14.457,-6.642,-12.503,-10.549,1.954,-2.735,-4.689,-8.987,0.781,-1.172,-14.066,-10.549
'[15:23:49.469 02/09/2075]',-7.424,-3.516,10.940,-4.298,-6.252,12.894,-9.377,-3.516,2.344,-5.861,-8.205,-2.735,-10.159,-1.954,-8.205,6.642,-1.172,-5.079,-10.159,-5.470,-3.907,-0.781,-8.205
'[15:23:49.473 02/09/2075]',-3.907,3.126,5.861,-10.159,-0.781,12.894,-8.596,-7.424,12.503,-8.596,-4.689,0.000,-7.814,0.781,-4.689,9.768,-0.781,-5.079,-5.079,-14.457,-14.066,13.675,-4.689
'[15:23:49.477 02/09/2075]',1.172,14.847,2.735,-3.907,17.582,7.814,-5.079,-6.252,20.317,-4.298,-3.907,-0.781,-3.907,11.722,-7.424,10.549,2.735,-4.298,-1.954,-22.271,-8.596,22.271,-7.424
'[15:23:49.480 02/09/2075]',12.503,4.689,10.940,-8.987,28.913,3.516,-6.252,-5.861,22.662,-2.735,-7.033,-2.735,0.391,3.126,1.172,3.907,3.516,-5.079,-10.159,-22.662,-6.642,22.662,1.172
'[15:23:49.484 02/09/2075]',4.689,15.238,-1.954,-10.549,32.039,-2.344,-7.424,-14.066,26.178,-2.344,-12.503,-20.708,1.563,-5.470,6.252,-12.894,3.126,-7.033,2.735,-26.178,-1.954,13.675,6.252
'[15:23:49.488 02/09/2075]',7.814,19.145,-9.768,-3.126,33.993,-1.954,-4.298,-13.284,29.695,0.391,-12.503,-32.039,1.563,8.205,-5.470,-19.927,7.033,-6.252,10.549,-16.801,0.781,12.112,-5.470
'[15:23:49.492 02/09/2075]',8.596,15.238,5.079,-8.596,19.927,7.033,-0.391,-6.642,23.053,5.079,-14.457,-25.397,-4.298,16.410,-19.927,-3.907,11.331,-3.907,-4.298,-7.033,-0.781,8.596,-19.927
'[15:23:49.496 02/09/2075]',2.735,10.940,1.172,-8.205,12.894,3.126,-1.172,-7.424,21.880,3.516,-15.238,-29.695,-3.907,37.118,-36.337,-16.020,6.252,-1.172,-0.391,-4.689,-12.112,41.026,-36.337
'[15:23:49.500 02/09/2075]',7.033,10.940,8.987,-8.596,16.020,5.079,1.563,-4.298,17.582,11.331,-5.079,-24.225,-1.172,37.509,-26.960,-10.159,5.470,4.689,-8.205,-7.033,-13.284,45.324,-26.960
