'Time and date','FP1-F7','F7-T7','T7-P7','P7-O1','FP1-F3','F3-C3','C3-P3','P3-O1','FP2-F4','F4-C4','C4-P4','P4-O2','FP2-F8','F8-T8','T8-P8','P8-O2','FZ-CZ','CZ-PZ','P7-T7','T7-FT9','FT9-FT10','FT10-T8','T8-P8'
'hh:mm:ss.mmm dd/mm/yyyy','uV','uV','uV','uV','uV','uV','uV','uV','uV','uV','uV','uV','uV','uV','uV','uV','uV','uV','uV','uV','uV','uV','uV'
'[05:22:15.000 14/03/2059]',-7.033,-39.463,-53.138,-49.231,101.587,-162.930,-78.144,-9.377,65.250,-43.761,-41.416,-46.105,-36.728,-5.861,-52.747,29.304,-133.236,-66.813,53.919,-59.389,-88.303,36.337,-52.747
'[05:22:15.004 14/03/2059]',0.391,0.391,0.391,0.391,0.391,0.391,0.391,0.391,0.391,0.391,0.391,0.391,0.391,0.391,0.391,0.391,0.391,0.391,0.391,0.391,0.391,0.391,0.391
'[05:22:15.008 14/03/2059]',0.391,0.391,0.391,0.391,0.391,0.391,0.391,0.391,0.391,0.391,0.391,0.391,0.391,0.391,0.391,0.391,0.391,0.391,0.391,0.391,0.391,0.391,0.391
'[05:22:15.012 14/03/2059]',0.391,0.781,0.391,0.391,0.391,0.781,1.954,-0.781,0.391,0.391,0.391,0.391,0.391,0.391,0.391,0.391,0.781,0.391,0.391,0.391,0.391,0.391,0.391
'[05:22:15.016 14/03/2059]',0.391,0.391,0.391,0.391,0.391,0.000,0.391,0.391,0.391,0.391,0.391,0.781,0.391,0.391,0.781,0.391,0.391,0.391,0.391,0.000,0.391,0.781,0.781
'[05:22:15.020 14/03/2059]',0.000,-1.172,0.391,0.781,0.781,-1.563,-6.252,5.861,0.391,-0.391,-0.781,1.172,-0.781,0.000,0.000,1.954,-1.172,0.781,0.391,0.391,0.391,0.391,0.000
'[05:22:15.023 14/03/2059]',0.391,-0.781,0.391,0.391,0.781,-0.391,-6.252,5.861,0.391,0.000,-0.781,0.391,0.000,0.000,-0.781,0.781,-0.391,0.391,0.391,1.954,0.391,-1.563,-0.781
'[05:22:15.027 14/03/2059]',1.954,1.563,0.781,-0.781,0.781,1.954,5.079,-4.689,0.391,1.172,1.172,-0.781,1.563,0.391,1.172,-1.172,1.563,-0.391,0.000,4.298,0.000,-2.735,1.172
'[05:22:15.031 14/03/2059]',0.781,0.781,0.391,0.391,0.391,0.781,8.596,-7.424,0.391,1.172,1.563,0.391,1.172,0.781,2.344,0.000,0.781,0.781,0.391,0.391,-0.391,0.781,2.344
'[05:22:15.035 14/03/2059]',-1.172,-1.563,0.000,1.563,0.000,-1.563,-5.079,5.861,-0.391,0.000,-0.391,1.954,-1.172,0.391,-0.391,2.735,-1.563,3.126,0.781,-5.470,0.391,5.470,-0.391
'[05:22:15.039 14/03/2059]',-0.781,-4.689,0.391,0.781,1.563,-4.689,-22.271,20.708,0.391,-0.781,-2.344,2.735,-2.344,-0.781,-0.391,3.516,-3.907,1.563,0.391,0.391,-0.391,0.391,-0.391
'[05:22:15.043 14/03/2059]',-1.172,-16.410,0.391,1.172,9.768,-17.192,-52.747,43.370,1.172,-4.689,-8.596,10.549,-7.814,-5.861,1.563,10.549,-13.284,1.172,0.391,14.847,-6.252,-13.284,1.563
'[05:22:15.047 14/03/2059]',0.000,-21.880,-1.563,0.391,13.284,-21.880,-74.237,58.608,-0.391,-5.861,-14.457,8.987,-9.768,-8.987,-8.205,16.020,-18.755,3.907,2.344,21.099,-6.252,-21.880,-8.205
'[05:22:15.051 14/03/2059]',5.861,-20.708,-0.391,-5.079,17.582,-18.755,-66.422,46.105,-0.391,-1.172,-9.377,4.689,-6.252,-8.596,0.391,7.814,-18.364,5.079,1.172,23.834,-12.894,-23.834,0.391
'[05:22:15.055 14/03/2059]',11.331,-23.443,3.126,-8.205,19.927,-16.801,-50.403,30.476,-3.126,5.470,-3.126,7.424,-2.344,-5.861,4.298,10.159,-16.801,10.159,-2.344,35.165,-20.317,-29.304,4.298
'[05:22:15.059 14/03/2059]',12.503,-28.523,7.814,-7.033,14.847,-16.020,-46.886,32.430,-10.940,11.722,0.000,7.814,-0.781,-2.344,0.391,12.894,-16.410,23.443,-7.033,25.788,-20.317,-19.145,0.391
'[05:22:15.063 14/03/2059]',15.629,-29.304,10.940,-7.814,15.238,-15.238,-46.105,35.946,-14.847,17.192,3.907,8.987,0.391,0.781,4.298,9.768,-17.192,31.648,-10.159,14.066,-22.662,-7.033,4.298
'[05:22:15.066 14/03/2059]',20.708,-29.695,12.894,-7.814,19.536,-15.629,-42.589,34.774,-19.536,23.053,10.549,13.284,3.907,1.563,10.940,9.768,-14.847,34.383,-12.112,25.788,-27.350,-18.364,10.940
'[05:22:15.070 14/03/2059]',21.490,-31.648,11.331,-5.470,18.364,-16.410,-38.681,31.648,-25.006,23.053,13.675,16.801,4.298,1.563,12.503,9.377,-12.894,42.198,-10.549,30.085,-26.569,-26.960,12.503
'[05:22:15.074 14/03/2059]',22.271,-26.178,2.735,-2.735,14.847,-13.284,-35.556,28.913,-28.913,25.397,17.582,16.410,5.079,5.861,14.066,4.298,-10.159,50.794,-1.954,4.689,-25.006,-9.768,14.066
'[05:22:15.078 14/03/2059]',28.523,-31.258,7.424,-4.689,11.722,-4.298,-30.085,21.880,-31.258,29.304,26.960,12.112,8.596,11.722,18.364,-1.563,-2.344,51.575,-6.642,9.768,-29.304,-4.298,18.364
'[05:22:15.082 14/03/2059]',29.304,-45.324,20.317,-1.563,1.172,0.391,-20.317,20.708,-33.602,33.602,31.258,13.675,14.457,17.973,17.192,-6.252,6.642,56.264,-19.536,37.900,-30.085,-13.284,17.192
'[05:22:15.086 14/03/2059]',29.304,-53.529,26.569,5.861,-7.814,2.344,-1.172,15.238,-37.509,36.728,28.132,14.457,15.629,23.053,13.284,-10.159,12.112,64.860,-25.788,36.337,-27.741,1.172,13.284
'[05:22:15.090 14/03/2059]',30.476,-55.092,27.741,10.940,-14.847,5.079,14.847,9.768,-38.681,39.853,28.913,8.205,17.582,26.178,12.112,-17.582,14.066,67.595,-26.960,32.430,-27.350,15.238,12.112
'[05:22:15.094 14/03/2059]',27.741,-50.794,25.397,14.847,-26.178,6.642,24.615,13.284,-40.244,41.807,30.085,3.907,21.099,25.788,14.066,-25.397,18.364,71.502,-24.615,51.184,-28.523,1.954,14.066
'[05:22:15.098 14/03/2059]',21.490,-43.761,18.364,23.443,-40.244,7.814,25.788,25.788,-41.807,41.807,23.443,4.689,19.536,26.178,3.907,-21.490,19.536,79.316,-17.582,55.482,-25.006,-1.954,3.907
'[05:22:15.102 14/03/2059]',18.364,-36.337,7.033,26.178,-51.184,9.377,31.648,25.788,-40.635,40.244,20.317,-1.172,19.927,25.006,-7.814,-17.973,17.192,81.270,-6.252,46.105,-25.788,7.424,-7.814
'[05:22:15.105 14/03/2059]',10.159,-28.913,0.000,25.006,-67.985,9.768,37.509,27.350,-38.681,39.463,18.755,-3.126,21.880,23.834,-14.847,-14.457,14.457,80.488,0.781,53.919,-30.085,3.126,-14.847
'[05:22:15.109 14/03/2059]',0.000,-25.397,-7.424,28.523,-85.958,1.563,37.118,40.244,-39.072,36.337,11.722,2.344,21.880,19.927,-25.397,-4.298,13.284,83.614,8.205,61.734,-28.523,-7.033,-25.397
'[05:22:15.113 14/03/2059]',-7.033,-15.238,-20.317,29.695,-95.336,-7.424,40.635,47.277,-38.291,30.085,5.470,10.159,19.927,14.457,-29.304,2.735,9.768,83.223,21.099,46.105,-26.178,-3.126,-29.304
'[05:22:15.117 14/03/2059]',-15.238,0.391,-29.695,17.192,-100.415,-15.629,47.668,39.463,-35.165,26.960,0.391,3.516,20.708,9.768,-33.602,-1.563,4.689,72.674,30.476,38.291,-28.523,-6.252,-33.602
'[05:22:15.121 14/03/2059]',-22.662,3.126,-22.662,5.861,-101.587,-21.880,48.059,37.900,-33.602,24.615,-5.470,2.344,22.271,7.033,-38.681,-2.344,4.689,63.297,23.443,59.389,-29.304,-21.880,-38.681
'[05:22:15.125 14/03/2059]',-30.867,6.252,-20.317,-0.781,-101.197,-24.225,39.463,38.681,-30.085,19.145,-17.582,4.689,18.364,3.516,-45.324,-0.781,2.735,57.045,21.099,53.919,-28.523,-15.238,-45.324
'[05:22:15.129 14/03/2059]',-39.463,15.629,-22.271,-15.629,-101.587,-21.490,27.350,33.602,-27.741,18.364,-29.695,-3.907,17.582,0.391,-58.999,-2.344,-2.344,47.277,23.053,44.151,-28.523,-7.033,-58.999
'[05:22:15.133 14/03/2059]',-41.807,20.708,-23.053,-22.271,-101.978,-15.238,18.755,31.258,-23.053,18.755,-39.072,-3.907,21.880,-3.516,-62.125,-4.298,-1.954,41.416,23.834,63.687,-28.132,-21.880,-62.125
'[05:22:15.137 14/03/2059]',-44.542,21.099,-25.788,-20.708,-102.369,-10.940,14.066,26.960,-18.364,15.629,-51.966,-2.735,23.443,-10.159,-69.158,-1.172,-1.172,40.244,26.569,71.502,-20.317,-30.476,-69.158
'[05:22:15.141 14/03/2059]',-47.668,23.834,-28.913,-21.099,-100.024,-5.079,10.159,18.755,-8.596,14.457,-62.906,-7.814,28.132,-13.284,-76.190,-4.298,-4.689,36.337,29.695,55.092,-7.424,-16.410,-76.190
'[05:22:15.145 14/03/2059]',-47.668,27.741,-28.523,-23.053,-94.554,3.516,1.563,15.629,0.781,12.503,-67.595,-14.847,36.337,-12.503,-78.144,-13.675,-2.344,23.443,29.304,58.999,3.516,-17.192,-78.144
'[05:22:15.148 14/03/2059]',-50.012,31.258,-28.913,-20.708,-90.647,10.549,-7.424,17.582,7.814,7.033,-68.767,-14.066,42.198,-13.675,-76.190,-19.145,3.126,16.410,29.695,69.158,17.192,-28.913,-76.190
'[05:22:15.152 14/03/2059]',-53.138,41.416,-33.211,-18.755,-85.568,17.192,-12.894,16.801,12.503,-1.563,-64.860,-11.331,42.198,-13.284,-69.939,-24.225,5.861,12.894,33.993,47.668,31.258,-19.536,-69.939
'[05:22:15.156 14/03/2059]',-51.184,61.343,-41.807,-17.582,-76.581,24.615,-13.675,14.847,17.973,-9.377,-51.966,-8.596,45.324,-12.112,-56.264,-28.132,8.596,9.377,42.589,25.788,42.198,-14.066,-56.264
'[05:22:15.160 14/03/2059]',-49.231,62.906,-34.383,-11.722,-68.767,27.741,-16.801,23.053,21.880,-21.099,-36.728,-3.126,47.277,-14.066,-39.853,-31.648,13.675,10.549,35.165,42.198,50.403,-31.258,-39.853
'[05:22:15.164 14/03/2059]',-49.231,54.701,-22.271,0.000,-61.343,26.178,-19.927,36.337,27.350,-31.648,-22.271,3.126,46.496,-14.847,-18.364,-35.556,15.238,15.238,23.053,53.919,58.608,-37.118,-18.364
'[05:22:15.168 14/03/2059]',-47.668,45.714,-11.331,10.159,-52.357,26.569,-15.629,37.118,36.728,-41.416,-8.987,10.159,46.496,-14.847,-1.172,-32.821,13.284,15.629,12.112,43.761,67.595,-22.271,-1.172
'[05:22:15.172 14/03/2059]',-42.198,28.913,1.563,22.271,-42.589,25.788,-15.238,41.416,45.714,-51.575,2.735,11.722,48.059,-15.238,14.457,-37.509,14.847,10.940,-0.781,62.515,73.455,-26.960,14.457
'[05:22:15.176 14/03/2059]',-42.589,12.894,10.549,37.118,-35.165,21.099,-23.834,56.264,55.092,-64.469,8.205,19.927,44.933,-16.410,26.178,-34.774,17.973,12.112,-9.768,70.720,83.223,-29.304,26.178
'[05:22:15.180 14/03/2059]',-46.105,5.470,10.549,48.449,-28.913,16.020,-31.258,63.687,66.032,-76.581,11.331,23.053,39.463,-17.973,31.648,-28.132,18.755,9.377,-9.768,52.357,94.164,-16.801,31.648
'[05:22:15.184 14/03/2059]',-44.933,5.861,12.503,55.092,-16.020,11.331,-30.476,64.078,80.098,-85.177,17.973,18.364,37.509,-16.020,43.761,-32.430,22.662,-0.391,-11.722,53.529,99.634,-18.755,43.761
'[05:22:15.188 14/03/2059]',-46.105,4.298,18.755,62.125,-3.907,3.907,-32.039,71.893,92.991,-92.601,20.708,16.020,32.039,-14.066,55.873,-35.165,27.350,-6.252,-17.973,61.734,106.276,-29.304,55.873
'[05:22:15.191 14/03/2059]',-49.231,9.768,14.847,74.237,4.689,-3.126,-32.039,80.879,106.276,-98.462,22.662,15.238,22.271,-11.331,66.813,-30.085,25.788,-8.596,-14.066,31.258,109.402,-10.549,66.813
'[05:22:15.195 14/03/2059]',-46.496,6.252,23.443,84.005,18.364,-6.642,-32.821,87.912,117.998,-100.806,28.523,8.987,14.847,-4.689,82.442,-35.946,25.788,-14.066,-22.662,18.755,108.620,5.861,82.442
'[05:22:15.199 14/03/2059]',-45.714,-7.033,39.463,90.647,25.006,-12.112,-30.867,94.945,126.593,-103.541,31.648,6.642,8.987,1.954,91.819,-39.853,28.913,-17.582,-38.681,42.198,105.495,0.391,91.819
'[05:22:15.203 14/03/2059]',-48.059,-17.973,46.886,97.289,26.960,-19.927,-24.225,94.164,130.501,-107.839,32.430,5.861,0.391,5.079,96.117,-40.244,30.476,-13.284,-46.105,47.668,99.243,4.298,96.117
'[05:22:15.207 14/03/2059]',-48.059,-28.523,53.138,98.071,30.476,-26.178,-17.973,87.131,131.673,-109.011,33.602,2.735,-6.252,11.331,97.680,-42.198,29.304,-11.722,-52.357,37.900,96.899,24.225,97.680
'[05:22:15.211 14/03/2059]',-48.059,-35.165,58.608,89.866,32.430,-32.039,-16.410,80.879,133.626,-110.965,33.211,-0.781,-10.159,17.192,95.726,-47.668,29.304,-17.973,-57.827,49.621,95.336,21.880,95.726
'[05:22:15.215 14/03/2059]',-50.012,-40.635,57.045,83.614,33.211,-44.151,-15.629,76.190,130.110,-114.872,31.648,-3.126,-14.457,17.582,92.210,-51.184,28.132,-19.536,-56.264,56.264,97.680,14.847,92.210
'[05:22:15.219 14/03/2059]',-54.701,-48.840,55.873,83.614,35.946,-57.436,-14.066,71.502,126.984,-117.216,26.178,-1.954,-20.708,19.927,81.661,-46.105,22.662,-24.225,-55.092,42.198,105.495,32.039,81.661
'[05:22:15.223 14/03/2059]',-59.389,-62.125,58.608,77.363,39.072,-74.237,-14.847,62.906,125.421,-117.216,20.317,-17.582,-23.053,23.443,69.158,-58.217,15.238,-35.946,-57.827,46.886,112.918,39.463,69.158
'[05:22:15.227 14/03/2059]',-64.078,-74.237,57.827,73.846,40.635,-92.991,-25.788,70.720,121.514,-119.560,12.894,-24.225,-27.350,21.880,56.654,-60.562,9.377,-47.668,-57.045,65.641,116.435,29.304,56.654
'[05:22:15.230 14/03/2059]',-66.422,-81.270,49.621,74.628,44.542,-109.011,-37.118,76.972,116.044,-119.170,1.954,-28.913,-35.165,19.927,39.463,-54.701,3.516,-56.654,-48.840,60.952,121.123,31.258,39.463
'[05:22:15.234 14/03/2059]',-64.078,-84.396,40.244,64.078,50.403,-123.858,-42.589,70.330,112.918,-118.388,-6.642,-48.449,-40.244,21.099,20.317,-62.125,-7.033,-74.237,-39.463,48.840,122.295,42.979,20.317
'[05:22:15.238 14/03/2059]',-64.078,-81.661,24.615,57.827,52.747,-137.534,-46.105,66.422,109.402,-120.733,-11.722,-51.575,-44.151,15.238,11.331,-58.217,-14.066,-92.210,-23.834,48.059,120.342,33.602,11.331
'[05:22:15.242 14/03/2059]',-67.595,-83.223,6.252,54.701,50.794,-152.381,-55.482,66.422,101.978,-126.593,-22.271,-53.138,-52.747,6.252,-1.954,-51.184,-25.006,-98.462,-5.470,39.463,119.951,27.350,-1.954
'[05:22:15.246 14/03/2059]',-72.283,-98.071,1.954,49.621,47.277,-166.447,-64.469,63.687,96.899,-135.189,-30.476,-56.654,-59.780,0.391,-17.973,-46.496,-41.026,-104.713,-1.172,32.821,117.998,36.728,-17.973
'[05:22:15.250 14/03/2059]',-76.972,-113.309,2.344,40.244,38.681,-175.433,-67.204,55.873,92.601,-143.785,-34.383,-59.389,-62.906,-7.424,-24.615,-48.059,-57.436,-115.263,-1.563,55.092,111.355,20.708,-24.615
'[05:22:15.254 14/03/2059]',-79.707,-126.203,1.954,34.774,33.993,-185.983,-69.158,51.184,85.177,-153.553,-42.198,-49.231,-69.939,-17.582,-32.430,-37.900,-73.065,-119.170,-1.172,77.753,101.978,1.172,-32.430
'[05:22:15.258 14/03/2059]',-83.614,-133.626,0.000,25.788,28.913,-194.969,-75.018,48.449,77.363,-163.712,-50.794,-50.403,-78.535,-25.397,-46.496,-35.946,-91.819,-123.468,0.781,67.595,96.899,8.987,-46.496
'[05:22:15.262 14/03/2059]',-89.084,-130.501,-7.033,14.066,22.662,-204.737,-80.879,48.449,68.376,-167.228,-57.436,-52.747,-84.396,-31.258,-51.184,-39.853,-109.792,-132.063,7.814,58.608,90.647,9.768,-51.184
'[05:22:15.266 14/03/2059]',-95.336,-126.203,-12.894,6.252,16.020,-215.678,-75.800,44.933,57.045,-169.182,-64.469,-48.059,-87.131,-41.807,-59.389,-34.774,-120.342,-135.580,13.675,73.455,83.614,-12.894,-59.389
'[05:22:15.270 14/03/2059]',-101.197,-128.156,-14.066,2.344,9.768,-225.446,-70.720,42.589,43.370,-169.573,-69.939,-47.668,-89.866,-51.184,-68.767,-32.821,-130.501,-128.938,14.847,71.502,80.098,-19.145,-68.767
'[05:22:15.273 14/03/2059]',-102.759,-124.249,-14.457,-3.126,5.079,-226.618,-61.734,35.946,30.476,-162.149,-69.548,-50.403,-90.647,-53.138,-71.502,-33.993,-138.315,-122.686,15.238,58.608,73.455,-12.503,-71.502
'[05:22:15.277 14/03/2059]',-99.243,-115.653,-15.238,-10.159,0.781,-221.929,-58.608,36.728,14.847,-150.037,-64.469,-48.840,-87.521,-55.873,-70.330,-33.993,-137.534,-117.998,16.020,67.985,63.687,-28.523,-70.330
'[05:22:15.281 14/03/2059]',-94.554,-108.620,-16.020,-13.675,-1.563,-216.068,-57.045,39.853,0.391,-140.269,-59.780,-42.198,-85.177,-56.654,-67.595,-31.648,-133.626,-109.011,16.801,67.985,59.389,-41.026,-67.595
'[05:22:15.285 14/03/2059]',-89.475,-90.256,-26.960,-17.582,-5.470,-206.300,-47.277,32.430,-11.722,-125.421,-53.919,-36.337,-83.223,-52.357,-62.515,-29.304,-128.156,-100.024,27.741,37.118,53.919,-27.741,-62.515
'[05:22:15.289 14/03/2059]',-82.051,-78.926,-26.569,-22.662,-10.940,-191.453,-32.430,22.662,-22.271,-109.011,-44.151,-31.258,-75.018,-46.886,-55.873,-26.960,-119.560,-90.256,27.350,28.132,46.496,-23.834,-55.873
'[05:22:15.293 14/03/2059]',-74.237,-80.098,-12.894,-22.662,-19.145,-174.652,-23.053,25.397,-29.695,-94.945,-35.946,-19.536,-64.860,-47.277,-48.059,-19.536,-105.495,-73.846,13.675,51.184,38.291,-42.979,-48.059
'[05:22:15.297 14/03/2059]',-67.985,-77.363,-2.735,-19.145,-30.476,-154.335,-14.457,30.476,-34.383,-79.316,-28.523,-9.768,-54.701,-42.979,-39.853,-13.675,-92.210,-49.621,3.516,48.840,31.648,-38.291,-39.853
'[05:22:15.301 14/03/2059]',-55.873,-75.018,12.112,-21.099,-38.291,-126.984,1.563,21.880,-36.337,-64.078,-16.020,-10.549,-41.416,-39.853,-32.430,-12.112,-78.144,-30.867,-11.331,51.966,20.317,-33.993,-32.430
'[05:22:15.305 14/03/2059]',-46.886,-74.628,28.132,-21.880,-51.184,-98.462,17.192,15.238,-37.118,-51.184,-4.298,-8.205,-28.132,-39.853,-22.662,-9.377,-59.780,-14.066,-27.350,71.502,11.331,-49.231,-22.662
'[05:22:15.309 14/03/2059]',-41.026,-67.204,27.741,-13.675,-61.734,-75.409,27.350,13.675,-39.463,-42.589,1.172,-0.391,-21.490,-41.026,-15.629,-1.563,-44.151,5.470,-26.960,55.873,10.159,-44.933,-15.629
'[05:22:15.313 14/03/2059]',-32.430,-57.045,21.490,-8.987,-69.548,-52.747,35.556,6.642,-39.463,-33.993,6.252,1.954,-14.457,-41.026,-14.066,6.252,-30.476,17.582,-20.708,32.430,4.298,-30.085,-14.066
'[05:22:15.316 14/03/2059]',-21.490,-53.919,19.927,-5.861,-74.628,-32.039,41.026,3.126,-41.416,-25.006,12.503,5.470,-5.079,-43.761,-10.549,12.112,-16.801,23.834,-19.145,45.714,-3.126,-45.324,-10.549
'[05:22:15.320 14/03/2059]',-10.549,-46.886,10.549,5.470,-76.190,-17.582,43.761,7.033,-42.198,-18.364,15.238,15.629,1.172,-45.324,-5.861,21.490,-6.642,34.774,-9.768,46.886,-7.424,-55.092,-5.861
'[05:22:15.324 14/03/2059]',0.000,-51.966,10.159,14.847,-75.409,-1.954,38.681,12.503,-42.589,-10.159,17.192,19.536,7.424,-42.589,-9.377,29.695,-1.563,43.370,-9.377,32.430,-9.377,-38.681,-9.377
'[05:22:15.328 14/03/2059]',14.847,-66.813,22.271,21.490,-71.502,14.847,27.350,20.317,-42.198,-1.563,21.880,19.145,16.020,-41.416,-8.596,32.039,1.172,45.324,-21.490,46.105,-15.238,-35.165,-8.596
'[05:22:15.332 14/03/2059]',25.006,-76.190,29.304,30.085,-67.985,28.523,17.192,30.085,-42.979,5.470,23.443,23.053,23.053,-42.198,-1.954,31.648,7.424,48.449,-28.523,66.032,-14.066,-48.449,-1.954
'[05:22:15.336 14/03/2059]',32.821,-84.005,31.648,42.198,-64.860,39.463,13.284,34.383,-44.933,12.503,19.927,33.602,25.788,-42.979,0.391,39.072,12.894,55.092,-30.867,58.999,-9.377,-39.463,0.391
'[05:22:15.340 14/03/2059]',37.509,-83.223,32.039,44.151,-64.469,50.794,10.159,33.993,-45.714,21.490,15.629,37.900,30.085,-42.589,4.298,37.900,16.410,53.138,-31.258,50.403,-11.331,-27.741,4.298
'[05:22:15.344 14/03/2059]',41.026,-76.190,31.648,44.542,-64.078,57.827,4.689,42.198,-44.542,26.569,12.503,44.151,35.556,-41.416,10.549,34.774,21.099,51.184,-30.867,61.343,-9.377,-40.244,10.549
'[05:22:15.348 14/03/2059]',38.291,-72.283,28.523,48.840,-69.158,59.780,0.391,52.747,-43.370,26.569,4.298,53.138,35.946,-40.635,8.596,36.728,21.880,50.012,-27.741,57.436,-3.126,-43.370,8.596
'[05:22:15.352 14/03/2059]',38.291,-68.767,25.006,48.059,-69.158,60.171,4.298,46.886,-38.681,26.178,-3.516,51.966,37.509,-39.463,4.298,32.821,18.755,41.416,-24.225,41.026,0.391,-28.523,4.298
'[05:22:15.355 14/03/2059]',39.463,-68.376,26.178,44.542,-64.469,59.389,0.781,46.105,-32.430,25.397,-7.814,41.807,39.853,-37.900,2.344,22.662,14.457,32.039,-25.397,41.416,5.079,-25.006,2.344
'[05:22:15.359 14/03/2059]',36.728,-75.409,27.350,50.012,-62.515,55.482,-8.596,54.701,-30.476,23.053,-12.112,39.853,38.291,-39.853,0.391,21.099,16.020,29.304,-26.569,51.575,17.192,-35.946,0.391
'[05:22:15.363 14/03/2059]',34.383,-76.581,24.225,51.966,-58.217,55.482,-14.847,51.575,-27.350,22.662,-15.238,32.821,36.337,-37.900,-3.907,18.755,15.629,28.523,-23.443,39.853,27.741,-24.615,-3.907
'[05:22:15.367 14/03/2059]',34.383,-71.502,19.145,45.324,-51.966,57.045,-16.801,40.244,-20.708,23.834,-12.112,19.536,39.463,-34.774,-4.298,10.159,16.801,20.317,-18.364,38.291,33.211,-22.662,-4.298
'[05:22:15.371 14/03/2059]',29.304,-66.422,13.675,41.026,-52.747,56.654,-16.020,29.695,-15.629,23.053,-13.675,11.722,40.635,-32.430,-5.470,2.344,16.801,17.582,-12.894,50.012,39.853,-34.774,-5.470
'[05:22:15.375 14/03/2059]',19.927,-54.310,-3.516,39.463,-57.436,52.747,-15.629,21.099,-11.722,19.145,-18.364,8.596,39.853,-30.476,-10.159,0.000,10.159,16.801,4.298,24.225,49.621,-20.317,-10.159
'[05:22:15.379 14/03/2059]',15.629,-44.542,-14.066,32.430,-60.171,51.575,-19.145,16.410,-6.252,16.801,-22.662,0.781,40.244,-26.569,-13.284,-10.940,0.000,13.284,14.847,5.079,54.310,-3.126,-13.284
'[05:22:15.383 14/03/2059]',10.549,-48.059,-8.205,26.569,-66.422,50.794,-19.927,15.629,-2.735,12.894,-27.350,-3.516,44.151,-23.834,-20.317,-19.536,-10.159,11.331,8.987,27.741,60.562,-15.238,-20.317
'[05:22:15.387 14/03/2059]',1.954,-53.138,-1.563,27.350,-74.628,50.403,-20.317,19.927,-5.079,6.642,-30.476,3.126,43.370,-21.880,-25.397,-19.927,-20.708,14.457,2.344,39.463,70.330,-20.708,-25.397
'[05:22:15.391 14/03/2059]',-0.391,-51.575,3.907,22.662,-76.581,55.482,-20.317,16.801,-5.079,2.735,-30.476,-0.781,43.370,-17.582,-33.602,-25.397,-30.476,17.973,-3.126,30.476,76.190,-7.033,-33.602
'[05:22:15.395 14/03/2059]',-2.735,-41.416,6.252,14.066,-76.972,62.125,-25.788,17.582,-4.298,1.954,-26.178,-7.424,48.059,-12.503,-37.118,-33.993,-35.946,16.410,-5.470,33.993,81.270,-10.940,-37.118
'[05:22:15.398 14/03/2059]',-8.596,-26.569,1.954,9.377,-80.879,67.985,-29.695,19.145,-8.987,3.126,-22.662,-6.642,49.621,-11.722,-35.946,-37.509,-35.165,19.145,-1.172,38.681,84.396,-22.662,-35.946
'[05:22:15.402 14/03/2059]',-9.768,-14.457,0.391,5.861,-81.270,77.753,-23.443,8.987,-14.457,7.033,-16.020,-12.112,47.277,-5.861,-35.165,-41.026,-33.602,26.178,0.391,19.927,89.475,-10.159,-35.165
'[05:22:15.406 14/03/2059]',-10.159,-0.391,1.954,-0.391,-80.098,90.647,-19.536,-0.391,-17.582,14.066,-4.689,-22.271,49.621,-0.391,-30.476,-49.621,-31.648,30.867,-1.172,8.205,89.084,0.000,-30.476
'[05:22:15.410 14/03/2059]',-12.894,12.894,1.954,-5.470,-85.958,102.369,-19.536,-0.391,-24.225,18.755,4.689,-28.523,52.357,0.391,-25.006,-56.654,-26.178,35.165,-1.172,18.755,85.958,-16.020,-25.006
'[05:22:15.414 14/03/2059]',-14.457,27.350,1.563,-9.768,-90.647,114.090,-21.490,2.735,-30.476,22.662,11.722,-30.085,55.482,0.781,-23.834,-58.608,-19.927,41.026,-0.781,14.457,84.396,-20.708,-23.834
'[05:22:15.418 14/03/2059]',-12.894,49.231,-6.642,-16.020,-89.866,124.640,-18.755,-2.344,-29.695,25.006,18.755,-37.509,60.952,3.126,-20.708,-67.204,-18.755,42.198,7.424,-10.549,77.753,-5.470,-20.708
'[05:22:15.422 14/03/2059]',-9.768,71.893,-14.457,-24.225,-88.303,133.236,-15.238,-7.033,-30.867,29.695,25.397,-42.979,69.158,3.126,-18.364,-72.283,-14.066,41.807,15.238,-15.238,70.720,-11.331,-18.364
'[05:22:15.426 14/03/2059]',-10.159,80.488,-5.470,-25.788,-88.303,140.269,-10.940,-1.954,-37.900,34.383,30.476,-35.556,69.158,5.470,-12.503,-70.330,-3.907,49.231,6.252,-14.066,71.502,-14.457,-12.503
'[05:22:15.430 14/03/2059]',-7.814,87.521,5.079,-25.788,-83.223,150.427,-3.516,-4.298,-41.416,40.635,39.463,-35.946,69.548,10.940,-9.768,-67.595,2.344,57.436,-4.298,-27.350,70.330,1.954,-9.768
'[05:22:15.434 14/03/2059]',-4.689,97.680,21.490,-28.913,-76.190,162.930,7.814,-8.596,-44.151,50.012,53.529,-36.337,73.846,14.847,0.391,-67.204,14.457,61.734,-20.708,-17.973,66.032,-1.563,0.391
'[05:22:15.438 14/03/2059]',-4.689,105.104,39.463,-28.913,-73.065,173.480,20.317,-9.377,-46.886,55.092,65.641,-30.085,76.972,17.192,10.549,-61.734,29.695,67.595,-38.681,-1.954,64.078,-14.457,10.549
'[05:22:15.441 14/03/2059]',-1.954,119.170,44.542,-25.788,-66.422,183.248,25.006,-5.861,-46.496,58.217,75.018,-24.225,77.363,18.755,17.582,-52.357,38.681,73.846,-43.761,-20.708,57.827,-0.391,17.582
'[05:22:15.445 14/03/2059]',-2.344,139.487,42.589,-25.788,-59.389,191.062,26.178,-3.907,-41.807,62.125,83.614,-23.053,78.144,23.443,27.741,-49.231,47.668,73.065,-41.807,-41.807,52.747,11.331,27.741
'[05:22:15.449 14/03/2059]',-4.298,156.288,42.198,-25.788,-56.654,194.188,30.085,-0.781,-41.807,64.469,87.912,-19.927,79.316,24.615,34.774,-49.231,61.343,68.376,-41.416,-35.946,53.529,-2.735,34.774
'[05:22:15.453 14/03/2059]',-10.549,174.261,32.821,-23.053,-55.873,195.751,37.900,-4.298,-47.277,70.330,87.521,-18.755,75.409,26.569,37.118,-47.668,73.455,67.985,-32.039,-48.840,56.654,-2.344,37.118
'[05:22:15.457 14/03/2059]',-12.503,188.327,25.006,-24.225,-52.747,199.267,41.416,-11.722,-48.059,78.535,89.084,-25.006,74.628,30.085,45.714,-56.654,83.223,66.032,-24.225,-72.283,60.952,12.894,45.714
'[05:22:15.461 14/03/2059]',-12.112,188.327,32.039,-30.867,-52.747,203.956,39.463,-14.066,-51.184,89.084,89.866,-32.821,78.535,34.383,47.668,-66.813,96.508,61.734,-31.258,-53.919,62.125,7.424,47.668
'[05:22:15.465 14/03/2059]',-9.768,184.811,33.993,-35.946,-57.827,211.770,34.383,-15.238,-54.701,96.899,87.521,-35.946,80.488,35.165,46.886,-69.548,109.011,61.734,-33.211,-35.556,57.827,0.000,46.886
'[05:22:15.469 14/03/2059]',-5.470,185.201,33.211,-40.244,-58.608,222.320,33.993,-24.615,-55.092,103.541,86.740,-41.807,80.098,39.463,42.589,-69.939,116.825,65.641,-32.430,-45.324,51.575,16.801,42.589
'[05:22:15.473 14/03/2059]',-3.126,188.718,32.430,-46.496,-62.125,234.823,30.867,-32.430,-53.529,111.355,86.740,-51.184,82.051,47.668,37.509,-75.018,126.593,65.250,-31.648,-45.324,46.886,25.397,37.509
'[05:22:15.477 14/03/2059]',-7.033,197.705,27.741,-49.621,-73.065,245.763,26.960,-30.085,-53.919,116.825,86.740,-53.919,84.396,51.575,28.913,-70.330,137.924,67.985,-26.960,-36.728,43.370,15.629,28.913
'[05:22:15.480 14/03/2059]',-8.205,210.208,21.099,-46.105,-76.190,252.796,26.960,-26.178,-55.092,122.295,87.131,-45.714,84.005,57.827,26.960,-61.343,147.302,75.018,-20.317,-49.231,44.933,19.145,26.960
'[05:22:15.484 14/03/2059]',-3.907,218.022,21.490,-48.449,-74.237,259.829,32.430,-30.085,-53.138,128.938,89.866,-48.840,86.740,66.813,24.225,-63.297,151.990,75.409,-20.708,-61.734,46.886,29.695,24.225
'[05:22:15.488 14/03/2059]',0.000,219.976,29.695,-48.449,-76.972,267.253,40.244,-30.085,-53.919,136.361,91.429,-44.933,89.475,71.502,24.615,-58.217,159.414,77.363,-28.913,-50.403,43.761,23.053,24.615
'[05:22:15.492 14/03/2059]',3.126,219.585,33.993,-41.416,-76.190,268.425,42.979,-19.145,-55.092,140.659,89.084,-33.993,89.084,71.893,24.615,-46.886,164.884,86.349,-33.211,-53.529,43.761,22.662,24.615
'[05:22:15.496 14/03/2059]',6.252,223.101,34.383,-35.165,-74.237,267.253,48.449,-12.503,-54.310,147.302,84.005,-32.821,88.694,73.065,23.834,-42.589,166.838,91.429,-33.602,-72.674,45.324,35.165,23.834
'[05:22:15.500 14/03/2059]',5.861,228.181,36.337,-30.867,-76.190,265.690,57.045,-6.252,-51.575,153.944,82.051,-32.821,92.601,70.720,25.006,-38.681,173.089,91.038,-35.556,-64.078,44.542,23.053,25.006
'[05:22:15.504 14/03/2059]',4.298,235.604,30.085,-20.708,-75.800,258.266,64.860,3.126,-50.403,155.507,75.409,-24.225,95.726,64.078,18.755,-23.834,176.996,92.601,-29.304,-57.827,45.324,5.079,18.755
'[05:22:15.508 14/03/2059]',6.252,238.339,18.755,-9.377,-69.158,249.280,64.469,10.549,-46.496,153.944,66.422,-19.145,92.210,62.125,14.457,-15.629,175.824,91.038,-17.973,-78.926,48.840,14.457,14.457
'[05:22:15.512 14/03/2059]',7.424,226.618,23.443,-5.861,-64.469,242.247,60.171,14.847,-42.589,151.209,60.952,-21.880,90.647,60.952,10.549,-15.629,175.043,81.270,-22.662,-73.846,48.840,17.582,10.549
'[05:22:15.516 14/03/2059]',6.252,206.691,32.039,-1.563,-62.906,235.214,55.873,16.020,-39.072,143.394,55.873,-12.503,87.131,54.701,12.112,-7.814,175.824,73.065,-31.258,-46.105,45.714,-1.172,12.112
'[05:22:15.520 14/03/2059]',5.470,188.327,33.211,1.954,-58.999,225.836,52.747,11.331,-35.946,134.408,45.324,-5.861,77.363,50.794,8.987,-1.172,175.824,69.158,-32.430,-43.761,44.542,-2.344,8.987
'[05:22:15.523 14/03/2059]',7.424,172.698,34.774,0.781,-54.701,220.366,49.621,2.735,-33.602,129.328,35.946,-7.033,68.767,49.231,7.033,-1.954,173.089,59.780,-33.993,-48.449,40.244,8.205,7.033
'[05:22:15.527 14/03/2059]',11.722,160.195,36.728,-2.735,-51.184,218.022,38.681,1.563,-28.913,123.468,28.132,-3.516,67.204,44.933,2.735,1.172,171.136,46.496,-35.946,-30.476,34.383,-3.907,2.735
'[05:22:15.531 14/03/2059]',16.801,155.116,28.132,-2.735,-47.277,212.943,26.960,6.252,-28.132,118.388,12.894,1.172,63.297,40.635,-10.159,9.377,167.228,37.118,-27.350,-22.662,28.132,-13.284,-10.159
'[05:22:15.535 14/03/2059]',23.053,154.335,17.582,-4.298,-41.416,208.254,26.960,-1.954,-25.788,116.044,1.954,4.298,59.780,41.807,-11.331,5.861,160.195,26.569,-16.801,-39.072,22.271,3.907,-11.331
'[05:22:15.539 14/03/2059]',29.695,153.553,8.987,-11.331,-38.291,204.347,30.085,-13.284,-23.053,112.137,-6.642,5.470,60.562,39.853,-22.662,8.205,152.381,15.238,-8.205,-39.853,16.020,5.861,-22.662
'[05:22:15.543 14/03/2059]',31.258,155.507,-5.470,-12.894,-40.635,197.705,21.490,-9.768,-22.271,106.667,-15.629,13.675,58.217,35.556,-23.053,9.768,148.474,11.331,6.252,-30.085,9.768,-10.159,-23.053
'[05:22:15.547 14/03/2059]',32.039,156.679,-25.006,-10.940,-44.151,192.234,14.066,-9.377,-19.536,100.806,-23.834,22.662,53.919,32.039,-22.271,14.847,144.957,9.768,25.788,-42.198,6.252,-8.596,-22.271
'[05:22:15.551 14/03/2059]',38.291,144.176,-26.960,-16.410,-45.714,194.969,10.549,-20.317,-14.457,97.680,-29.304,20.708,54.701,28.523,-27.350,16.410,141.832,1.563,27.741,-35.556,0.391,-7.033,-27.350
'[05:22:15.555 14/03/2059]',43.370,131.282,-22.662,-19.145,-48.449,202.784,7.424,-28.523,-9.768,95.726,-32.039,20.708,58.608,20.708,-27.741,20.708,143.394,-2.344,23.443,-10.159,-5.079,-25.006,-27.741
'[05:22:15.559 14/03/2059]',43.761,125.031,-22.271,-15.629,-52.747,209.817,4.298,-29.304,-7.424,94.554,-36.728,27.741,57.827,12.503,-24.615,29.695,144.176,1.563,23.053,-12.894,-8.987,-21.490,-24.615
'[05:22:15.563 14/03/2059]',48.059,118.388,-16.410,-14.457,-53.919,219.585,4.689,-33.211,-7.033,95.336,-40.244,28.132,55.482,10.159,-25.788,33.602,143.004,5.079,17.192,-21.880,-13.284,-7.424,-25.788
'[05:22:15.566 14/03/2059]',51.184,117.216,-10.549,-16.410,-57.436,226.618,12.112,-38.681,-5.470,95.336,-38.291,26.178,61.734,3.907,-23.443,33.602,143.785,9.768,11.331,-4.298,-19.927,-22.662,-23.443
'[05:22:15.570 14/03/2059]',51.184,121.123,-13.284,-8.987,-62.515,229.353,22.271,-37.900,-10.159,94.554,-32.430,40.635,62.515,-1.172,-8.596,39.072,144.957,24.615,14.066,-1.954,-25.006,-33.993,-8.596
'[05:22:15.574 14/03/2059]',53.138,124.249,-17.192,-1.954,-66.032,230.525,31.258,-36.337,-14.847,93.382,-22.662,47.668,60.171,-1.563,-0.391,44.933,141.441,40.635,17.973,-22.662,-26.569,-20.708,-0.391
'[05:22:15.578 14/03/2059]',57.436,128.547,-17.192,0.000,-69.158,234.042,37.118,-31.648,-17.192,93.382,-5.079,50.794,65.250,-2.344,12.503,45.324,136.752,55.092,17.973,-24.225,-33.211,-21.880,12.503
'[05:22:15.582 14/03/2059]',58.608,141.050,-26.178,7.814,-73.455,232.088,43.761,-20.317,-26.178,91.819,12.112,63.687,65.641,-3.907,28.132,50.794,134.408,73.846,26.960,-20.708,-37.118,-37.900,28.132
'[05:22:15.586 14/03/2059]',58.999,139.096,-25.788,18.364,-76.190,225.055,51.575,-8.205,-33.211,89.475,22.662,73.455,58.999,0.391,36.337,55.873,127.375,92.601,26.569,-30.476,-37.900,-28.523,36.337
'[05:22:15.590 14/03/2059]',61.734,126.203,-14.457,24.615,-75.018,216.850,60.952,-2.735,-35.165,86.740,32.821,75.409,57.436,2.344,42.979,54.701,117.607,101.978,15.238,-27.741,-39.853,-19.536,42.979
'[05:22:15.594 14/03/2059]',62.515,117.216,-10.940,29.304,-73.846,202.784,63.687,6.252,-37.900,84.005,39.072,80.098,57.436,1.954,49.621,53.919,111.746,104.322,11.722,-5.861,-42.589,-33.993,49.621
'[05:22:15.598 14/03/2059]',61.343,105.104,-10.159,37.118,-71.111,185.592,56.654,23.443,-38.681,77.363,39.853,87.521,53.138,1.563,53.529,55.873,104.322,102.369,10.940,2.735,-39.463,-39.853,53.529
'[05:22:15.602 14/03/2059]',58.999,92.210,-10.549,40.635,-66.813,167.228,58.217,23.834,-36.728,69.548,40.244,86.740,50.012,-0.781,54.701,55.873,94.164,93.773,11.331,-0.391,-37.900,-30.085,54.701
'[05:22:15.605 14/03/2059]',54.310,84.396,-16.410,40.635,-64.078,148.083,48.840,32.039,-33.211,61.734,42.198,81.661,46.886,-1.172,54.701,50.012,83.223,79.316,17.192,9.377,-39.853,-31.648,54.701
'[05:22:15.609 14/03/2059]',46.496,75.409,-25.397,46.886,-63.297,125.031,30.867,53.138,-35.556,51.184,38.291,84.005,39.072,-2.735,52.747,47.668,75.409,70.330,26.178,19.145,-32.039,-41.807,52.747
'[05:22:15.613 14/03/2059]',41.026,64.860,-32.821,51.966,-61.734,104.713,17.582,65.641,-35.165,41.026,31.258,82.833,28.523,-4.689,47.668,47.277,61.734,62.906,33.602,12.894,-29.695,-33.993,47.668
'[05:22:15.617 14/03/2059]',39.072,60.952,-36.337,46.886,-54.701,89.866,11.331,64.860,-34.774,36.728,28.523,73.455,22.271,-4.689,44.542,40.635,51.184,51.575,37.118,17.973,-33.602,-30.867,44.542
'[05:22:15.621 14/03/2059]',35.556,66.422,-45.324,43.370,-48.449,77.753,7.033,64.860,-35.946,34.383,23.834,67.595,17.582,-5.470,41.807,35.556,46.105,45.324,46.105,24.615,-33.602,-42.198,41.807
'[05:22:15.625 14/03/2059]',30.085,60.952,-42.198,41.026,-44.151,67.595,2.344,64.078,-37.509,30.867,17.973,64.078,8.987,-7.033,39.463,33.993,37.118,46.496,42.979,13.675,-29.304,-30.867,39.463
'[05:22:15.629 14/03/2059]',25.397,53.138,-31.648,35.556,-37.900,61.343,-1.563,62.125,-38.291,30.085,15.629,57.045,4.689,-6.252,36.337,30.085,28.913,42.979,32.430,9.768,-26.960,-16.410,36.337
'[05:22:15.633 14/03/2059]',22.662,49.231,-23.834,30.085,-32.039,55.092,-5.079,61.734,-37.509,27.741,14.847,51.575,4.689,-7.424,36.337,23.443,23.443,39.072,24.615,26.178,-19.927,-32.039,36.337
'[05:22:15.637 14/03/2059]',17.582,39.463,-16.801,32.039,-28.523,48.059,-3.907,57.436,-37.118,22.662,9.377,54.701,1.954,-11.331,34.774,23.443,18.364,40.635,17.582,35.165,-12.112,-40.244,34.774
'[05:22:15.641 14/03/2059]',16.801,33.602,-10.940,29.304,-19.927,46.105,-4.689,49.231,-32.821,19.145,4.689,50.794,-0.781,-10.549,29.695,23.443,9.768,40.635,11.722,21.880,-8.205,-25.006,29.695
'[05:22:15.645 14/03/2059]',13.675,38.291,-10.549,21.490,-13.675,46.886,-10.159,42.589,-26.569,17.973,3.516,39.463,0.000,-8.596,26.960,16.801,7.033,35.556,11.331,19.536,-6.642,-25.006,26.960
'[05:22:15.648 14/03/2059]',6.642,43.370,-9.768,17.973,-11.722,47.668,-14.847,39.072,-21.490,18.364,-0.391,37.900,-0.781,-9.768,28.523,15.629,8.205,33.993,10.549,20.317,-3.516,-34.383,28.523
'[05:22:15.652 14/03/2059]',0.391,43.761,-8.205,16.801,-8.596,45.714,-10.940,27.741,-17.582,17.973,-7.033,34.774,-6.252,-10.159,24.225,20.317,7.424,32.430,8.987,4.298,-3.126,-21.880,24.225
'[05:22:15.656 14/03/2059]',-2.735,50.403,-12.894,12.503,-3.516,42.979,-7.814,16.410,-12.894,20.708,-10.940,28.132,-8.205,-10.159,22.271,20.317,8.205,25.006,13.675,-11.331,-3.516,-14.457,22.271
'[05:22:15.660 14/03/2059]',-7.814,47.277,-5.861,10.549,-0.781,38.681,-6.642,13.675,-8.205,21.880,-18.755,26.178,-7.814,-14.457,22.271,21.880,11.722,18.364,6.642,1.563,-0.781,-30.867,22.271
'[05:22:15.664 14/03/2059]',-13.284,33.602,5.861,12.894,1.563,31.258,-2.735,9.377,-3.907,20.708,-28.523,26.960,-10.940,-16.410,15.629,26.569,13.675,12.894,-5.079,14.847,2.344,-36.728,15.629
'[05:22:15.668 14/03/2059]',-15.238,27.350,13.284,10.159,7.424,27.741,1.563,0.000,2.735,22.271,-35.556,21.099,-11.722,-15.238,12.112,25.788,10.940,6.252,-12.503,0.781,3.907,-18.755,12.112
'[05:22:15.672 14/03/2059]',-16.020,21.099,26.569,7.424,14.066,26.569,7.424,-8.596,12.503,26.569,-38.681,16.410,-9.377,-14.066,17.192,24.225,10.940,0.781,-25.788,8.205,3.516,-19.145,17.192
'[05:22:15.676 14/03/2059]',-19.145,14.847,34.774,14.457,16.020,23.834,8.596,-3.126,17.582,30.085,-43.761,23.053,-14.066,-10.159,21.099,31.258,12.112,2.344,-33.993,12.894,1.172,-19.927,21.099
'[05:22:15.680 14/03/2059]',-19.927,18.364,33.211,17.973,20.317,23.053,8.596,-1.563,22.662,33.993,-46.496,19.536,-17.582,-10.159,21.490,36.728,11.331,3.126,-32.430,-10.549,0.000,-4.689,21.490
'[05:22:15.684 14/03/2059]',-18.755,25.788,33.993,17.582,23.053,26.178,15.629,-6.642,28.523,41.026,-45.714,16.410,-15.238,-2.344,23.443,35.556,12.503,1.172,-33.211,-8.987,1.172,-8.205,23.443
'[05:22:15.688 14/03/2059]',-20.708,32.821,34.774,19.927,22.662,28.913,22.271,-5.861,29.695,44.933,-46.105,17.582,-14.066,0.781,23.443,36.337,16.020,3.126,-33.993,1.172,3.126,-21.099,23.443
'[05:22:15.691 14/03/2059]',-23.834,45.714,25.397,21.099,22.271,31.258,21.880,-6.642,30.476,45.324,-46.496,10.159,-14.847,4.689,21.099,28.523,15.238,7.424,-24.615,-22.662,7.814,-6.642,21.099
'[05:22:15.695 14/03/2059]',-22.271,49.621,31.258,18.755,26.569,39.072,19.145,-7.033,34.774,50.794,-42.589,15.238,-10.940,13.284,28.523,27.350,16.410,7.814,-30.476,-29.304,12.503,7.424,28.523
'[05:22:15.699 14/03/2059]',-21.099,45.714,39.853,16.020,26.960,45.324,16.410,-7.424,35.946,53.919,-38.291,11.331,-8.205,18.364,30.867,22.271,21.490,5.861,-39.072,-3.516,10.159,-4.298,30.867
'[05:22:15.703 14/03/2059]',-23.834,41.416,40.244,18.755,25.006,48.840,13.675,-10.549,33.211,56.264,-38.291,13.675,-10.940,20.708,36.337,19.145,28.132,4.689,-39.463,1.563,7.424,-0.391,36.337
'[05:22:15.707 14/03/2059]',-23.834,34.774,42.589,19.145,26.569,51.575,11.722,-16.801,34.774,58.999,-39.853,14.066,-9.768,24.615,32.430,19.927,31.648,-1.172,-41.807,-6.252,13.675,15.629,32.430
'[05:22:15.711 14/03/2059]',-25.006,30.867,43.370,15.238,25.006,52.357,4.298,-16.020,37.118,58.999,-42.198,8.205,-5.470,27.741,29.695,10.549,34.774,-14.066,-42.589,9.768,13.284,11.331,29.695
'[05:22:15.715 14/03/2059]',-26.178,32.430,32.821,16.801,19.145,48.059,-5.079,-5.861,37.118,55.092,-46.496,9.377,-3.907,27.741,27.741,3.516,35.556,-21.880,-32.039,15.238,14.457,5.079,27.741
'[05:22:15.719 14/03/2059]',-25.788,38.291,22.271,17.192,18.364,43.761,-6.642,-2.344,37.509,50.403,-48.840,12.112,-2.344,27.350,23.053,3.126,34.774,-26.178,-21.490,-6.642,21.880,17.582,23.053
'[05:22:15.723 14/03/2059]',-20.317,39.072,15.629,13.675,16.410,40.244,-7.424,0.391,37.900,47.277,-48.059,9.377,0.781,30.085,17.973,-1.954,33.993,-31.648,-14.847,-8.987,20.317,23.053,17.973
'[05:22:15.727 14/03/2059]',-17.973,45.714,0.781,14.457,9.768,33.211,-16.410,15.629,29.695,43.370,-42.979,10.549,1.954,28.913,17.582,-6.642,35.946,-32.430,0.000,-5.079,16.020,11.331,17.582
'[05:22:15.730 14/03/2059]',-17.973,38.681,0.000,20.317,8.205,24.225,-17.192,25.006,24.615,35.946,-41.807,21.490,1.954,27.350,10.940,-0.391,38.681,-31.258,0.781,-3.126,18.364,11.722,10.940
'[05:22:15.734 14/03/2059]',-16.020,24.615,6.642,18.755,8.596,13.675,-10.159,21.490,25.397,28.523,-39.072,22.271,3.907,29.304,6.252,-1.954,35.556,-37.900,-5.861,-0.781,17.582,24.225,6.252
'[05:22:15.738 14/03/2059]',-16.801,14.847,11.722,19.536,9.377,1.563,-5.079,23.443,29.304,20.317,-35.556,27.350,7.424,29.695,10.159,-5.861,31.258,-43.370,-10.940,17.192,12.112,19.536,10.159
'[05:22:15.742 14/03/2059]',-21.099,4.298,10.549,26.960,8.596,-14.066,-7.424,33.993,30.085,8.205,-37.509,41.026,3.516,27.350,9.377,0.391,24.615,-43.761,-9.768,19.927,13.284,21.880,9.377
'[05:22:15.746 14/03/2059]',-20.317,1.172,1.563,27.741,11.331,-27.741,-14.457,41.807,29.695,0.391,-38.291,41.026,0.781,29.304,5.079,-2.735,16.410,-46.105,-0.781,3.126,16.410,37.900,5.079
'[05:22:15.750 14/03/2059]',-17.582,1.563,-7.814,22.271,12.112,-35.946,-19.927,41.416,24.615,-5.470,-35.165,35.946,-0.781,31.258,1.954,-12.894,12.112,-55.482,8.596,14.066,9.377,30.867,1.954
'[05:22:15.754 14/03/2059]',-17.192,-1.563,-13.284,18.364,12.112,-41.026,-27.741,41.807,16.020,-14.457,-32.039,35.556,-4.689,32.821,-4.298,-17.192,10.940,-59.780,14.066,28.913,5.861,19.536,-4.298
'[05:22:15.758 14/03/2059]',-12.503,-3.907,-18.364,14.847,15.629,-41.416,-34.383,37.900,8.987,-23.053,-27.741,33.602,-11.331,34.774,-8.596,-21.099,6.252,-60.952,19.145,13.284,3.126,32.821,-8.596
'[05:22:15.762 14/03/2059]',-7.424,-0.391,-23.053,6.642,19.145,-39.072,-38.681,33.211,8.205,-28.523,-21.490,33.211,-13.675,37.900,-5.470,-25.788,2.344,-64.078,23.834,5.079,-3.907,40.635,-5.470
'[05:22:15.766 14/03/2059]',-4.689,1.954,-27.350,3.907,19.536,-39.853,-36.337,30.476,2.344,-35.165,-14.457,37.509,-15.238,35.165,-3.126,-25.006,-0.781,-62.515,28.132,16.801,-12.112,24.615,-3.126
'[05:22:15.770 14/03/2059]',-3.126,14.066,-41.416,7.424,17.582,-42.979,-28.523,30.867,-5.861,-41.026,-7.033,45.714,-21.880,32.821,0.000,-18.755,-5.079,-53.138,42.198,-1.563,-15.238,24.225,0.000
'[05:22:15.773 14/03/2059]',-1.954,21.490,-50.012,5.079,13.675,-44.933,-19.927,25.788,-15.629,-43.761,3.516,41.416,-25.006,32.821,-0.391,-20.708,-10.940,-46.105,50.794,-23.443,-17.192,35.556,-0.391
'[05:22:15.777 14/03/2059]',-2.735,12.894,-39.463,0.000,3.516,-42.979,-14.066,23.834,-28.132,-45.324,16.801,35.165,-26.960,30.867,-0.391,-24.225,-13.284,-40.244,40.244,-0.781,-23.834,22.662,-0.391
'[05:22:15.781 14/03/2059]',-2.735,1.563,-27.741,-0.781,-6.642,-37.900,-12.503,26.569,-41.807,-46.105,26.569,35.946,-29.695,28.913,0.000,-24.225,-11.722,-29.304,28.523,15.629,-26.178,12.894,0.000
'[05:22:15.785 14/03/2059]',-2.735,-3.126,-20.317,-4.298,-16.020,-29.304,-3.516,16.801,-52.747,-44.151,32.821,34.774,-29.695,30.476,-3.907,-24.615,-10.940,-17.973,21.099,3.907,-22.662,26.960,-3.907
'[05:22:15.789 14/03/2059]',-4.298,0.391,-18.755,-9.768,-25.006,-18.755,9.377,1.172,-62.125,-37.509,38.681,29.695,-23.834,31.648,-7.424,-29.695,-8.987,-9.377,19.536,-1.172,-21.880,33.211,-7.424
'[05:22:15.793 14/03/2059]',-8.596,12.503,-21.490,-7.424,-32.039,-11.331,10.940,6.252,-71.502,-32.430,41.807,37.900,-19.536,32.039,-6.252,-28.913,-1.172,-1.954,22.271,7.424,-17.973,17.192,-6.252
'[05:22:15.797 14/03/2059]',-19.536,33.211,-32.430,-4.298,-43.370,-6.252,17.582,7.814,-80.488,-26.178,41.416,40.244,-17.973,36.337,-14.066,-27.741,5.470,8.205,33.211,-14.457,-5.079,22.662,-14.066
'[05:22:15.801 14/03/2059]',-28.523,51.184,-35.556,-7.033,-48.059,-1.563,31.648,-2.735,-83.223,-17.192,48.059,29.695,-12.894,41.026,-14.066,-34.774,9.768,8.987,36.337,-27.350,0.781,30.085,-14.066
'[05:22:15.805 14/03/2059]',-33.602,52.357,-20.317,-6.252,-50.012,1.172,43.370,-3.907,-83.223,-10.159,55.482,27.741,-8.205,46.496,-11.331,-35.946,19.145,10.549,21.099,-3.516,4.298,15.629,-11.331
'[05:22:15.809 14/03/2059]',-38.681,54.701,-10.549,-3.126,-53.138,3.516,48.840,0.781,-83.614,-2.735,58.999,27.350,-8.596,52.357,-9.768,-32.821,28.523,18.755,11.331,-8.205,9.377,22.662,-9.768
'[05:22:15.813 14/03/2059]',-41.416,60.562,-1.954,-2.344,-51.966,8.987,53.138,3.126,-81.661,6.252,66.422,23.443,-4.689,60.171,-5.079,-33.602,37.118,24.225,2.735,-22.662,13.675,37.900,-5.079
'[05:22:15.816 14/03/2059]',-39.072,63.297,8.987,-3.907,-50.403,16.801,53.919,7.424,-76.972,14.457,75.800,30.476,3.126,65.250,10.549,-34.383,50.794,25.006,-8.205,-1.954,9.377,26.178,10.549
'[05:22:15.820 14/03/2059]',-42.198,70.720,7.424,-2.344,-53.138,19.536,54.310,11.722,-75.409,21.099,76.972,37.509,7.814,66.422,16.801,-29.304,64.469,27.741,-6.642,5.470,8.596,15.629,16.801
'[05:22:15.824 14/03/2059]',-43.761,82.833,-1.954,-1.954,-54.310,24.225,53.138,9.768,-71.111,26.178,76.190,37.509,11.331,67.985,20.317,-30.085,73.065,28.132,2.735,-20.317,11.722,32.039,20.317
'[05:22:15.828 14/03/2059]',-36.337,90.256,-7.814,-9.768,-51.575,32.039,46.496,7.033,-64.860,29.304,77.753,30.476,18.364,65.250,24.225,-33.993,79.707,21.880,8.596,-24.225,8.987,30.867,24.225
'[05:22:15.832 14/03/2059]',-30.085,97.680,-18.364,-10.159,-51.184,36.728,42.589,8.205,-62.906,29.695,76.972,31.258,23.053,59.780,24.225,-32.039,87.521,19.536,19.145,-18.755,7.033,14.457,24.225
'[05:22:15.836 14/03/2059]',-23.834,99.634,-27.741,-8.205,-50.794,39.463,41.026,7.424,-62.515,25.788,73.455,33.993,22.271,53.919,23.053,-28.132,90.647,21.490,28.523,-35.946,9.377,19.536,23.053
'[05:22:15.840 14/03/2059]',-15.629,84.005,-20.708,-7.033,-48.840,42.979,38.291,5.861,-60.171,21.490,73.455,39.463,23.834,47.668,28.132,-25.397,87.521,21.880,21.490,-37.118,11.722,25.006,28.132
'[05:22:15.844 14/03/2059]',-8.596,69.939,-15.238,-3.516,-47.277,41.026,28.523,17.192,-59.389,15.629,72.674,50.794,26.960,37.118,35.946,-19.927,86.349,19.536,16.020,-12.503,9.377,5.470,35.946
'[05:22:15.848 14/03/2059]',-8.987,54.310,-12.894,3.907,-50.794,34.383,18.755,32.821,-60.952,8.205,67.595,64.860,23.834,27.350,41.416,-12.503,81.270,21.880,13.675,-1.563,10.549,-3.907,41.416
'[05:22:15.852 14/03/2059]',-9.768,39.463,-8.596,7.814,-53.919,27.741,20.708,32.430,-60.171,1.563,65.641,67.204,21.099,21.099,41.026,-8.987,70.330,22.271,9.377,-5.470,14.066,3.126,41.026
'[05:22:15.855 14/03/2059]',-8.596,37.509,-9.377,7.424,-53.529,22.662,20.317,35.556,-58.217,-1.172,67.204,63.297,19.927,15.629,45.714,-10.549,62.125,19.536,10.159,0.781,8.205,-0.391,45.714
'[05:22:15.859 14/03/2059]',-17.582,38.291,-15.238,14.457,-63.687,13.284,22.662,45.714,-63.297,-5.470,68.767,71.111,13.284,15.238,48.059,-5.861,56.264,26.960,16.020,3.516,10.159,-8.205,48.059
'[05:22:15.863 14/03/2059]',-25.397,38.291,-17.192,19.927,-70.720,7.033,23.053,54.701,-69.158,-8.205,71.111,71.111,5.470,15.238,43.761,-1.172,46.886,35.165,17.973,-10.549,14.847,1.563,43.761
'[05:22:15.867 14/03/2059]',-25.006,46.105,-17.582,18.755,-70.720,6.252,30.867,53.919,-72.283,-7.814,78.926,69.548,4.298,15.238,46.886,0.391,39.853,37.509,18.364,-14.066,11.722,1.563,46.886
'[05:22:15.871 14/03/2059]',-24.615,50.794,-16.801,22.271,-69.939,4.298,38.291,57.045,-75.800,-6.642,83.614,73.846,3.907,14.847,47.668,6.252,36.337,43.370,17.582,-8.596,12.503,-12.503,47.668
'[05:22:15.875 14/03/2059]',-25.006,39.463,-5.470,29.695,-66.813,1.954,34.774,66.813,-78.535,-5.470,82.833,75.018,0.391,11.722,45.324,15.238,31.648,51.184,6.252,-16.801,17.192,-6.642,45.324
'[05:22:15.879 14/03/2059]',-23.443,29.304,3.516,32.821,-59.780,2.344,29.695,68.376,-74.628,-1.563,81.270,72.674,-0.781,9.768,47.668,19.536,26.569,50.012,-2.735,-21.490,14.457,5.079,47.668
'[05:22:15.883 14/03/2059]',-22.662,23.834,8.596,33.602,-52.357,2.735,25.397,67.595,-71.502,1.563,78.144,67.595,-1.954,5.079,51.575,20.708,27.350,46.496,-7.814,-5.861,10.940,-11.331,51.575
'[05:22:15.887 14/03/2059]',-25.006,18.364,11.331,37.900,-48.840,1.563,26.178,62.125,-68.767,3.907,72.283,66.422,-6.252,1.563,53.919,25.006,27.350,47.668,-10.549,-0.391,11.331,-18.755,53.919
'[05:22:15.891 14/03/2059]',-26.569,17.192,16.020,36.728,-43.761,5.861,30.476,50.403,-63.297,5.079,68.376,58.608,-10.549,1.172,53.529,25.006,23.834,49.231,-15.238,-17.192,10.940,-2.344,53.529
'[05:22:15.895 14/03/2059]',-23.053,21.490,22.271,30.476,-35.946,12.112,34.383,40.635,-54.701,8.205,66.813,49.621,-9.768,3.126,53.529,23.053,22.271,48.840,-21.490,-18.755,9.768,-3.126,53.529
'[05:22:15.898 14/03/2059]',-20.317,23.443,29.304,29.304,-32.430,14.847,39.853,37.900,-47.668,10.940,63.687,45.714,-8.596,7.814,49.621,25.006,23.053,52.357,-28.523,-14.847,11.331,-10.159,49.621
'[05:22:15.902 14/03/2059]',-19.145,23.053,35.556,31.258,-26.960,17.192,50.794,28.913,-38.681,13.675,57.827,44.151,-10.159,11.722,45.714,29.304,20.708,57.045,-34.774,-30.867,12.503,4.298,45.714
'[05:22:15.906 14/03/2059]',-16.410,28.132,35.556,30.085,-22.271,19.927,56.264,22.662,-29.304,17.973,53.919,37.509,-10.549,16.410,44.151,29.304,18.364,55.482,-34.774,-45.714,10.549,16.020,44.151
'[05:22:15.910 14/03/2059]',-14.066,34.383,30.476,29.695,-21.490,20.317,58.608,22.662,-23.834,16.410,48.840,34.383,-13.675,17.192,46.105,26.178,17.973,51.575,-29.695,-42.589,9.768,2.344,46.105
'[05:22:15.914 14/03/2059]',-11.722,25.397,40.635,30.867,-19.145,20.317,60.562,23.053,-17.192,10.159,44.933,33.993,-17.192,15.629,48.059,25.006,16.020,51.575,-39.853,-32.821,9.377,-2.344,48.059
'[05:22:15.918 14/03/2059]',-8.205,15.238,48.840,29.304,-14.457,21.490,64.469,13.675,-12.894,4.689,41.026,26.569,-21.880,14.847,46.496,18.755,9.377,48.840,-48.059,-44.933,10.549,15.238,46.496
'[05:22:15.922 14/03/2059]',-2.735,9.768,54.701,21.880,-9.377,21.880,69.158,1.954,-5.861,-0.391,41.026,12.894,-22.662,13.284,46.496,10.549,5.861,43.370,-53.919,-37.118,7.033,12.894,46.496
'[05:22:15.926 14/03/2059]',-1.954,3.516,60.171,21.099,-7.814,20.708,67.595,1.563,-4.298,-4.298,37.118,8.987,-25.006,9.768,41.807,10.159,3.907,46.496,-59.389,-33.211,10.549,9.377,41.807
'[05:22:15.930 14/03/2059]',-2.735,1.172,60.171,19.145,-5.079,21.490,62.906,-0.391,0.781,-5.470,31.648,5.079,-26.569,7.814,39.072,10.940,0.391,46.105,-59.389,-48.449,10.159,25.006,39.072
'[05:22:15.934 14/03/2059]',-1.172,4.689,57.827,9.768,-3.126,22.271,64.078,-11.722,5.079,-4.689,27.350,-1.563,-28.132,8.596,37.509,6.642,-0.781,35.556,-57.045,-42.979,3.907,22.662,37.509
'[05:22:15.938 14/03/2059]',-0.781,7.424,51.575,2.344,-1.954,19.927,60.952,-16.801,6.642,-5.079,19.927,-2.344,-28.523,8.596,36.728,1.172,-1.172,27.350,-50.794,-28.913,2.344,7.814,36.728
'[05:22:15.941 14/03/2059]',-1.172,9.768,41.026,-1.172,-1.954,17.973,53.919,-22.271,7.814,-6.252,10.159,-3.516,-30.476,7.424,30.085,0.000,-5.079,20.708,-40.244,-45.714,2.344,21.099,30.085
'[05:22:15.945 14/03/2059]',1.563,16.801,28.913,-11.331,0.781,15.238,46.105,-26.178,8.987,-5.861,4.689,-16.410,-30.476,8.596,23.053,-10.159,-8.596,9.377,-28.132,-60.562,0.391,32.039,23.053
'[05:22:15.949 14/03/2059]',5.079,26.178,16.020,-20.708,1.172,12.503,42.198,-28.523,8.596,-5.470,1.563,-26.960,-26.960,7.424,18.364,-21.490,-8.205,1.172,-15.238,-50.794,-3.516,16.020,18.364
'[05:22:15.953 14/03/2059]',7.033,21.490,16.801,-22.662,3.126,7.814,40.635,-28.523,7.424,-6.252,-1.172,-33.211,-25.788,3.516,12.503,-24.615,-7.033,-1.172,-16.020,-47.668,-3.516,14.066,12.503
'[05:22:15.957 14/03/2059]',11.722,12.503,23.443,-25.397,10.549,1.172,40.635,-30.476,9.768,-6.252,-3.126,-36.728,-26.569,6.252,10.940,-28.132,-9.768,-7.033,-22.662,-52.747,-7.814,29.304,10.940
'[05:22:15.961 14/03/2059]',16.801,8.596,25.397,-33.211,16.410,-3.907,35.556,-28.913,12.112,-5.079,-5.861,-40.635,-25.006,9.377,10.549,-35.946,-12.503,-19.145,-24.615,-36.337,-13.675,21.880,10.549
'[05:22:15.965 14/03/2059]',15.238,2.735,27.350,-36.337,19.927,-11.722,24.225,-22.271,14.066,-4.298,-15.238,-39.072,-24.615,10.549,3.516,-34.383,-16.410,-27.741,-26.569,-25.006,-8.987,12.112,3.516
'[05:22:15.969 14/03/2059]',14.457,0.000,26.569,-38.681,25.006,-20.708,25.788,-27.350,19.927,-0.781,-26.960,-36.337,-23.053,13.675,-3.516,-32.039,-24.225,-34.774,-25.788,-37.900,-3.516,25.788,-3.516
'[05:22:15.973 14/03/2059]',14.847,4.689,18.364,-45.714,29.304,-26.960,26.569,-34.383,28.132,2.344,-37.900,-43.370,-19.536,19.145,-11.331,-38.291,-31.258,-44.151,-17.582,-42.198,-4.689,32.430,-11.331
'[05:22:15.977 14/03/2059]',13.284,11.331,11.331,-49.621,33.211,-34.383,15.629,-26.569,33.993,5.861,-46.105,-49.621,-16.020,27.741,-19.145,-47.277,-37.118,-49.231,-10.549,-34.774,-1.563,27.741,-19.145
'[05:22:15.980 14/03/2059]',15.629,10.940,5.079,-46.886,38.681,-42.198,14.066,-23.834,37.118,5.079,-54.310,-43.761,-14.847,32.039,-24.225,-47.668,-43.761,-45.714,-4.298,-37.118,-2.735,34.383,-24.225
'[05:22:15.984 14/03/2059]',20.708,18.755,-5.470,-50.403,47.668,-48.449,13.284,-28.523,42.979,4.298,-55.092,-46.496,-12.894,34.383,-15.629,-59.389,-54.310,-48.840,6.252,-51.966,-1.954,41.807,-15.629
'[05:22:15.988 14/03/2059]',25.397,19.927,-10.940,-53.919,56.264,-54.310,10.940,-32.430,46.496,1.563,-55.092,-49.231,-9.377,29.695,-7.814,-67.595,-63.687,-53.138,11.722,-48.059,-0.391,30.476,-7.814
'[05:22:15.992 14/03/2059]',25.006,1.954,-6.252,-50.794,60.952,-64.078,4.298,-31.258,47.277,-5.079,-57.436,-41.807,-9.377,33.602,-17.192,-62.906,-71.502,-49.621,7.033,-41.416,2.735,37.118,-17.192
'[05:22:15.996 14/03/2059]',24.225,-14.066,0.000,-50.403,67.595,-72.283,-2.735,-32.430,50.794,-10.159,-56.264,-37.118,-12.112,42.198,-21.099,-61.343,-77.753,-50.403,0.781,-47.668,6.252,60.171,-21.099
'[05:22:16.000 14/03/2059]',21.490,-28.523,8.596,-54.310,71.893,-79.316,-7.033,-36.728,52.357,-16.020,-52.747,-44.151,-9.768,42.979,-28.132,-64.469,-80.098,-55.092,-7.814,-26.960,8.205,54.310,-28.132
'[05:22:16.004 14/03/2059]',17.582,-35.556,9.377,-53.138,73.065,-87.521,-7.033,-39.072,52.357,-23.443,-47.277,-39.853,-10.549,67.985,-55.482,-59.780,-85.177,-50.012,-8.596,-9.377,5.861,70.330,-55.482
'[05:22:16.008 14/03/2059]',12.112,-33.602,3.907,-54.310,73.455,-94.945,-7.424,-42.198,49.231,-31.258,-39.463,-45.714,-14.847,43.370,-31.258,-64.469,-93.773,-43.761,-3.126,-30.867,11.722,61.734,-31.258
'[05:22:16.012 14/03/2059]',8.987,-32.039,1.954,-58.999,72.674,-100.415,-4.689,-46.496,45.324,-35.946,-27.741,-57.436,-17.582,15.629,-4.298,-70.720,-103.932,-40.244,-1.172,-41.416,16.410,39.072,-4.298
'[05:22:16.016 14/03/2059]',7.424,-27.350,-5.861,-59.780,69.548,-106.276,2.735,-51.184,39.072,-41.026,-14.457,-63.687,-17.582,7.424,2.344,-72.283,-112.918,-29.695,6.642,-35.165,17.582,18.755,2.344
'[05:22:16.020 14/03/2059]',1.563,-35.556,-2.344,-58.217,61.734,-110.574,11.722,-58.217,29.695,-47.277,-1.563,-64.860,-23.053,-3.516,16.410,-75.018,-117.607,-14.847,3.126,-38.681,23.053,12.894,16.410
'[05:22:16.023 14/03/2059]',-1.172,-51.966,11.331,-56.264,55.092,-110.183,18.755,-62.125,22.271,-49.621,9.377,-60.562,-27.350,-1.172,21.099,-69.939,-121.514,-2.735,-10.549,-38.291,24.225,24.615,21.099
'[05:22:16.027 14/03/2059]',-2.344,-66.422,19.927,-55.482,48.449,-108.620,17.973,-62.906,15.629,-54.310,20.708,-58.608,-26.960,4.298,11.331,-65.250,-122.686,5.470,-19.145,-16.801,17.973,22.662,11.331
'[05:22:16.031 14/03/2059]',-4.298,-80.098,28.132,-51.184,42.198,-107.448,14.847,-57.827,6.642,-60.562,26.569,-45.324,-30.476,1.563,12.894,-55.482,-122.686,17.192,-27.350,-2.344,13.284,14.847,12.894
'[05:22:16.035 14/03/2059]',-4.298,-86.349,27.350,-48.840,38.681,-104.713,14.457,-61.734,0.000,-66.813,29.304,-37.900,-36.337,-8.987,17.192,-46.105,-125.812,24.615,-26.569,-17.582,8.205,18.364,17.192
'[05:22:16.039 14/03/2059]',-1.563,-83.614,18.364,-49.231,40.244,-103.541,18.755,-73.065,-6.252,-75.800,33.602,-33.602,-40.635,-18.364,13.675,-37.509,-128.938,25.397,-17.582,-33.211,2.735,16.410,13.675
'[05:22:16.043 14/03/2059]',0.781,-82.442,6.642,-50.403,38.681,-106.276,12.112,-70.720,-14.457,-83.223,32.430,-27.741,-45.714,-28.132,9.768,-29.695,-128.938,27.741,-5.861,-21.490,-5.470,-8.596,9.768
'[05:22:16.047 14/03/2059]',-0.391,-82.833,-6.642,-50.794,36.728,-114.481,6.252,-71.111,-21.099,-91.038,26.569,-21.099,-53.919,-39.463,8.205,-21.490,-129.328,30.085,7.424,-35.556,-9.377,-12.894,8.205
'[05:22:16.051 14/03/2059]',1.172,-97.289,-5.079,-54.701,37.900,-119.951,5.079,-79.707,-26.569,-94.554,25.006,-23.834,-60.562,-49.231,8.596,-19.145,-130.891,23.443,5.861,-31.258,-17.582,-14.847,8.596
'[05:22:16.055 14/03/2059]',4.689,-122.295,3.907,-54.310,37.509,-127.375,1.563,-79.707,-34.383,-94.945,23.834,-21.099,-62.906,-59.389,10.159,-14.066,-129.328,20.708,-3.126,1.172,-26.178,-35.556,10.159
'[05:22:16.059 14/03/2059]',0.391,-139.096,5.470,-44.542,34.383,-137.534,-6.252,-69.548,-45.714,-95.726,21.880,-13.675,-69.939,-66.422,8.205,-4.298,-129.328,25.397,-4.689,1.563,-25.788,-33.211,8.205
'[05:22:16.063 14/03/2059]',-3.126,-150.427,5.861,-37.118,32.821,-141.441,-14.847,-61.734,-55.482,-94.554,27.350,-12.894,-73.846,-67.985,5.079,0.000,-130.891,25.397,-5.079,-8.596,-25.006,-17.973,5.079
'[05:22:16.066 14/03/2059]',-3.126,-156.288,4.689,-32.430,32.039,-145.348,-18.755,-56.654,-67.595,-92.210,35.556,-7.424,-71.893,-70.330,5.861,3.907,-126.203,19.927,-3.907,13.675,-29.304,-38.291,5.861
'[05:22:16.070 14/03/2059]',-8.596,-160.195,1.563,-26.178,27.350,-151.990,-21.099,-48.840,-76.581,-87.912,37.118,5.861,-69.548,-75.409,9.377,13.284,-121.123,17.973,-0.781,25.788,-31.258,-52.747,9.377
'[05:22:16.074 14/03/2059]',-12.503,-164.493,-4.298,-19.927,25.006,-159.023,-25.397,-44.542,-82.833,-84.396,35.556,19.536,-69.158,-74.628,10.549,20.317,-118.779,9.768,5.079,11.331,-30.867,-40.244,10.549
'[05:22:16.078 14/03/2059]',-8.205,-168.791,-9.377,-22.662,24.615,-162.540,-32.430,-40.244,-86.740,-80.488,33.602,28.132,-64.078,-76.190,14.457,19.927,-115.263,-5.861,10.159,17.582,-38.681,-44.542,14.457
'[05:22:16.082 14/03/2059]',-6.252,-175.043,-16.020,-19.536,21.880,-170.745,-39.853,-30.085,-89.475,-78.926,26.178,43.370,-58.608,-79.707,12.112,26.960,-111.355,-17.582,16.801,33.993,-42.198,-60.562,12.112
'[05:22:16.086 14/03/2059]',-5.470,-173.480,-33.211,-13.284,19.927,-180.122,-40.244,-26.960,-92.991,-81.270,16.410,50.794,-59.389,-81.270,6.252,26.960,-110.574,-23.053,33.993,17.973,-42.589,-51.184,6.252
'[05:22:16.090 14/03/2059]',-3.126,-176.215,-37.900,-14.457,20.708,-184.029,-37.900,-31.648,-93.382,-83.223,10.159,51.966,-58.217,-82.833,1.563,23.834,-112.918,-30.085,38.681,12.894,-45.714,-43.370,1.563
'[05:22:16.094 14/03/2059]',-1.563,-186.374,-30.867,-14.457,21.490,-190.672,-41.416,-25.006,-92.991,-85.958,2.735,54.701,-55.873,-87.131,-0.781,22.662,-114.872,-34.383,31.648,39.072,-48.449,-58.999,-0.781
'[05:22:16.098 14/03/2059]',-3.126,-195.751,-23.053,-14.847,20.708,-199.267,-42.979,-18.364,-92.601,-89.475,-7.424,59.780,-58.608,-89.866,-5.470,24.615,-118.779,-35.165,23.834,48.840,-43.370,-66.422,-5.470
'[05:22:16.102 14/03/2059]',-4.298,-205.128,-12.503,-19.927,21.880,-203.565,-34.774,-27.741,-90.647,-91.038,-16.801,55.873,-61.343,-93.773,-7.033,20.317,-127.375,-38.291,13.284,47.277,-42.589,-59.389,-7.033
'[05:22:16.105 14/03/2059]',-3.126,-204.737,-6.642,-27.741,23.443,-204.347,-34.383,-28.913,-84.396,-89.084,-21.099,45.324,-57.827,-97.680,-5.079,12.503,-132.845,-42.589,7.424,52.747,-47.668,-60.562,-5.079
'[05:22:16.109 14/03/2059]',-7.033,-199.267,-8.987,-28.523,17.973,-208.645,-35.946,-20.317,-82.442,-88.303,-27.350,43.370,-59.780,-104.713,-2.344,12.112,-135.189,-37.900,9.768,51.575,-44.933,-73.846,-2.344
'[05:22:16.113 14/03/2059]',-10.549,-191.844,-11.722,-27.350,15.238,-208.645,-35.556,-16.020,-80.098,-87.131,-30.085,35.946,-61.734,-109.792,0.000,9.377,-139.878,-27.350,12.503,33.993,-44.151,-66.032,0.000
'[05:22:16.117 14/03/2059]',-10.940,-174.261,-15.238,-32.039,18.364,-203.175,-30.867,-19.145,-69.939,-84.786,-26.960,24.225,-57.827,-111.355,5.079,5.079,-141.832,-21.490,16.020,23.834,-48.449,-64.469,5.079
'[05:22:16.121 14/03/2059]',-10.940,-164.884,-14.847,-32.821,23.834,-200.830,-27.350,-22.271,-63.687,-87.521,-25.397,17.582,-58.999,-113.309,7.424,4.689,-143.785,-16.020,15.629,29.304,-46.886,-78.926,7.424
'[05:22:16.125 14/03/2059]',-15.238,-169.963,-0.391,-31.648,31.648,-198.095,-28.132,-25.006,-58.999,-93.382,-26.178,17.582,-65.641,-114.090,8.987,8.205,-149.646,-7.033,1.172,22.271,-42.198,-68.376,8.987
'[05:22:16.129 14/03/2059]',-16.801,-171.917,11.331,-35.946,41.416,-191.844,-33.602,-30.476,-50.794,-96.899,-25.006,11.331,-69.939,-110.183,8.596,8.205,-153.944,-7.424,-10.549,14.847,-44.542,-50.403,8.596
'[05:22:16.133 14/03/2059]',-17.192,-174.652,21.490,-35.946,50.012,-187.937,-34.774,-34.774,-46.496,-100.024,-23.443,10.940,-73.065,-106.667,10.159,9.377,-153.553,-12.503,-20.708,29.695,-45.714,-58.999,10.159
'[05:22:16.137 14/03/2059]',-19.927,-176.215,28.523,-33.211,54.701,-185.983,-31.648,-38.681,-46.496,-101.587,-23.443,13.284,-80.098,-111.355,16.020,16.020,-152.772,-12.894,-27.741,34.383,-46.886,-67.204,16.020
'[05:22:16.141 14/03/2059]',-19.145,-171.917,31.648,-32.821,62.125,-181.294,-27.741,-46.886,-44.542,-96.899,-22.662,8.596,-85.177,-113.700,23.053,19.145,-149.646,-14.457,-30.867,14.847,-50.403,-55.092,23.053
'[05:22:16.145 14/03/2059]',-14.457,-163.712,33.993,-35.946,68.767,-172.698,-24.225,-53.138,-41.807,-89.475,-22.271,1.172,-84.786,-104.713,17.973,16.801,-143.004,-22.662,-33.211,13.675,-53.138,-50.794,17.973
'[05:22:16.148 14/03/2059]',-13.675,-157.460,33.993,-35.946,70.720,-166.447,-22.662,-55.092,-42.198,-83.223,-26.569,0.391,-85.568,-91.038,5.470,17.582,-134.408,-26.569,-33.211,18.755,-53.919,-51.575,5.470
'[05:22:16.152 14/03/2059]',-12.112,-150.427,33.211,-35.165,70.720,-156.288,-13.675,-66.813,-40.635,-75.409,-30.085,-1.172,-84.396,-80.879,-0.781,16.410,-124.249,-25.788,-32.430,2.735,-51.184,-36.337,-0.781
'[05:22:16.156 14/03/2059]',-8.987,-141.050,26.569,-35.946,69.939,-145.348,-7.033,-77.363,-37.509,-67.985,-31.258,-6.642,-81.270,-56.654,-20.708,13.284,-116.435,-28.913,-25.788,-8.205,-51.184,-12.112,-20.708
'[05:22:16.160 14/03/2059]',-9.768,-126.203,13.284,-35.946,64.078,-136.752,-7.424,-78.926,-36.337,-62.125,-30.476,-9.377,-79.707,-52.357,-17.582,9.768,-107.448,-30.476,-12.503,-1.954,-56.264,-26.569,-17.582
'[05:22:16.164 14/03/2059]',-7.424,-124.249,10.940,-33.211,60.562,-126.593,-8.205,-80.879,-35.556,-54.310,-26.960,-8.596,-78.535,-80.879,21.490,10.159,-96.899,-28.913,-10.159,7.033,-65.250,-63.297,21.490
'[05:22:16.168 14/03/2059]',-0.391,-129.328,13.284,-33.211,62.906,-117.607,-6.642,-89.084,-32.821,-46.886,-22.662,-10.159,-78.926,-80.879,32.039,12.894,-92.991,-27.741,-12.503,0.781,-77.363,-49.621,32.039
'[05:22:16.172 14/03/2059]',8.987,-130.110,13.284,-35.556,66.032,-107.448,-8.596,-93.773,-32.821,-37.118,-15.629,-14.847,-77.753,-84.396,49.231,10.549,-87.912,-28.913,-12.503,10.549,-92.991,-59.389,49.231
'[05:22:16.176 14/03/2059]',16.801,-128.938,12.112,-31.258,67.595,-97.680,-14.066,-87.521,-35.165,-25.788,-10.549,-4.298,-76.972,-87.521,68.376,16.410,-76.190,-23.053,-11.331,12.112,-98.462,-71.111,68.376
'[05:22:16.180 14/03/2059]',22.662,-125.031,8.205,-32.821,67.204,-85.958,-19.145,-89.084,-37.118,-17.192,-6.642,-3.907,-75.018,-65.250,51.575,20.708,-68.376,-19.145,-7.424,-5.861,-102.369,-38.681,51.575
'[05:22:16.184 14/03/2059]',26.569,-115.653,5.861,-40.635,66.813,-72.674,-13.675,-103.932,-39.463,-8.205,1.172,-8.205,-72.283,-35.946,33.211,18.364,-57.827,-21.490,-5.079,-2.344,-109.402,-21.099,33.211
'[05:22:16.188 14/03/2059]',26.178,-101.587,1.954,-46.886,64.078,-60.562,-7.033,-117.607,-44.542,-2.735,8.987,-9.768,-69.158,-42.589,42.589,18.755,-43.761,-21.099,-1.172,5.079,-114.090,-43.761,42.589
'[05:22:16.191 14/03/2059]',23.053,-85.958,-5.470,-50.794,60.562,-47.668,-3.126,-130.110,-48.449,-1.954,16.410,-11.331,-70.720,-23.443,22.271,24.225,-36.728,-14.066,6.252,-17.192,-122.686,-10.549,22.271
'[05:22:16.195 14/03/2059]',23.834,-70.330,-6.252,-59.389,62.515,-37.118,1.172,-140.269,-51.966,-0.781,27.350,-17.973,-70.330,-42.198,42.198,25.788,-32.821,-8.987,7.033,-32.039,-129.719,-21.099,42.198
'[05:22:16.199 14/03/2059]',23.443,-43.370,-13.284,-67.204,62.125,-26.960,6.642,-144.176,-55.873,0.781,35.556,-18.755,-67.204,-68.767,69.158,27.741,-26.178,-3.126,14.066,-33.211,-133.626,-62.906,69.158
'[05:22:16.203 14/03/2059]',19.145,-25.788,-14.847,-70.720,58.999,-18.755,15.238,-149.646,-61.734,0.781,41.416,-13.284,-68.376,-68.767,67.204,36.337,-21.490,7.424,15.629,-40.635,-137.143,-64.469,67.204
'[05:22:16.207 14/03/2059]',16.801,-19.145,-0.391,-78.926,59.780,-10.549,28.132,-160.195,-63.297,3.126,46.886,-14.066,-67.204,-65.641,65.641,38.291,-19.536,14.457,1.172,-53.138,-134.408,-50.794,65.641
'[05:22:16.211 14/03/2059]',16.410,-11.722,12.112,-90.256,58.999,-1.954,33.602,-164.493,-62.125,7.033,48.449,-14.847,-62.906,-57.045,59.780,37.509,-16.410,14.847,-11.331,-45.714,-134.799,-51.184,59.780
'[05:22:16.215 14/03/2059]',16.020,-8.205,22.271,-98.071,54.701,3.126,37.118,-164.493,-60.562,7.424,41.807,-8.596,-62.125,-53.529,52.357,42.589,-13.284,15.629,-21.490,-34.774,-140.659,-56.654,52.357
'[05:22:16.219 14/03/2059]',17.582,-3.907,27.350,-106.667,53.529,5.470,44.151,-169.963,-56.654,6.252,31.258,-6.642,-62.515,-58.999,48.449,45.324,-14.457,12.503,-26.569,-51.575,-140.269,-49.231,48.449
'[05:22:16.223 14/03/2059]',19.927,8.987,25.006,-120.733,51.184,6.252,50.012,-174.261,-51.184,6.642,17.582,-9.768,-61.343,-68.767,49.621,42.589,-16.801,2.735,-24.225,-63.687,-144.176,-54.310,49.621
'[05:22:16.227 14/03/2059]',20.708,24.615,19.536,-131.673,43.761,7.814,42.979,-162.540,-45.714,5.079,3.126,-9.768,-61.734,-60.562,31.648,41.807,-14.457,-4.689,-18.755,-61.734,-149.646,-57.436,31.648
'[05:22:16.230 14/03/2059]',24.615,35.556,8.987,-136.361,42.589,7.033,38.681,-156.288,-41.026,1.954,-8.987,-7.814,-60.952,-52.357,11.722,42.979,-11.722,-10.549,-8.205,-71.111,-148.864,-51.575,11.722
'[05:22:16.234 14/03/2059]',33.602,44.933,1.172,-144.957,44.933,10.549,40.244,-162.149,-30.867,4.689,-21.099,-16.801,-55.482,-47.668,-0.391,37.900,-13.284,-21.490,-0.391,-92.991,-150.427,-32.039,-0.391
'[05:22:16.238 14/03/2059]',46.496,37.900,5.079,-154.335,48.449,16.020,37.118,-166.838,-19.145,9.377,-32.039,-28.132,-44.542,-26.960,-31.258,31.648,-9.377,-36.728,-4.298,-75.800,-155.507,-16.020,-31.258
'[05:22:16.242 14/03/2059]',57.045,24.615,6.642,-153.162,50.794,17.973,28.523,-162.930,-11.331,13.675,-47.277,-27.350,-40.244,-60.952,-8.596,35.556,-7.424,-46.105,-5.861,-68.376,-157.851,-44.151,-8.596
'[05:22:16.246 14/03/2059]',62.906,14.847,10.940,-155.116,50.794,22.662,18.364,-158.632,-4.298,20.708,-60.952,-35.165,-36.728,-74.628,-4.298,34.383,-6.252,-57.827,-10.159,-76.190,-155.897,-40.635,-4.298
'[05:22:16.250 14/03/2059]',69.548,6.252,18.755,-156.288,47.277,30.476,11.331,-151.209,-0.781,28.132,-65.250,-43.370,-30.867,-72.283,-7.424,28.913,0.391,-70.720,-17.973,-49.231,-158.632,-48.059,-7.424
'[05:22:16.254 14/03/2059]',74.237,0.781,18.364,-145.739,40.244,35.165,3.126,-132.454,-0.781,30.476,-67.204,-37.509,-28.132,-70.330,-8.596,31.258,9.377,-73.065,-17.582,-27.350,-157.070,-58.999,-8.596
'[05:22:16.258 14/03/2059]',75.800,0.391,10.159,-131.673,33.993,37.118,-4.689,-111.746,-0.781,31.258,-66.422,-33.993,-26.960,-59.389,-14.847,30.476,12.503,-71.502,-9.377,-40.635,-147.692,-37.509,-14.847
'[05:22:16.262 14/03/2059]',78.144,-0.391,7.033,-121.514,27.741,39.072,-8.987,-95.336,3.516,31.648,-61.343,-33.211,-19.145,-46.496,-19.536,25.788,14.457,-72.283,-6.252,-38.291,-140.659,-20.708,-19.536
'[05:22:16.266 14/03/2059]',77.753,0.391,2.344,-108.620,19.927,37.509,-6.252,-79.316,7.033,31.258,-56.264,-25.006,-10.549,-43.761,-13.675,25.006,17.973,-69.548,-1.563,-17.192,-134.799,-33.993,-13.675
'[05:22:16.270 14/03/2059]',72.674,0.781,-2.344,-89.866,12.112,32.039,0.000,-64.469,8.205,29.695,-54.310,-16.020,-5.861,-36.728,-18.364,28.913,18.364,-62.515,3.126,-16.801,-121.514,-26.960,-18.364
'[05:22:16.273 14/03/2059]',66.422,-7.814,5.861,-78.926,6.642,29.304,5.470,-57.827,10.549,31.258,-48.059,-20.708,0.391,-10.159,-39.463,21.490,16.410,-57.827,-5.079,-9.377,-108.620,8.205,-39.463
'[05:22:16.277 14/03/2059]',63.297,-16.801,11.722,-66.032,1.172,28.132,5.470,-42.979,10.159,33.993,-39.463,-23.834,7.814,-10.549,-31.258,14.457,20.317,-56.654,-10.940,20.317,-99.243,-2.735,-31.258
'[05:22:16.281 14/03/2059]',58.999,-25.397,12.503,-47.277,-4.298,26.178,3.516,-27.741,6.252,34.383,-32.430,-19.927,10.940,19.536,-57.045,13.675,23.053,-48.840,-11.722,42.198,-85.568,19.536,-57.045
'[05:22:16.285 14/03/2059]',53.138,-33.602,14.847,-33.993,-7.424,24.615,3.907,-21.099,7.424,33.993,-27.350,-19.145,15.629,-6.252,-20.708,5.861,22.662,-42.589,-14.066,40.244,-69.158,7.814,-20.708
'[05:22:16.289 14/03/2059]',51.966,-37.509,9.377,-22.662,-10.159,18.755,10.159,-17.973,8.596,33.602,-21.099,-17.973,23.443,-19.927,1.563,-3.126,21.880,-39.463,-8.596,45.324,-57.436,-1.172,1.563
'[05:22:16.293 14/03/2059]',49.621,-35.556,-2.344,-10.159,-15.238,12.112,2.735,0.391,7.814,31.648,-16.020,-10.940,30.867,-10.159,-3.516,-4.689,24.225,-31.258,3.126,66.813,-46.886,-10.549,-3.516
'[05:22:16.297 14/03/2059]',47.668,-38.291,-17.192,3.126,-18.364,0.391,-9.768,22.271,7.033,28.523,-12.112,-4.298,37.900,18.364,-33.211,-4.298,22.271,-22.662,17.973,65.250,-30.476,18.364,-33.211
'[05:22:16.301 14/03/2059]',49.621,-37.118,-33.602,10.549,-17.973,-10.940,-14.066,33.602,6.642,29.695,0.391,-7.424,48.059,38.291,-42.979,-13.675,18.364,-19.536,34.383,65.250,-19.927,37.509,-42.979
'[05:22:16.305 14/03/2059]',51.966,-31.648,-53.529,22.271,-21.880,-17.582,-21.099,50.403,3.126,32.039,15.238,-4.689,58.999,62.125,-59.389,-15.238,17.192,-11.722,54.310,81.270,-11.722,43.370,-59.389
'[05:22:16.309 14/03/2059]',50.403,-40.635,-58.999,39.463,-27.350,-24.615,-27.741,71.502,-1.172,33.993,27.741,4.298,66.032,88.303,-66.422,-21.880,15.629,2.735,59.780,80.879,3.126,72.283,-66.422
'[05:22:16.313 14/03/2059]',51.575,-48.840,-56.264,50.403,-29.695,-27.741,-34.774,89.866,-3.907,39.853,37.509,11.331,72.283,51.966,-7.033,-31.258,13.284,15.238,57.045,76.190,12.894,46.886,-7.033
'[05:22:16.316 14/03/2059]',56.264,-51.966,-55.873,56.654,-32.430,-27.350,-33.993,99.243,-2.735,42.198,44.542,17.192,82.051,52.747,-3.907,-28.132,16.410,20.708,56.654,98.852,17.582,31.258,-3.907
'[05:22:16.320 14/03/2059]',59.389,-52.747,-57.827,64.860,-33.993,-26.178,-35.946,110.574,-4.298,42.979,42.979,29.695,85.958,58.608,-9.377,-22.662,20.708,26.569,58.608,109.402,18.755,27.741,-9.377
'[05:22:16.324 14/03/2059]',60.952,-50.403,-63.297,72.674,-29.695,-26.569,-43.370,120.342,-1.563,39.072,36.728,37.118,85.568,49.621,-13.284,-9.377,20.317,27.741,64.078,89.866,23.443,33.993,-13.284
'[05:22:16.328 14/03/2059]',64.469,-47.668,-65.641,74.237,-24.225,-23.053,-52.747,126.203,3.126,35.556,31.258,41.416,88.303,53.919,-23.834,-5.470,19.927,18.364,66.422,89.866,25.006,37.900,-23.834
'[05:22:16.332 14/03/2059]',63.687,-45.324,-70.330,79.316,-20.317,-21.490,-64.860,135.580,7.033,31.258,21.880,48.059,89.475,57.436,-19.145,-17.192,21.880,10.940,71.111,101.197,24.615,32.039,-19.145
'[05:22:16.336 14/03/2059]',62.125,-41.026,-74.237,86.740,-13.675,-21.880,-68.376,138.315,14.066,27.741,12.112,57.045,85.177,57.045,-11.722,-17.192,21.880,9.768,75.018,82.833,28.132,43.761,-11.722
'[05:22:16.340 14/03/2059]',62.906,-38.291,-75.800,86.349,-3.516,-19.536,-67.204,127.375,24.225,25.788,2.344,54.701,84.396,66.422,-21.099,-19.536,21.099,2.735,76.581,70.330,29.304,64.078,-21.099
'[05:22:16.344 14/03/2059]',62.906,-24.615,-85.958,84.786,3.516,-19.536,-72.674,126.593,33.602,22.662,-3.907,50.403,85.958,69.939,-28.913,-22.271,21.099,-4.298,86.740,72.283,26.178,59.389,-28.913
'[05:22:16.348 14/03/2059]',58.217,-17.192,-88.694,89.475,12.503,-23.443,-73.455,126.593,42.589,15.629,-11.722,51.184,83.614,62.125,-32.430,-14.066,17.582,-3.516,89.475,64.078,29.304,53.138,-32.430
'[05:22:16.352 14/03/2059]',53.529,-26.178,-73.846,90.256,25.006,-27.741,-64.860,111.355,53.138,3.907,-21.490,44.542,81.661,58.217,-48.449,-9.768,7.033,-9.377,74.628,59.780,36.728,66.032,-48.449
'[05:22:16.355 14/03/2059]',47.668,-28.132,-61.734,85.958,35.556,-32.430,-66.032,107.057,64.078,-4.298,-27.350,40.244,80.098,10.549,-5.470,-12.503,-4.298,-17.973,62.515,64.078,41.026,22.662,-5.470
'[05:22:16.359 14/03/2059]',34.383,-30.867,-49.231,87.521,40.635,-42.589,-66.032,110.574,69.548,-17.973,-36.337,41.416,71.111,-0.781,-2.735,-9.377,-14.066,-16.410,50.012,71.111,50.403,8.205,-2.735
'[05:22:16.363 14/03/2059]',21.880,-33.602,-36.337,87.912,46.105,-49.621,-65.250,108.620,75.018,-28.132,-46.105,39.072,60.171,7.814,-23.053,-5.079,-24.615,-16.801,37.118,60.562,60.171,30.476,-23.053
'[05:22:16.367 14/03/2059]',12.112,-28.523,-27.741,80.098,51.575,-53.919,-57.045,95.336,79.707,-33.602,-48.449,28.132,53.529,5.079,-24.615,-8.205,-32.821,-23.443,28.523,60.171,64.860,28.913,-24.615
'[05:22:16.371 14/03/2059]',1.172,-23.443,-25.397,78.926,53.529,-61.343,-44.151,83.614,81.270,-40.244,-48.449,21.490,47.277,9.768,-33.602,-8.987,-41.026,-23.053,26.178,69.158,67.985,24.225,-33.602
'[05:22:16.375 14/03/2059]',-10.159,-21.490,-23.053,80.879,53.529,-68.376,-33.602,73.846,79.316,-47.668,-50.012,19.145,35.165,38.291,-67.204,-4.689,-52.357,-16.801,23.834,51.575,74.628,66.422,-67.204
'[05:22:16.379 14/03/2059]',-17.973,-17.582,-20.708,75.409,55.873,-71.893,-28.132,62.125,76.972,-52.747,-46.496,12.503,22.662,-2.344,-22.662,-6.642,-64.078,-15.238,21.490,35.165,74.237,39.072,-22.662
'[05:22:16.383 14/03/2059]',-27.350,-8.596,-20.317,70.720,53.138,-74.237,-19.536,54.310,71.893,-60.952,-37.509,8.205,13.284,-5.470,-14.847,-9.768,-73.065,-9.377,21.099,38.681,76.581,23.053,-14.847
'[05:22:16.387 14/03/2059]',-39.853,-9.768,-9.768,72.674,46.105,-76.190,-6.252,47.668,62.125,-69.158,-27.741,7.424,0.000,6.252,-25.006,-7.814,-77.363,4.689,10.549,40.244,83.614,28.523,-25.006
'[05:22:16.391 14/03/2059]',-51.184,-15.629,2.735,75.018,39.463,-73.065,4.298,39.463,53.138,-73.065,-17.192,1.172,-12.503,-10.159,3.516,-16.410,-83.223,16.410,-1.954,30.085,90.256,23.443,3.516
'[05:22:16.395 14/03/2059]',-60.562,-22.662,12.894,78.144,33.211,-71.502,8.596,37.118,46.496,-75.409,-4.689,-6.252,-17.582,-6.252,7.424,-23.053,-87.912,23.834,-12.112,40.635,94.554,24.225,7.424
'[05:22:16.398 14/03/2059]',-70.330,-37.118,23.443,85.958,26.960,-75.800,10.549,39.463,37.900,-75.018,2.344,-7.814,-25.006,10.159,-0.781,-25.006,-88.303,33.993,-22.662,60.171,100.806,29.695,-0.781
'[05:22:16.402 14/03/2059]',-80.488,-42.589,28.523,87.912,20.708,-76.972,16.020,33.211,28.132,-71.502,6.252,-8.987,-35.946,5.470,9.768,-24.615,-90.256,42.198,-27.741,50.794,100.806,33.602,9.768
'[05:22:16.406 14/03/2059]',-84.786,-34.383,30.867,78.144,19.536,-75.409,20.708,24.615,24.225,-67.204,11.722,-15.238,-41.026,10.940,10.549,-26.178,-92.601,44.933,-30.085,34.383,98.852,41.807,10.549
'[05:22:16.410 14/03/2059]',-89.475,-19.145,36.337,63.297,14.066,-73.846,22.662,26.569,20.317,-61.343,16.410,-17.192,-43.370,51.575,-21.880,-26.960,-88.694,47.668,-35.556,34.383,98.462,58.608,-21.880
'[05:22:16.414 14/03/2059]',-94.554,5.079,38.291,47.277,5.470,-66.422,30.085,26.178,15.238,-53.138,18.364,-18.364,-48.059,17.582,17.192,-24.225,-81.661,53.138,-37.509,18.755,91.429,12.112,17.192
'[05:22:16.418 14/03/2059]',-93.773,26.960,29.304,37.509,0.781,-58.999,36.728,20.708,17.973,-42.979,16.020,-21.880,-47.277,29.304,11.722,-23.834,-76.972,53.138,-28.523,-14.066,82.833,34.774,11.722
'[05:22:16.422 14/03/2059]',-90.256,30.476,31.258,30.867,-0.391,-55.092,38.681,20.708,23.443,-27.350,12.112,-25.397,-39.853,21.490,28.523,-26.569,-67.204,48.449,-30.476,-8.596,75.018,19.927,28.523
'[05:22:16.426 14/03/2059]',-89.866,22.271,30.085,36.337,-4.689,-55.482,30.476,30.085,24.225,-16.801,3.516,-21.490,-37.509,-5.079,48.449,-15.629,-55.092,48.059,-29.304,0.391,71.893,-9.377,48.449
'[05:22:16.430 14/03/2059]',-88.694,11.722,20.708,42.979,-5.861,-60.171,19.536,35.556,26.178,-9.377,-3.907,-21.880,-34.383,13.675,21.099,-8.987,-46.886,41.026,-19.927,-8.596,71.502,21.880,21.099
'[05:22:16.434 14/03/2059]',-85.568,-0.391,15.238,46.886,-3.907,-64.860,12.112,33.211,28.523,-2.735,-6.642,-28.913,-27.350,26.569,5.861,-15.238,-35.946,26.960,-14.457,8.987,73.065,26.178,5.861
'[05:22:16.438 14/03/2059]',-85.958,-13.284,13.675,53.138,-2.735,-69.158,10.549,29.304,27.350,0.781,-8.987,-31.648,-23.443,28.913,1.172,-18.364,-23.834,16.801,-12.894,32.039,81.270,11.331,1.172
'[05:22:16.441 14/03/2059]',-86.740,-22.662,12.112,59.389,-1.954,-69.158,8.205,24.615,27.741,1.563,-13.675,-30.476,-21.099,55.482,-27.350,-19.927,-16.801,12.894,-11.331,22.271,89.084,48.449,-27.350
'[05:22:16.445 14/03/2059]',-82.442,-15.629,9.768,54.701,4.298,-64.078,8.596,17.192,30.867,5.079,-17.582,-31.258,-16.020,28.523,-3.516,-21.490,-10.549,5.470,-8.987,8.596,91.819,28.913,-3.516
'[05:22:16.449 14/03/2059]',-76.581,6.642,3.516,42.979,7.814,-57.045,14.066,12.112,32.039,8.205,-23.053,-24.225,-8.987,8.987,7.033,-12.894,-2.735,1.954,-2.735,8.596,85.958,-6.642,7.033
'[05:22:16.453 14/03/2059]',-71.502,39.072,-16.801,34.383,6.642,-52.747,19.536,12.503,29.695,5.861,-28.913,-9.768,-7.033,8.205,-10.549,6.642,2.344,0.781,17.582,-10.549,69.939,-8.987,-10.549
'[05:22:16.457 14/03/2059]',-63.687,75.018,-53.529,28.132,1.563,-51.575,19.927,16.020,27.741,1.563,-30.085,-1.563,-5.470,-9.768,0.391,12.503,3.126,-2.344,54.310,-42.589,45.714,-16.020,0.391
'[05:22:16.461 14/03/2059]',-57.436,84.005,-77.363,30.867,-9.377,-53.529,15.238,28.913,23.443,-3.126,-25.397,5.079,-3.516,-8.596,0.000,12.894,6.642,-9.377,78.144,-26.178,23.834,-26.960,0.000
'[05:22:16.465 14/03/2059]',-57.827,63.297,-82.833,47.668,-26.569,-58.608,8.987,46.886,15.238,-15.629,-19.145,16.020,-6.642,6.252,-21.490,19.927,8.987,-9.768,83.614,10.549,14.066,-22.662,-21.490
'[05:22:16.469 14/03/2059]',-60.562,34.383,-84.396,69.158,-42.979,-62.906,11.331,53.138,9.377,-31.648,-15.238,23.834,-10.549,-2.344,-21.880,21.880,3.907,-6.252,85.177,25.397,16.801,-16.020,-21.880
'[05:22:16.473 14/03/2059]',-66.422,6.642,-74.237,84.786,-57.045,-65.250,18.364,54.701,6.252,-46.496,-8.987,24.615,-14.066,-12.503,-18.755,22.271,-0.781,-7.033,75.018,48.059,31.258,-22.662,-18.755
'[05:22:16.477 14/03/2059]',-76.581,-12.894,-64.469,102.369,-70.330,-66.422,13.675,71.893,4.298,-65.250,-7.814,31.258,-15.629,-2.735,-48.840,30.867,-7.033,-3.516,65.250,78.144,51.966,-23.443,-48.840
'[05:22:16.480 14/03/2059]',-86.349,-15.238,-65.250,115.263,-81.270,-68.376,11.722,85.177,5.470,-82.833,-9.768,40.244,-19.145,-45.714,-19.536,39.072,-14.847,0.391,66.032,75.018,67.985,-59.389,-19.536
'[05:22:16.484 14/03/2059]',-89.866,-9.768,-71.893,119.951,-84.005,-72.674,16.020,88.303,10.940,-98.852,-12.112,41.026,-21.490,-53.529,-26.178,42.979,-25.788,-3.516,72.674,62.125,79.707,-57.436,-26.178
'[05:22:16.488 14/03/2059]',-86.740,-2.735,-82.833,121.514,-83.223,-76.972,17.192,91.819,18.364,-116.825,-15.629,41.416,-23.053,-60.952,-33.211,46.105,-36.337,-8.987,83.614,69.548,75.409,-67.204,-33.211
'[05:22:16.492 14/03/2059]',-84.786,7.424,-106.276,126.203,-83.223,-84.005,14.457,94.945,25.788,-135.189,-27.350,45.714,-31.258,-73.065,-37.900,52.747,-49.621,-10.159,107.057,58.608,64.860,-68.767,-37.900
'[05:22:16.496 14/03/2059]',-79.316,5.861,-119.560,125.421,-80.488,-87.521,10.940,89.475,35.946,-151.990,-42.979,42.979,-41.026,-84.786,-37.509,48.449,-64.469,-15.238,120.342,49.231,51.575,-60.171,-37.509
'[05:22:16.500 14/03/2059]',-72.674,-3.126,-122.295,121.123,-76.972,-87.521,10.940,76.190,50.012,-166.447,-56.264,36.337,-46.105,-77.753,-51.184,39.853,-75.409,-25.006,123.077,74.237,34.774,-54.310,-51.184
'[05:22:16.504 14/03/2059]',-72.674,-15.238,-119.170,118.388,-72.674,-88.694,9.768,62.125,59.780,-181.685,-71.111,33.993,-53.529,-84.396,-57.436,37.900,-84.005,-31.258,119.951,98.071,28.523,-64.860,-57.436
'[05:22:16.508 14/03/2059]',-78.144,-26.960,-112.918,117.998,-67.985,-91.429,7.033,51.184,70.720,-195.360,-83.223,30.867,-62.515,-81.270,-67.204,34.774,-95.336,-35.946,113.700,87.131,38.681,-44.542,-67.204
'[05:22:16.512 14/03/2059]',-84.396,-30.867,-103.932,112.918,-57.827,-96.117,10.549,36.337,79.316,-207.473,-87.131,23.443,-65.641,-52.747,-100.024,27.350,-107.839,-44.542,104.713,78.926,51.966,-4.298,-100.024
'[05:22:16.516 14/03/2059]',-95.336,-30.476,-91.429,109.011,-49.621,-102.759,17.192,26.569,86.349,-219.976,-89.084,19.927,-67.595,-83.223,-76.972,25.788,-118.388,-48.059,92.210,85.177,75.018,-47.668,-76.972
'[05:22:16.520 14/03/2059]',-107.448,-30.085,-74.628,110.183,-43.761,-107.448,28.913,18.755,91.038,-227.399,-87.912,21.880,-69.939,-84.005,-68.767,21.880,-128.547,-41.026,75.409,67.985,96.508,-41.807,-68.767
'[05:22:16.523 14/03/2059]',-116.435,-24.615,-57.436,103.932,-36.728,-108.620,42.589,8.205,96.899,-230.916,-87.131,17.973,-70.330,-100.024,-44.542,13.284,-138.315,-36.728,58.217,43.370,112.527,-44.151,-44.542
'[05:22:16.527 14/03/2059]',-121.514,-12.894,-44.933,94.554,-31.258,-109.402,46.886,7.424,100.024,-230.134,-83.223,14.066,-66.422,-111.355,-27.350,8.205,-143.004,-35.165,45.714,40.244,120.733,-63.687,-27.350
'[05:22:16.531 14/03/2059]',-126.984,-2.344,-42.198,89.866,-30.085,-111.746,50.012,9.768,98.462,-228.571,-82.833,15.629,-67.595,-103.932,-32.430,8.596,-145.348,-30.867,42.979,32.039,123.468,-58.999,-32.430
'[05:22:16.535 14/03/2059]',-132.845,11.722,-50.403,83.223,-28.913,-118.779,58.608,1.563,96.117,-224.664,-81.661,10.940,-69.158,-92.210,-42.979,6.252,-149.255,-30.085,51.184,-1.172,124.249,-28.132,-42.979
'[05:22:16.539 14/03/2059]',-137.534,23.053,-58.608,73.846,-27.350,-127.766,67.595,-10.549,90.256,-218.413,-77.363,0.781,-70.330,-94.164,-41.416,2.344,-152.772,-31.648,59.389,-14.847,123.858,-21.490,-41.416
'[05:22:16.543 14/03/2059]',-144.176,9.768,-48.449,69.939,-33.602,-134.408,63.687,-6.252,79.316,-212.552,-68.767,-7.424,-71.502,-100.806,-33.602,-1.563,-149.646,-28.523,49.231,10.159,127.766,-43.370,-33.602
'[05:22:16.547 14/03/2059]',-153.553,-6.252,-36.728,69.939,-41.416,-141.441,60.952,-4.689,66.422,-205.519,-61.734,-13.675,-75.409,-96.899,-36.337,-3.907,-147.692,-19.145,37.509,14.066,134.408,-33.602,-36.337
'[05:22:16.551 14/03/2059]',-158.632,-15.238,-24.615,63.687,-44.151,-141.050,62.515,-11.722,55.873,-197.314,-48.059,-29.304,-73.455,-89.866,-41.026,-12.112,-145.348,-17.192,25.397,20.708,138.315,-22.662,-41.026
'[05:22:16.555 14/03/2059]',-164.103,-21.490,-11.331,58.999,-47.668,-137.534,63.297,-16.801,42.979,-189.499,-33.602,-42.198,-72.674,-87.521,-42.979,-17.192,-138.315,-13.675,12.112,43.761,138.315,-34.383,-42.979
'[05:22:16.559 14/03/2059]',-173.089,-23.053,-3.907,58.608,-51.575,-134.017,62.125,-18.755,30.867,-180.513,-24.615,-47.668,-76.972,-77.363,-50.794,-14.847,-130.891,-7.033,4.689,34.774,140.659,-16.801,-50.794
'[05:22:16.563 14/03/2059]',-178.950,-13.675,0.391,51.575,-48.449,-127.375,58.999,-24.225,25.006,-171.136,-15.629,-58.999,-78.926,-71.111,-50.794,-17.582,-123.077,-7.033,0.391,13.675,141.441,3.126,-50.794
'[05:22:16.566 14/03/2059]',-181.685,-0.391,4.689,42.979,-45.324,-117.607,61.343,-31.648,18.364,-157.460,-5.861,-69.158,-77.753,-97.289,-17.582,-19.927,-110.183,-11.331,-3.907,21.880,141.050,-39.853,-17.582
'[05:22:16.570 14/03/2059]',-185.592,9.377,9.768,42.198,-42.979,-110.574,66.032,-34.383,14.066,-144.567,-0.781,-67.985,-77.753,-91.819,-12.112,-15.629,-94.164,-10.940,-8.987,22.662,141.832,-48.059,-12.112
'[05:22:16.574 14/03/2059]',-188.718,25.006,9.377,44.933,-36.337,-105.104,69.548,-34.774,10.940,-132.063,3.126,-66.032,-78.535,-87.131,-3.907,-10.549,-84.396,-10.549,-8.596,-5.079,140.269,-32.430,-3.907
'[05:22:16.578 14/03/2059]',-186.764,39.853,12.894,42.979,-27.741,-97.680,71.111,-33.211,9.768,-120.342,7.814,-61.734,-76.972,-73.846,-3.516,-7.033,-76.581,-16.410,-12.112,-17.973,137.924,-24.225,-3.516
'[05:22:16.582 14/03/2059]',-185.592,36.337,30.476,44.542,-23.834,-93.773,72.674,-26.960,6.642,-109.792,9.377,-51.184,-75.800,-58.999,-3.907,-1.954,-70.720,-16.801,-29.695,-0.781,133.626,-28.132,-3.907
'[05:22:16.586 14/03/2059]',-180.513,27.350,49.231,46.886,-19.927,-88.303,78.926,-24.615,5.079,-100.415,8.205,-37.900,-75.018,-51.184,-2.735,5.470,-68.376,-12.112,-48.449,-7.424,132.845,-16.020,-2.735
'[05:22:16.590 14/03/2059]',-172.308,26.960,66.422,42.589,-14.847,-77.363,85.177,-26.569,5.470,-86.740,8.596,-32.039,-71.502,-42.198,1.954,8.987,-66.813,-8.987,-65.641,-17.192,131.282,-4.689,1.954
'[05:22:16.594 14/03/2059]',-168.010,28.132,80.879,40.635,-16.020,-66.032,86.349,-20.317,7.033,-71.502,10.940,-26.960,-63.297,-49.621,23.443,10.159,-60.562,-3.516,-80.098,-2.344,128.156,-29.695,23.443
'[05:22:16.598 14/03/2059]',-165.275,28.913,87.912,47.277,-17.192,-57.436,89.084,-13.284,9.768,-56.654,10.549,-17.582,-53.919,-44.151,30.867,14.847,-49.621,2.735,-87.131,-1.563,128.156,-29.304,30.867
'[05:22:16.602 14/03/2059]',-162.540,35.556,91.819,50.794,-13.675,-45.714,98.071,-19.927,17.192,-42.589,9.768,-10.549,-45.324,-33.993,32.821,21.880,-42.979,5.470,-91.038,-19.145,126.984,-7.814,32.821
'[05:22:16.605 14/03/2059]',-157.070,39.463,91.429,51.575,-9.768,-35.946,98.462,-24.225,24.225,-33.993,9.377,-7.033,-33.993,-36.728,38.681,26.178,-37.118,0.391,-90.647,-18.364,125.031,-12.894,38.681
'[05:22:16.609 14/03/2059]',-151.209,37.900,87.912,57.827,-9.377,-28.132,94.554,-21.880,29.304,-28.523,4.298,2.344,-25.788,-25.397,26.960,33.602,-28.523,-0.391,-87.131,-10.940,121.123,-7.814,26.960
'[05:22:16.613 14/03/2059]',-144.176,42.198,79.707,62.906,-6.642,-18.755,91.038,-21.490,34.774,-25.397,0.000,10.940,-20.317,-21.099,16.410,46.496,-22.662,0.391,-78.926,-30.085,119.170,8.205,16.410
'[05:22:16.617 14/03/2059]',-134.799,51.575,71.893,62.125,-2.344,-7.424,92.210,-28.132,41.026,-17.973,-1.172,8.987,-9.768,-60.171,53.529,47.668,-16.020,-5.079,-71.111,-34.774,112.527,-28.913,53.529
'[05:22:16.621 14/03/2059]',-126.203,46.496,79.316,62.906,-0.391,1.172,95.726,-32.430,45.714,-12.503,-3.126,11.331,1.563,-46.886,44.933,42.198,-5.470,-6.252,-78.535,-15.238,108.230,-23.443,44.933
'[05:22:16.625 14/03/2059]',-118.388,38.291,89.475,66.032,0.391,12.112,96.117,-33.211,48.840,-9.768,-5.861,17.973,8.987,-71.502,66.422,48.449,2.344,-0.781,-88.694,-19.536,107.448,-33.993,66.422
'[05:22:16.629 14/03/2059]',-108.230,39.072,95.726,62.515,7.814,26.569,89.866,-34.383,52.357,-6.642,-4.689,21.099,19.536,-78.926,72.283,49.621,6.642,0.781,-94.945,-27.741,105.885,-28.523,72.283
'[05:22:16.633 14/03/2059]',-98.071,36.728,101.978,56.654,10.549,38.291,87.131,-38.291,52.747,-9.377,-1.563,27.741,30.476,-77.363,67.204,48.840,13.675,2.344,-101.197,-8.987,103.150,-37.118,67.204
'[05:22:16.637 14/03/2059]',-93.382,35.556,102.759,53.919,9.377,46.886,86.740,-43.370,46.886,-10.159,-3.126,37.509,34.774,-84.396,65.641,54.701,19.927,9.377,-101.978,-5.079,105.104,-46.886,65.641
'[05:22:16.641 14/03/2059]',-90.256,36.337,102.369,48.840,12.894,55.092,79.316,-47.668,42.589,-10.159,-2.344,39.463,36.728,-75.018,50.403,56.654,20.708,14.066,-101.587,-23.053,110.183,-22.662,50.403
'[05:22:16.645 14/03/2059]',-85.177,40.635,100.024,38.681,14.847,61.734,65.641,-46.496,37.118,-6.252,-1.563,37.509,41.416,-66.032,38.681,51.966,23.834,12.503,-99.243,-22.271,110.965,-14.457,38.681
'[05:22:16.648 14/03/2059]',-82.051,42.979,98.462,31.258,12.894,67.985,52.747,-42.198,27.741,-0.391,-4.689,42.198,43.761,-68.767,37.509,52.747,30.476,13.675,-97.680,-14.847,112.527,-28.132,37.509
'[05:22:16.652 14/03/2059]',-75.018,47.668,94.164,26.569,15.629,76.190,42.198,-40.244,20.317,5.079,-4.689,45.324,44.151,-50.403,16.020,57.827,34.774,16.801,-93.382,-33.602,112.918,-0.391,16.020
'[05:22:16.656 14/03/2059]',-64.469,60.171,84.786,19.145,20.708,86.349,36.337,-42.979,16.020,12.112,-1.954,42.589,48.059,-64.860,28.523,58.217,40.635,14.066,-84.005,-53.138,108.230,-9.377,28.523
'[05:22:16.660 14/03/2059]',-55.482,57.436,88.694,14.847,21.880,92.991,26.960,-35.946,8.987,17.192,-1.172,42.198,51.184,-89.475,47.668,59.780,51.575,11.331,-87.912,-39.072,105.495,-48.449,47.668
'[05:22:16.664 14/03/2059]',-47.668,45.714,100.024,12.503,24.225,98.071,21.099,-31.648,3.516,20.708,0.391,43.370,50.012,-82.833,38.291,63.297,61.343,9.768,-99.243,-26.569,102.369,-49.231,38.291
'[05:22:16.668 14/03/2059]',-38.681,42.198,103.541,6.252,30.085,102.759,17.973,-36.337,0.000,25.006,1.563,37.509,48.840,-73.846,26.960,62.906,65.641,5.470,-102.759,-42.979,99.634,-25.006,26.960
'[05:22:16.672 14/03/2059]',-28.132,41.026,107.839,-2.735,32.821,108.230,14.066,-36.337,-4.298,28.132,5.079,33.211,50.403,-79.707,32.821,58.608,69.939,0.000,-107.057,-34.383,92.210,-35.946,32.821
'[05:22:16.676 14/03/2059]',-22.271,40.244,107.448,-5.861,30.476,110.183,4.689,-26.569,-13.675,31.648,4.689,35.946,46.105,-75.800,28.913,59.780,73.455,2.735,-106.667,-31.648,85.177,-37.118,28.913
'[05:22:16.680 14/03/2059]',-15.238,40.244,101.197,-10.159,29.695,111.746,-3.126,-21.880,-20.708,35.556,4.689,35.946,44.933,-70.330,21.880,59.389,73.846,4.689,-100.415,-49.621,80.879,-19.145,21.880
'[05:22:16.684 14/03/2059]',-5.861,44.151,94.164,-17.582,27.741,114.872,-5.079,-22.271,-24.615,39.463,4.689,30.867,47.668,-66.813,19.145,51.184,76.581,0.000,-93.382,-42.198,71.893,-26.569,19.145
'[05:22:16.688 14/03/2059]',0.781,45.324,87.521,-24.615,24.615,115.653,-6.642,-23.443,-29.304,41.026,1.563,28.132,48.449,-69.548,16.801,46.886,80.488,-3.126,-86.740,-29.304,63.687,-45.324,16.801
'[05:22:16.691 14/03/2059]',8.596,47.277,78.144,-30.085,25.788,116.825,-12.503,-24.615,-28.913,41.416,-3.126,26.178,46.105,-55.482,1.563,43.761,81.270,-7.424,-77.363,-50.012,60.562,-22.271,1.563
'[05:22:16.695 14/03/2059]',21.099,60.562,62.906,-42.589,31.258,120.733,-19.145,-28.913,-22.662,41.807,-7.033,17.192,45.324,-28.913,-19.536,33.211,81.661,-19.536,-62.125,-74.237,53.919,8.205,-19.536
'[05:22:16.699 14/03/2059]',33.993,62.125,60.562,-54.701,35.556,125.421,-26.178,-30.476,-19.927,45.714,-9.768,10.940,46.886,-64.078,16.801,26.569,85.177,-29.304,-59.780,-60.952,41.416,-42.589,16.801
'[05:22:16.703 14/03/2059]',46.105,49.621,63.687,-58.999,40.244,127.766,-31.258,-34.383,-18.755,50.012,-11.331,9.768,44.151,-51.184,11.331,25.397,85.958,-28.913,-62.906,-55.873,31.258,-33.211,11.331
'[05:22:16.707 14/03/2059]',58.999,43.761,61.343,-66.032,47.277,130.891,-35.946,-42.198,-17.973,54.701,-7.424,1.954,44.933,-46.105,13.284,17.973,82.833,-29.304,-60.562,-65.641,22.271,-19.145,13.284
'[05:22:16.711 14/03/2059]',70.330,42.979,57.045,-76.190,51.575,133.236,-44.151,-43.761,-19.536,61.734,0.391,-6.642,50.012,-53.138,28.132,10.159,82.442,-30.085,-56.264,-51.966,9.377,-40.635,28.132
'[05:22:16.715 14/03/2059]',76.972,42.589,50.794,-80.879,50.403,133.236,-51.184,-41.026,-25.397,67.595,8.205,-9.377,53.138,-43.370,23.443,7.424,82.442,-25.788,-50.012,-42.589,3.516,-46.105,23.443
'[05:22:16.719 14/03/2059]',83.223,44.542,42.589,-85.958,49.231,134.799,-50.403,-46.886,-30.867,74.628,16.020,-14.457,53.529,-35.556,22.271,4.298,80.488,-20.317,-41.807,-60.171,0.391,-30.867,22.271
'[05:22:16.723 14/03/2059]',88.694,50.794,35.946,-92.210,45.714,139.487,-45.324,-54.310,-36.337,83.223,24.225,-20.708,56.264,-21.099,16.020,0.000,78.926,-15.238,-35.165,-63.687,-8.205,-18.755,16.020
'[05:22:16.727 14/03/2059]',93.382,54.701,29.304,-94.164,37.509,143.394,-46.886,-48.449,-45.324,91.038,30.867,-17.973,58.608,-3.126,3.126,0.000,80.879,-4.689,-28.523,-52.357,-16.020,-18.364,3.126
'[05:22:16.730 14/03/2059]',97.289,57.436,22.271,-91.038,32.039,146.520,-44.542,-46.496,-52.357,92.210,34.383,-11.331,57.827,7.814,-5.861,2.735,82.442,6.252,-21.490,-58.608,-21.490,-7.033,-5.861
'[05:22:16.734 14/03/2059]',102.759,73.846,9.377,-95.726,29.304,153.162,-33.993,-56.264,-53.919,94.945,41.026,-11.722,60.952,35.165,-23.834,-1.954,85.958,8.596,-8.596,-77.363,-26.960,21.880,-23.834
'[05:22:16.738 14/03/2059]',110.574,89.084,1.563,-99.243,27.741,160.586,-26.178,-59.389,-57.045,100.415,47.668,-8.596,66.422,37.118,-19.536,-1.563,94.945,10.940,-0.781,-75.409,-34.774,9.377,-19.536
'[05:22:16.742 14/03/2059]',112.137,86.349,8.205,-96.508,24.225,165.275,-21.880,-56.264,-58.608,103.541,47.668,-1.954,67.595,7.424,10.159,3.126,102.369,17.582,-7.424,-75.409,-37.509,-16.801,10.159
'[05:22:16.746 14/03/2059]',112.527,85.177,14.066,-95.726,22.271,171.917,-21.490,-54.701,-56.654,107.448,44.933,0.000,66.422,12.894,9.377,5.470,106.276,22.271,-13.284,-87.131,-38.681,-0.781,9.377
'[05:22:16.750 14/03/2059]',114.872,86.740,17.192,-96.508,21.099,178.168,-17.192,-57.436,-53.919,110.574,44.542,0.391,70.720,17.973,5.079,5.861,108.620,22.662,-16.410,-68.767,-44.542,-8.205,5.079
'[05:22:16.754 14/03/2059]',113.309,82.051,20.708,-91.429,18.755,180.122,-14.457,-57.436,-50.403,108.620,39.463,5.470,70.330,21.490,3.907,6.642,109.792,26.178,-19.927,-47.277,-50.012,-15.629,3.907
'[05:22:16.758 14/03/2059]',112.527,82.051,15.629,-85.177,17.582,182.076,-16.801,-56.264,-44.933,105.104,33.993,8.205,66.422,35.946,-7.033,7.033,109.011,27.741,-14.847,-60.562,-50.403,10.549,-7.033
'[05:22:16.762 14/03/2059]',116.825,87.912,4.298,-86.740,17.582,183.248,-18.755,-57.827,-39.463,102.759,32.821,7.033,65.250,44.151,-9.377,3.516,105.885,22.662,-3.516,-66.422,-58.608,23.443,-9.377
'[05:22:16.766 14/03/2059]',119.170,91.038,-7.033,-87.131,16.410,180.904,-26.960,-53.138,-33.211,99.243,28.523,12.894,65.250,41.026,-5.079,5.470,103.541,18.755,7.814,-54.701,-67.595,10.159,-5.079
'[05:22:16.770 14/03/2059]',117.216,91.819,-21.880,-85.958,14.066,173.871,-35.946,-50.403,-28.913,92.991,17.973,23.443,59.389,36.728,-3.907,13.284,98.462,14.066,22.662,-65.250,-72.674,13.284,-3.907
'[05:22:16.773 14/03/2059]',118.388,100.415,-43.761,-88.303,17.582,169.573,-39.853,-60.562,-21.099,87.131,10.159,25.006,56.264,30.476,-0.391,13.675,90.256,5.470,44.542,-90.256,-75.409,21.099,-0.391
'[05:22:16.777 14/03/2059]',116.435,97.680,-51.575,-87.521,21.099,167.228,-50.012,-61.343,-10.549,84.396,3.126,25.006,58.217,27.350,2.344,13.284,85.958,-4.689,52.357,-73.455,-78.926,8.596,2.344
'[05:22:16.781 14/03/2059]',110.183,85.568,-48.840,-75.800,20.317,165.275,-55.092,-59.389,-3.126,82.833,-1.172,23.443,55.873,34.383,-4.689,14.066,87.131,-8.205,49.621,-57.436,-71.502,9.768,-4.689
'[05:22:16.785 14/03/2059]',104.322,78.144,-47.277,-60.952,22.662,166.447,-46.496,-66.813,2.344,87.131,-1.563,11.331,54.701,40.635,-7.424,10.940,89.475,-6.252,48.059,-65.250,-63.297,30.867,-7.424
'[05:22:16.789 14/03/2059]',100.806,69.548,-41.416,-44.151,27.350,168.400,-35.556,-74.237,9.377,92.601,1.172,0.391,55.482,48.840,-10.159,8.596,94.164,-3.126,42.198,-60.562,-53.529,44.933,-10.159
'[05:22:16.793 14/03/2059]',96.117,62.515,-35.556,-30.085,26.960,166.838,-35.556,-64.078,10.159,95.336,4.689,-1.172,57.827,74.628,-33.211,9.768,101.197,0.391,36.337,-36.728,-45.714,55.482,-33.211
'[05:22:16.797 14/03/2059]',90.256,68.376,-39.072,-16.801,28.132,165.665,-27.350,-63.687,4.689,95.726,7.814,0.781,51.184,53.138,-9.377,14.457,103.541,9.768,39.853,-49.621,-38.681,39.853,-9.377
'[05:22:16.801 14/03/2059]',92.991,80.488,-42.979,-17.973,31.648,170.745,-11.722,-76.972,3.907,96.117,15.238,0.000,50.403,37.118,14.066,13.284,100.415,13.284,43.761,-58.999,-41.026,24.225,14.066
'[05:22:16.805 14/03/2059]',94.164,92.991,-37.118,-25.788,30.476,176.996,3.126,-87.131,-1.563,97.289,26.178,1.954,51.575,40.244,17.582,13.284,99.243,19.536,37.900,-46.496,-47.277,10.549,17.582
'[05:22:16.809 14/03/2059]',91.819,112.137,-37.509,-30.085,25.788,183.639,14.847,-89.084,-9.377,98.071,34.774,6.252,46.496,28.913,33.993,18.364,96.899,35.556,38.291,-74.628,-47.668,3.907,33.993
'[05:22:16.813 14/03/2059]',94.945,121.514,-24.225,-40.635,25.788,194.188,21.880,-89.475,-14.847,100.806,43.370,6.252,44.542,36.728,32.430,19.927,96.899,45.714,25.006,-99.634,-50.012,25.397,32.430
'[05:22:16.816 14/03/2059]',98.462,119.170,2.344,-54.310,23.443,203.565,28.132,-89.084,-21.490,107.448,52.357,6.252,47.668,51.184,23.053,20.317,100.415,51.575,-1.563,-82.833,-51.184,23.834,23.053
'[05:22:16.820 14/03/2059]',100.024,115.653,23.443,-61.734,19.927,209.426,35.556,-86.740,-33.211,112.918,56.264,12.503,45.324,55.482,20.317,25.006,106.667,58.999,-22.662,-75.409,-50.403,17.973,20.317
'[05:22:16.824 14/03/2059]',103.541,116.825,35.946,-68.767,19.536,216.850,42.979,-89.866,-41.026,118.388,61.343,12.112,40.635,58.608,23.053,26.960,107.448,66.032,-35.165,-96.117,-54.310,32.039,23.053
'[05:22:16.828 14/03/2059]',113.309,121.514,44.933,-80.879,24.225,225.836,45.714,-96.117,-42.979,125.421,71.502,7.814,42.979,64.078,26.569,25.788,109.402,68.767,-44.151,-98.852,-62.515,33.211,26.569
'[05:22:16.832 14/03/2059]',121.905,124.640,49.621,-86.349,28.913,230.525,43.761,-92.991,-45.324,128.156,79.707,8.596,44.542,65.250,32.039,27.350,111.746,74.628,-48.840,-92.210,-71.111,19.927,32.039
'[05:22:16.836 14/03/2059]',130.110,125.421,50.012,-86.740,35.556,232.869,41.026,-90.647,-43.761,128.156,86.740,7.814,41.807,64.860,38.681,30.476,110.965,84.005,-49.231,-113.309,-77.363,28.523,38.681
'[05:22:16.840 14/03/2059]',139.487,128.547,49.621,-95.336,47.668,233.260,33.602,-91.819,-39.463,128.547,91.819,1.954,41.807,74.628,35.946,27.741,108.230,85.568,-48.840,-130.501,-84.786,46.105,35.946
'[05:22:16.844 14/03/2059]',148.083,131.282,46.496,-103.150,56.264,232.088,18.364,-83.614,-36.337,130.110,93.773,-0.391,42.589,79.707,36.337,25.006,110.183,82.442,-45.714,-123.077,-93.773,35.946,36.337
'[05:22:16.848 14/03/2059]',148.474,141.050,38.681,-105.495,61.343,228.181,10.940,-76.972,-33.602,131.282,89.084,0.391,37.900,75.018,46.105,25.397,114.481,81.661,-37.900,-132.845,-100.806,25.788,46.105
'[05:22:16.852 14/03/2059]',151.209,164.884,23.443,-113.309,69.548,227.790,16.410,-86.349,-25.397,132.063,85.568,-0.391,35.556,77.363,49.621,25.006,118.388,75.018,-22.662,-164.884,-107.448,35.946,49.621
'[05:22:16.855 14/03/2059]',153.553,174.652,25.788,-120.733,77.363,227.399,21.490,-92.601,-16.020,132.063,84.786,-2.735,37.509,93.382,39.463,23.834,125.031,64.078,-25.006,-165.665,-114.872,46.886,39.463
'[05:22:16.859 14/03/2059]',148.083,175.824,37.509,-119.170,80.098,224.274,24.615,-85.958,-7.033,128.156,78.144,3.907,34.774,92.991,44.542,28.523,133.626,62.515,-36.728,-157.851,-114.481,35.165,44.542
'[05:22:16.863 14/03/2059]',144.567,179.341,47.277,-115.653,85.958,220.366,33.211,-84.005,2.344,122.295,72.283,12.112,32.039,99.243,40.244,35.556,135.971,62.125,-46.496,-169.573,-115.263,48.840,40.244
'[05:22:16.867 14/03/2059]',145.348,173.089,62.515,-119.951,95.336,217.241,44.933,-95.726,13.284,119.170,67.595,12.503,34.774,128.547,12.503,35.946,137.534,53.529,-61.734,-157.851,-119.170,75.018,12.503
'[05:22:16.871 14/03/2059]',143.394,167.228,71.893,-116.825,99.634,208.645,59.389,-101.978,19.145,114.872,57.436,20.317,34.383,89.084,47.277,39.853,136.752,50.012,-71.111,-137.534,-123.468,23.834,47.277
'[05:22:16.875 14/03/2059]',141.050,167.228,69.939,-110.574,101.197,198.877,71.893,-104.713,23.443,105.495,46.886,27.350,30.085,73.065,55.482,43.761,130.110,50.012,-69.158,-149.255,-121.514,15.238,55.482
'[05:22:16.879 14/03/2059]',141.832,169.573,62.515,-110.183,102.759,189.499,77.753,-106.276,27.350,94.164,39.853,28.523,28.913,75.800,39.853,44.151,121.123,43.370,-61.734,-162.930,-121.905,32.430,39.853
'[05:22:16.883 14/03/2059]',141.050,171.526,57.045,-105.885,100.024,176.996,84.396,-97.680,29.304,83.614,35.165,34.774,35.556,59.780,42.979,43.761,115.263,39.463,-56.264,-144.567,-123.858,5.861,42.979
'[05:22:16.887 14/03/2059]',135.580,182.076,45.714,-96.508,92.601,166.447,87.521,-80.488,28.132,73.065,32.821,45.714,38.681,62.906,28.913,48.449,110.574,42.979,-44.933,-149.255,-117.216,5.861,28.913
'[05:22:16.891 14/03/2059]',132.063,182.076,45.324,-91.038,87.131,157.851,88.694,-65.641,28.523,64.860,33.993,51.966,42.198,69.158,13.284,53.529,102.759,44.933,-44.542,-157.851,-117.607,29.304,13.284
'[05:22:16.895 14/03/2059]',128.156,176.996,52.747,-87.521,78.926,149.255,82.833,-41.026,23.834,63.297,37.118,60.171,53.919,50.794,22.271,57.045,98.071,41.416,-51.966,-140.269,-119.560,14.457,22.271
'[05:22:16.898 14/03/2059]',125.031,171.917,57.827,-84.396,69.548,139.878,76.581,-15.238,14.066,64.469,40.635,65.641,50.794,44.151,31.258,57.827,96.508,41.807,-57.045,-118.779,-116.044,-10.159,31.258
'[05:22:16.902 14/03/2059]',123.468,159.023,64.078,-79.316,64.078,127.375,73.846,1.954,13.675,58.608,39.853,69.939,41.026,63.687,17.192,59.389,90.256,43.370,-63.297,-115.263,-119.170,12.112,17.192
'[05:22:16.906 14/03/2059]',126.593,153.553,64.860,-80.098,64.469,112.918,71.111,16.410,8.987,60.952,43.761,67.204,44.151,74.628,7.424,54.310,85.568,40.635,-64.078,-112.918,-119.560,27.350,7.424
'[05:22:16.910 14/03/2059]',127.766,152.381,56.654,-78.144,62.515,94.945,64.078,35.946,5.861,63.297,46.496,64.860,43.370,84.396,3.516,48.059,82.442,39.853,-55.873,-94.164,-126.203,19.536,3.516
'[05:22:16.914 14/03/2059]',126.984,149.255,50.012,-75.018,62.906,77.753,59.780,49.621,7.814,64.469,50.794,63.297,46.105,108.230,-14.066,46.105,78.144,41.807,-49.231,-90.256,-125.031,38.681,-14.066
'[05:22:16.918 14/03/2059]',126.593,151.209,37.509,-70.720,66.032,62.515,59.389,55.092,12.503,70.330,54.701,57.827,55.482,82.442,14.847,41.416,70.720,42.589,-36.728,-111.746,-117.998,28.523,14.847
'[05:22:16.922 14/03/2059]',125.812,152.381,23.834,-67.204,64.078,49.231,61.343,57.827,14.066,80.098,58.608,51.966,58.999,66.422,41.807,36.337,69.158,39.853,-23.053,-105.885,-119.170,6.252,41.807
'[05:22:16.926 14/03/2059]',119.170,137.924,23.053,-54.701,62.125,36.337,55.482,69.939,12.503,82.833,57.436,53.919,54.310,71.893,40.244,39.072,66.422,44.151,-22.271,-91.819,-110.183,4.689,40.244
'[05:22:16.930 14/03/2059]',112.137,125.812,23.053,-44.151,64.860,24.225,50.403,76.190,14.066,85.177,54.310,53.138,54.310,72.674,39.463,39.072,60.952,46.496,-22.271,-95.336,-97.680,18.755,39.463
'[05:22:16.934 14/03/2059]',107.448,110.574,23.443,-41.416,62.125,14.066,53.529,68.376,3.126,87.131,55.482,43.370,46.105,81.270,30.476,30.867,58.217,38.291,-22.662,-69.158,-96.899,21.099,30.476
'[05:22:16.938 14/03/2059]',104.322,92.991,22.662,-37.509,60.171,6.252,51.575,63.297,3.126,85.958,52.357,38.291,42.589,93.773,18.364,25.006,54.701,34.383,-21.880,-43.761,-89.084,19.145,18.364
'[05:22:16.941 14/03/2059]',92.991,86.740,17.582,-33.211,58.217,0.000,46.105,59.389,1.954,85.177,47.668,30.867,36.337,95.336,14.847,18.364,49.231,30.085,-16.801,-53.138,-75.800,34.774,14.847
'[05:22:16.945 14/03/2059]',74.237,88.694,9.377,-31.648,49.621,-4.689,41.026,54.310,0.781,89.084,44.151,21.099,38.681,91.038,14.457,10.159,47.277,19.536,-8.596,-51.575,-68.376,40.244,14.457
'[05:22:16.949 14/03/2059]',62.515,89.475,-0.391,-29.695,40.244,-6.642,34.383,52.747,0.391,94.554,41.026,16.801,46.496,91.038,10.940,3.907,50.794,11.331,1.172,-31.258,-62.515,30.867,10.940
'[05:22:16.953 14/03/2059]',44.542,97.680,-12.112,-19.927,32.039,-8.205,35.165,49.621,-3.126,94.164,38.681,18.364,43.761,84.396,13.675,4.689,54.701,9.768,12.894,-30.476,-52.747,25.788,13.675
'[05:22:16.957 14/03/2059]',34.774,98.852,-25.397,-11.331,25.788,-8.987,34.774,43.370,-8.596,93.382,39.072,17.582,47.277,73.065,15.238,5.079,57.045,3.907,26.178,-40.635,-48.059,34.383,15.238
'[05:22:16.961 14/03/2059]',55.873,83.614,-38.681,-12.894,24.615,-4.298,27.350,38.681,-10.940,92.991,48.449,7.814,40.635,74.628,28.132,-5.470,61.734,-2.735,39.463,-38.681,-45.324,23.443,28.132
'[05:22:16.965 14/03/2059]',57.436,68.376,-41.026,-3.126,22.271,-0.391,12.503,46.496,-10.159,81.270,52.357,12.112,29.304,84.786,24.225,-3.516,63.687,-5.079,41.807,-22.271,-43.370,21.490,24.225
'[05:22:16.969 14/03/2059]',58.217,49.231,-37.900,0.391,21.490,3.516,5.861,37.118,-14.066,76.581,55.092,10.159,30.867,91.038,10.940,-4.689,63.687,-7.814,38.681,-22.662,-37.118,41.807,10.940
'[05:22:16.973 14/03/2059]',57.045,37.118,-38.681,-1.172,17.582,8.205,-1.954,28.913,-21.099,75.018,56.264,3.126,26.178,94.164,4.298,-11.722,62.515,-12.894,39.463,-14.847,-33.602,47.277,4.298
'[05:22:16.977 14/03/2059]',48.840,31.648,-44.151,1.172,8.987,11.722,-17.582,32.821,-29.695,70.720,53.919,2.735,26.178,105.885,-23.053,-11.331,63.297,-13.675,44.933,3.907,-26.960,50.403,-23.053
'[05:22:16.980 14/03/2059]',42.589,26.569,-55.092,8.987,5.079,10.940,-26.569,32.821,-36.728,68.376,46.105,5.079,27.741,58.608,1.954,-6.252,64.078,-12.503,55.873,7.033,-21.099,10.549,1.954
'[05:22:16.984 14/03/2059]',46.496,18.364,-66.422,8.987,2.735,12.894,-33.602,24.225,-39.853,69.158,43.761,-4.298,26.569,42.979,7.814,-10.549,60.562,-16.410,67.204,7.033,-16.801,2.344,7.814
'[05:22:16.988 14/03/2059]',51.184,13.675,-77.363,12.112,1.563,16.020,-41.026,23.443,-37.118,70.330,43.370,-9.768,32.430,39.463,5.861,-12.503,62.515,-19.145,78.144,23.834,-16.801,-7.814,5.861
'[05:22:16.992 14/03/2059]',51.575,14.457,-91.429,26.960,3.516,18.364,-50.403,29.695,-26.960,71.893,40.244,-7.814,43.761,34.383,7.033,-9.377,64.469,-15.238,92.210,16.801,-7.814,-6.642,7.033
'[05:22:16.996 14/03/2059]',54.701,12.503,-105.885,38.291,3.907,18.364,-59.389,35.556,-24.225,74.237,35.165,-9.768,40.635,48.059,-3.126,-10.159,64.469,-16.020,106.667,8.205,-5.079,14.066,-3.126
'[05:22:17.000 14/03/2059]',51.966,19.536,-121.514,45.324,4.689,17.192,-62.125,35.165,-24.615,75.018,30.867,-14.066,37.509,56.654,-13.675,-13.284,66.422,-23.834,122.295,11.722,0.781,13.284,-13.675
'[05:22:17.004 14/03/2059]',40.635,18.755,-125.421,59.780,5.861,12.894,-60.952,34.774,-22.662,72.674,21.880,-12.894,30.867,53.919,-16.020,-10.549,68.376,-28.523,126.203,32.430,2.735,2.735,-16.020
'[05:22:17.008 14/03/2059]',36.337,-16.801,-105.104,73.455,6.642,8.205,-66.032,37.118,-23.053,70.720,9.768,-14.457,17.192,48.449,-16.801,-7.033,63.687,-33.602,105.885,48.059,10.549,10.549,-16.801
'[05:22:17.012 14/03/2059]',46.886,-57.045,-91.819,81.270,7.814,2.735,-69.158,36.337,-17.582,70.720,3.126,-23.834,14.457,50.794,-24.225,-9.377,58.608,-43.761,92.601,58.217,21.099,21.099,-24.225
'[05:22:17.016 14/03/2059]',37.118,-65.250,-85.568,96.899,10.159,-2.344,-66.032,40.635,-5.861,67.595,-1.172,-26.178,21.099,50.794,-30.867,-8.205,57.827,-49.231,86.349,78.144,33.211,10.940,-30.867
'[05:22:17.020 14/03/2059]',3.907,-36.337,-96.117,119.560,11.331,-13.284,-58.217,50.012,3.516,62.515,-9.768,-22.271,23.053,39.072,-28.132,-1.172,56.654,-49.621,96.899,63.687,44.542,7.814,-28.132
'[05:22:17.023 14/03/2059]',-6.642,-15.629,-116.825,136.361,17.582,-29.304,-44.542,52.357,17.582,55.482,-15.629,-24.225,27.741,33.211,-27.350,-1.172,55.482,-55.482,117.607,50.012,39.463,13.675,-27.350
'[05:22:17.027 14/03/2059]',-24.225,-5.470,-111.746,144.176,28.132,-31.648,-50.403,55.482,29.304,47.668,-16.020,-28.132,32.821,39.853,-40.635,-0.391,55.873,-64.469,112.527,49.231,60.952,12.112,-40.635
'[05:22:17.031 14/03/2059]',-52.357,-18.364,-89.866,157.851,28.913,-46.105,-55.482,69.158,35.556,39.072,-23.443,-19.536,33.211,37.509,-45.714,5.079,52.747,-68.376,90.647,106.276,42.589,8.205,-45.714
'[05:22:17.035 14/03/2059]',34.774,-147.302,-66.422,162.930,41.416,-48.840,-73.455,64.078,37.900,33.602,-28.523,-21.490,25.006,37.900,-46.105,3.126,42.198,-73.846,67.204,89.866,71.111,27.350,-46.105
'[05:22:17.039 14/03/2059]',8.596,-132.845,-71.111,163.712,41.416,-60.952,-67.595,54.310,37.900,27.741,-32.821,-25.397,18.755,64.469,-77.753,0.391,26.960,-77.363,71.893,99.243,66.422,55.482,-77.753
'[05:22:17.043 14/03/2059]',12.894,-144.567,-81.270,169.963,38.681,-71.502,-71.111,60.562,41.026,22.271,-39.853,-19.536,22.662,18.755,-41.807,1.954,16.801,-74.628,82.051,103.150,78.535,0.781,-41.807
'[05:22:17.047 14/03/2059]',5.079,-118.779,-119.560,179.341,33.602,-82.833,-70.330,64.469,42.198,17.973,-45.324,-18.364,17.973,3.516,-28.913,2.344,4.298,-67.204,120.342,67.204,80.488,-3.907,-28.913
'[05:22:17.051 14/03/2059]',-44.933,-74.237,-111.746,176.996,26.178,-90.647,-47.668,56.264,44.151,17.582,-40.244,-24.225,20.317,7.033,-31.648,0.391,-5.470,-62.125,112.527,77.753,85.958,-5.470,-31.648
'[05:22:17.055 14/03/2059]',32.430,-192.625,-62.125,175.043,30.867,-76.190,-55.482,52.747,48.840,20.317,-29.304,-25.006,31.258,2.344,-22.271,2.735,-7.814,-52.357,62.906,103.932,111.355,-17.192,-22.271
'[05:22:17.059 14/03/2059]',21.490,-212.552,-35.165,186.764,24.225,-70.720,-55.092,61.734,37.900,21.490,-19.536,-19.536,17.192,15.238,-24.225,9.768,-10.940,-34.383,35.946,113.700,112.137,5.861,-24.225
'[05:22:17.063 14/03/2059]',20.708,-213.724,-19.536,187.937,22.271,-66.422,-44.542,62.906,34.383,25.397,-7.814,-17.973,12.894,28.913,-24.225,14.066,-14.066,-19.145,20.317,96.508,119.560,28.523,-24.225
'[05:22:17.066 14/03/2059]',18.755,-196.142,-21.880,191.453,19.145,-60.562,-33.211,67.204,31.648,27.741,4.689,-12.112,14.847,29.695,-13.284,20.317,-12.503,-5.470,22.662,106.276,109.402,16.801,-13.284
'[05:22:17.070 14/03/2059]',-11.722,-159.023,-26.960,203.565,9.768,-63.687,-18.364,76.190,23.834,26.178,10.940,-0.781,4.689,26.178,-1.954,30.085,-12.112,7.033,27.741,109.011,101.978,7.814,-1.954
'[05:22:17.074 14/03/2059]',-35.556,-135.189,-24.225,208.645,0.391,-69.939,-1.563,82.833,23.053,25.397,15.629,4.689,-1.954,19.536,16.410,35.556,-16.410,17.582,25.006,103.150,94.164,11.331,16.410
'[05:22:17.078 14/03/2059]',-22.271,-159.805,-3.907,205.128,-2.344,-63.687,-0.781,85.568,26.569,27.350,23.834,3.907,1.563,14.457,28.523,37.509,-16.801,19.927,4.689,112.918,98.462,7.424,28.523
'[05:22:17.082 14/03/2059]',-18.364,-175.433,12.894,207.082,-4.689,-58.608,-1.172,90.647,27.350,29.695,24.615,9.377,2.735,33.602,12.112,41.416,-11.722,22.662,-12.112,134.799,103.150,17.582,12.112
'[05:22:17.086 14/03/2059]',-37.118,-166.838,18.364,207.863,-14.066,-59.389,5.861,89.475,28.913,31.648,18.755,13.284,3.907,29.304,16.410,42.198,-6.642,26.960,-17.582,132.063,105.495,23.443,16.410
'[05:22:17.090 14/03/2059]',-41.807,-150.037,15.238,202.393,-17.973,-51.575,14.066,81.270,34.774,34.774,16.020,12.503,14.066,31.258,12.894,39.072,-0.781,26.960,-14.457,114.481,115.653,30.476,12.894
'[05:22:17.094 14/03/2059]',-50.403,-139.487,12.503,199.267,-29.695,-47.668,12.894,85.958,31.258,34.383,9.377,15.629,14.066,61.734,-18.755,33.602,4.298,24.615,-11.722,128.938,120.342,44.542,-18.755
'[05:22:17.098 14/03/2059]',-59.389,-135.971,12.503,196.532,-45.714,-40.635,6.252,92.991,25.006,30.476,1.172,19.145,1.954,28.132,16.020,29.695,5.470,24.225,-11.722,125.421,128.547,1.954,16.020
'[05:22:17.102 14/03/2059]',-66.032,-112.918,0.391,189.890,-53.529,-34.383,11.331,86.740,29.695,29.304,-3.907,16.801,3.907,14.066,31.258,21.490,5.079,20.317,0.391,99.634,130.110,-3.126,31.258
'[05:22:17.105 14/03/2059]',-77.753,-89.475,-8.596,177.778,-63.297,-27.741,12.112,80.098,18.364,28.132,-5.861,13.284,-0.781,16.801,22.662,14.847,5.470,12.894,9.377,95.336,121.514,2.735,22.662
'[05:22:17.109 14/03/2059]',-85.958,-81.270,-4.298,168.791,-70.330,-21.490,7.033,80.879,17.973,26.960,-10.159,14.847,1.172,5.079,31.258,10.940,12.894,11.722,5.079,106.667,110.965,-10.549,31.258
'[05:22:17.113 14/03/2059]',-92.210,-71.502,-3.516,164.103,-70.720,-17.582,0.781,82.442,17.973,28.132,-16.020,19.145,7.033,4.689,26.178,10.159,22.271,8.205,4.298,97.680,108.620,1.563,26.178
'[05:22:17.117 14/03/2059]',-85.568,-67.204,-0.391,147.302,-65.641,-10.159,1.563,67.985,10.940,32.430,-12.894,16.410,14.066,13.284,13.675,4.298,33.602,0.391,1.172,109.011,98.462,9.377,13.675
'[05:22:17.121 14/03/2059]',-61.343,-94.554,0.781,135.971,-67.204,-4.689,-4.689,57.827,6.252,31.258,-19.536,13.675,-4.298,21.880,15.238,-1.172,45.324,-7.814,0.000,117.216,102.759,-8.205,15.238
'[05:22:17.125 14/03/2059]',-57.827,-88.694,-7.814,131.673,-62.125,-7.814,-9.768,56.264,6.252,32.821,-29.695,14.457,-1.954,10.940,16.410,-0.781,50.012,-10.940,8.596,103.932,104.322,-12.503,16.410
'[05:22:17.129 14/03/2059]',-46.886,-89.084,-14.066,120.733,-51.966,-9.377,-12.894,44.933,10.940,33.602,-34.383,7.814,3.907,10.549,7.814,-4.689,48.840,-16.801,14.847,93.382,98.071,-0.391,7.814
'[05:22:17.133 14/03/2059]',-50.794,-86.349,-17.973,110.574,-56.264,-10.159,-14.066,35.165,9.377,29.304,-37.118,2.735,2.735,13.675,-6.252,-4.689,48.059,-18.755,18.755,100.415,95.726,-6.252,-6.252
'[05:22:17.137 14/03/2059]',-61.734,-71.893,-21.099,109.792,-51.966,-13.675,-12.112,30.867,11.722,25.006,-38.291,3.907,10.549,1.954,-7.814,-1.954,44.933,-11.722,21.880,111.746,83.223,-14.457,-7.814
'[05:22:17.141 14/03/2059]',-50.012,-81.270,-18.755,103.150,-41.026,-11.331,-14.066,18.755,13.284,20.708,-36.728,0.391,11.331,-3.126,-9.768,-0.391,35.946,-8.205,19.536,80.488,94.945,1.172,-9.768
'[05:22:17.145 14/03/2059]',-50.403,-74.237,-23.834,93.773,-37.900,-13.284,-14.847,10.549,13.675,16.801,-35.556,-7.424,6.642,-11.722,-4.689,-2.344,28.132,-9.377,24.615,72.674,92.991,-8.987,-4.689
'[05:22:17.148 14/03/2059]',-44.542,-62.125,-33.602,89.475,-27.741,-17.973,-15.629,9.768,23.443,10.940,-37.900,-8.596,13.284,-13.675,-3.907,-7.033,20.708,-9.768,34.383,69.548,97.680,-21.880,-3.907
'[05:22:17.152 14/03/2059]',-42.198,-64.469,-26.960,85.177,-17.582,-23.834,-8.205,1.172,32.039,1.954,-43.370,-8.987,12.112,-10.549,-11.331,-7.814,6.642,-9.768,27.741,60.562,101.978,-7.814,-11.331
'[05:22:17.156 14/03/2059]',-45.714,-64.860,-15.238,76.581,-12.894,-26.178,2.344,-12.894,45.714,-7.033,-44.151,-13.675,13.675,-9.377,-10.940,-12.503,-4.298,-13.675,16.020,61.734,95.336,3.126,-10.940
'[05:22:17.160 14/03/2059]',-58.217,-46.886,-16.410,74.237,-14.847,-27.741,7.814,-14.066,52.747,-21.099,-43.370,-14.066,4.689,12.894,-27.741,-17.192,-13.675,-11.722,17.192,62.515,101.197,13.675,-27.741
'[05:22:17.164 14/03/2059]',-71.893,-61.734,14.066,70.720,-18.364,-26.960,15.629,-18.755,53.529,-35.165,-47.277,-14.066,-11.331,-12.503,-1.563,-16.410,-25.788,-8.205,-13.284,80.098,110.965,-11.331,-1.563
'[05:22:17.168 14/03/2059]',-77.363,-70.330,27.741,67.204,-21.099,-25.788,23.053,-28.132,63.297,-44.542,-50.794,-21.490,-14.847,-29.695,10.549,-19.927,-39.853,-8.205,-26.960,68.767,114.090,-3.907,10.549
'[05:22:17.172 14/03/2059]',-79.707,-66.813,33.993,63.297,-20.317,-23.834,29.695,-33.993,77.363,-50.403,-53.919,-30.085,-7.814,-29.304,6.252,-26.569,-47.668,-11.722,-33.211,74.237,123.468,-3.907,6.252
'[05:22:17.176 14/03/2059]',-91.429,-61.734,36.728,65.250,-24.225,-26.178,30.867,-30.476,82.442,-56.264,-58.217,-30.867,-12.894,-27.741,5.079,-26.178,-54.310,-9.768,-35.946,79.316,128.938,-7.424,5.079
'[05:22:17.180 14/03/2059]',-92.601,-60.171,30.085,70.720,-25.397,-28.913,28.132,-25.006,85.568,-60.562,-59.780,-31.258,-14.847,-22.271,-3.126,-24.225,-58.217,-10.940,-29.304,63.687,126.593,12.894,-3.126
'[05:22:17.184 14/03/2059]',-96.899,-46.496,25.006,70.330,-29.304,-22.271,31.258,-26.569,86.740,-55.482,-51.184,-37.509,-6.642,-16.020,-4.689,-28.913,-52.747,-14.847,-24.225,55.873,135.971,12.503,-4.689
'[05:22:17.188 14/03/2059]',-107.057,-22.271,13.284,71.502,-32.430,-23.053,40.244,-28.132,75.018,-46.886,-40.635,-37.118,-7.424,-12.894,-1.563,-28.132,-42.979,-12.503,-12.503,51.575,137.534,1.172,-1.563
'[05:22:17.191 14/03/2059]',-99.243,-41.416,24.225,74.628,-37.509,-14.847,39.072,-27.350,61.734,-37.118,-28.132,-36.337,-10.549,-14.066,7.424,-22.662,-34.774,-7.033,-23.443,45.714,134.408,10.549,7.424
'[05:22:17.195 14/03/2059]',-96.117,-57.045,42.979,73.455,-41.807,-1.954,38.291,-29.695,52.747,-17.582,-16.020,-41.026,0.000,-20.708,21.490,-23.053,-25.006,-3.516,-42.198,46.105,132.063,18.364,21.490
'[05:22:17.199 14/03/2059]',-90.647,-59.389,58.217,68.767,-42.589,7.424,48.059,-35.946,39.853,0.781,0.000,-42.198,-4.689,6.642,19.536,-23.053,-9.377,3.516,-57.436,72.283,125.031,14.847,19.536
'[05:22:17.203 14/03/2059]',-88.694,-69.158,68.376,77.363,-43.370,12.503,52.747,-33.602,28.913,8.596,7.814,-36.337,-25.397,14.847,33.602,-13.284,0.391,14.847,-67.595,82.051,115.653,9.377,33.602
'[05:22:17.207 14/03/2059]',-85.568,-58.217,64.860,77.363,-39.853,16.801,57.827,-35.946,20.708,21.880,18.755,-38.291,-23.443,18.364,41.026,-11.722,10.159,23.443,-64.078,62.515,111.355,21.490,41.026
'[05:22:17.211 14/03/2059]',-85.958,-33.211,54.310,71.893,-43.370,22.662,60.171,-32.821,12.894,31.258,34.774,-41.026,-17.192,30.476,38.681,-14.066,22.271,28.523,-53.529,56.264,106.667,17.973,38.681
'[05:22:17.215 14/03/2059]',-89.866,-18.364,42.198,69.939,-56.654,31.258,55.873,-27.350,1.563,32.430,47.277,-38.291,-16.020,21.099,49.621,-11.331,34.383,35.946,-41.416,53.529,100.024,-2.735,49.621
'[05:22:17.219 14/03/2059]',-105.885,-18.755,45.714,66.813,-87.521,45.324,61.343,-31.648,-14.066,31.258,55.482,-35.165,-22.271,18.755,51.575,-10.159,40.635,42.979,-44.933,39.853,89.866,10.549,51.575
'[05:22:17.223 14/03/2059]',-106.667,-23.834,58.608,64.078,-101.587,60.562,66.032,-33.602,-19.927,31.648,62.906,-32.430,-18.364,21.490,50.794,-11.722,46.496,46.105,-57.827,46.496,87.131,13.675,50.794
'[05:22:17.227 14/03/2059]',-88.694,-24.225,63.297,62.515,-82.051,60.562,60.562,-26.569,-18.755,30.085,63.687,-25.397,-15.238,20.317,54.310,-10.159,48.840,48.059,-62.515,67.595,75.800,-3.907,54.310
'[05:22:17.230 14/03/2059]',-102.759,-25.788,62.125,65.250,-84.786,48.840,51.184,-16.801,-14.066,27.350,55.092,-17.973,-13.675,20.708,50.403,-7.424,46.886,47.277,-61.343,64.469,73.065,-2.344,50.403
'[05:22:17.234 14/03/2059]',-90.256,-19.145,54.310,57.045,-59.389,34.383,46.105,-19.536,-14.457,25.006,44.542,-21.099,-14.066,20.317,41.807,-14.457,41.026,32.430,-53.529,52.357,66.032,10.940,41.807
'[05:22:17.238 14/03/2059]',-105.495,-7.814,42.979,44.542,-73.846,29.695,40.244,-22.271,-12.503,21.490,37.118,-27.741,-16.020,20.317,36.728,-23.443,36.728,18.755,-42.198,54.310,59.780,1.954,36.728
'[05:22:17.242 14/03/2059]',-119.951,-4.298,39.463,38.291,-96.508,34.774,30.085,-14.847,-17.973,17.192,23.053,-26.569,-26.178,19.536,27.741,-25.788,36.337,14.066,-38.681,46.496,58.608,4.689,27.741
'[05:22:17.246 14/03/2059]',-123.468,-1.563,42.589,35.946,-113.309,44.933,26.569,-4.689,-33.211,12.112,13.284,-21.880,-45.324,20.708,17.192,-21.880,31.648,10.940,-41.807,31.648,57.827,19.145,17.192
'[05:22:17.250 14/03/2059]',-112.137,5.079,46.886,27.350,-120.342,60.562,32.430,-5.861,-23.834,19.145,14.066,-20.317,-26.960,20.317,19.536,-23.443,26.569,9.768,-46.105,44.933,51.575,2.735,19.536
'[05:22:17.254 14/03/2059]',-133.626,11.331,50.012,28.523,-146.129,63.687,37.900,1.172,-56.654,27.350,7.424,-9.768,-44.933,10.549,16.801,-13.675,22.271,12.503,-49.231,57.827,44.933,-13.284,16.801
'[05:22:17.258 14/03/2059]',-118.388,14.066,53.919,30.476,-100.806,32.430,43.761,5.079,-70.720,29.304,1.954,-1.563,-52.747,2.344,14.066,-5.079,7.814,12.112,-53.138,43.370,40.635,-1.563,14.066
'[05:22:17.262 14/03/2059]',-103.150,19.145,51.575,23.053,-55.873,-0.781,47.668,0.391,-55.482,23.834,-1.172,-3.516,-42.979,1.954,13.675,-10.159,-3.126,2.344,-50.794,35.946,34.383,5.470,13.675
'[05:22:17.266 14/03/2059]',-63.687,29.695,45.324,21.099,8.987,-28.913,46.886,5.861,-30.476,8.596,-6.642,-1.172,-32.430,2.735,10.940,-11.331,-11.331,-3.126,-44.542,44.933,33.211,-8.205,10.940
'[05:22:17.270 14/03/2059]',-81.661,32.430,35.946,21.099,-20.317,-27.350,50.403,5.861,-30.476,1.563,-12.894,0.391,-41.416,6.252,4.298,-11.722,-10.159,-3.516,-35.165,35.556,32.821,-2.735,4.298
'[05:22:17.273 14/03/2059]',-110.965,46.496,17.582,19.145,-89.084,5.470,55.092,1.563,-24.615,5.861,-14.847,3.126,-32.430,15.238,5.470,-18.755,-3.126,-3.516,-16.801,8.596,41.026,9.377,5.470
'[05:22:17.277 14/03/2059]',-163.321,50.403,7.814,12.894,-198.486,49.621,54.310,2.344,-54.310,5.861,-15.238,6.642,-53.529,13.675,1.563,-17.973,5.861,-3.126,-7.033,16.020,41.026,-4.689,1.563
'[05:22:17.281 14/03/2059]',-206.691,46.105,13.675,13.284,-277.411,84.005,53.138,7.033,-137.534,13.675,-17.582,20.317,-115.263,8.205,0.391,-12.894,16.020,0.781,-12.894,25.397,44.933,-10.549,0.391
'[05:22:17.285 14/03/2059]',-141.441,32.821,28.523,17.582,-162.149,38.291,54.701,6.642,-111.355,3.516,-18.364,38.291,-87.521,0.391,1.563,-1.172,7.033,0.391,-27.741,7.033,61.734,0.391,1.563
'[05:22:17.289 14/03/2059]',-48.059,24.225,41.807,6.642,-13.675,-10.159,56.264,-6.252,-49.621,-14.066,-14.066,33.993,-41.026,2.344,0.391,-5.861,-19.145,-1.954,-41.026,5.861,66.422,3.907,0.391
'[05:22:17.293 14/03/2059]',-23.834,24.615,41.807,9.768,30.476,-34.383,49.621,7.033,-16.410,-30.476,-13.675,43.370,-14.847,-3.126,1.172,-0.391,-34.383,-1.954,-41.026,15.238,63.297,-14.457,1.172
'[05:22:17.297 14/03/2059]',-10.940,31.648,33.211,13.284,50.403,-46.496,43.370,19.927,20.708,-46.886,-10.159,51.184,10.159,-4.689,4.298,3.126,-44.933,3.126,-32.430,1.563,62.515,-14.457,4.298
'[05:22:17.301 14/03/2059]',-51.575,40.244,17.973,7.033,-42.979,-5.861,47.668,16.410,-14.066,-41.416,-1.954,44.542,-8.205,-6.642,3.126,-1.954,-42.198,3.907,-17.192,-6.642,53.919,-13.284,3.126
'[05:22:17.305 14/03/2059]',-148.474,54.310,-3.516,9.768,-218.803,55.092,50.794,24.615,-88.303,-39.072,4.298,52.747,-64.469,-13.284,5.079,2.344,-21.099,8.596,4.298,-1.954,40.244,-29.695,5.079
'[05:22:17.309 14/03/2059]',-155.897,51.966,-5.470,18.755,-251.233,76.581,47.277,35.946,-128.547,-29.304,11.331,66.032,-85.958,-16.801,11.722,10.159,-4.689,21.490,6.252,-8.205,38.681,-21.880,11.722
'[05:22:17.313 14/03/2059]',-144.176,29.695,2.344,21.490,-246.545,76.972,41.416,36.728,-142.613,-5.861,14.457,66.032,-76.581,-15.238,10.940,12.112,-4.298,28.913,-1.563,-9.768,37.900,-5.861,10.940
'[05:22:17.316 14/03/2059]',-103.541,23.053,8.205,23.834,-151.600,26.960,33.993,42.198,-64.860,-21.490,15.238,65.250,-23.443,-12.894,18.755,11.331,-20.317,25.397,-7.424,11.722,35.556,-19.145,18.755
'[05:22:17.320 14/03/2059]',-18.364,19.145,15.629,26.960,-11.722,-21.099,29.304,47.277,-22.271,-34.383,12.112,66.813,-5.079,-8.205,23.834,11.331,-43.761,26.178,-14.847,25.397,36.728,-25.788,23.834
'[05:22:17.324 14/03/2059]',-7.033,10.159,16.801,28.913,14.066,-38.681,26.178,47.668,-0.781,-42.589,12.503,58.217,5.861,-9.768,23.443,7.424,-56.264,24.615,-16.020,15.238,33.211,-4.689,23.443
'[05:22:17.328 14/03/2059]',-12.894,15.629,5.861,23.834,-3.516,-32.430,20.317,49.621,-3.126,-44.542,17.582,46.496,2.344,-5.861,21.490,-1.172,-51.184,17.973,-5.079,7.424,32.039,-1.563,21.490
'[05:22:17.332 14/03/2059]',-32.821,21.099,-2.735,25.397,-50.012,-8.987,14.847,55.092,-44.933,-37.118,20.708,44.933,-25.788,-7.814,19.927,-1.954,-33.993,15.238,3.516,15.629,30.867,-16.020,19.927
'[05:22:17.336 14/03/2059]',-31.648,7.033,-3.907,28.132,-60.562,-1.172,10.549,51.966,-16.801,-28.913,23.834,43.370,19.927,-14.066,14.066,0.391,-22.662,17.582,4.689,18.364,18.364,-0.781,14.066
'[05:22:17.340 14/03/2059]',0.781,-2.735,0.391,21.880,-11.722,-12.503,7.033,37.900,21.099,-24.225,22.662,33.993,42.198,1.172,13.284,-4.689,-25.397,14.457,0.391,20.317,16.410,2.344,13.284
'[05:22:17.344 14/03/2059]',36.728,-2.344,-1.563,21.099,42.198,-25.788,-1.172,39.853,35.946,-23.443,18.755,35.165,48.449,4.689,15.629,-3.126,-30.476,8.596,2.344,41.416,5.079,-11.722,15.629
'[05:22:17.348 14/03/2059]',36.728,-6.642,-6.642,21.490,32.039,-20.708,-5.079,38.291,25.788,-17.973,17.582,35.946,38.681,7.424,14.066,-0.391,-28.523,12.894,7.424,43.761,0.391,-14.457,14.066
'[05:22:17.352 14/03/2059]',-9.377,-13.675,-12.112,21.490,-36.337,-5.470,1.954,25.006,-8.205,-7.814,19.927,32.039,9.768,14.457,12.112,-1.172,-19.927,14.457,12.894,29.304,-2.735,-0.781,12.112
'[05:22:17.355 14/03/2059]',-34.383,-1.954,-25.788,18.755,-69.158,0.000,1.954,23.443,-25.788,-3.907,25.006,26.569,-3.126,16.020,12.894,-4.689,-13.284,12.112,26.569,14.457,-4.689,0.781,12.894
'[05:22:17.359 14/03/2059]',-35.946,-1.954,-28.132,19.536,-90.256,15.238,-1.563,29.304,-29.304,-9.768,26.960,30.867,-3.126,13.675,10.159,-1.954,-5.861,17.582,28.913,16.020,-3.907,-3.907,10.159
'[05:22:17.363 14/03/2059]',-35.556,-12.112,-12.503,18.364,-82.051,10.549,-5.470,33.602,-24.225,-2.344,33.602,28.523,12.894,14.457,10.549,-3.126,-3.516,28.132,13.284,12.894,-2.735,9.768,10.549
'[05:22:17.367 14/03/2059]',17.192,-4.689,-2.735,9.768,-6.642,-0.391,-3.516,31.258,8.987,-3.907,39.853,26.178,41.416,19.536,15.238,-5.470,-5.079,30.085,3.516,16.410,-5.079,7.814,15.238
'[05:22:17.371 14/03/2059]',41.026,-1.954,7.814,7.424,12.503,8.987,1.954,30.085,7.814,-3.516,46.496,26.960,47.668,11.722,21.880,-4.298,2.344,32.821,-7.033,34.383,-3.516,-12.112,21.880
