'Time and date','FP1-F7','F7-T7','T7-P7','P7-O1','FP1-F3','F3-C3','C3-P3','P3-O1','FP2-F4','F4-C4','C4-P4','P4-O2','FP2-F8','F8-T8','T8-P8','P8-O2','FZ-CZ','CZ-PZ','P7-T7','T7-FT9','FT9-FT10','FT10-T8','T8-P8'
'hh:mm:ss.mmm dd/mm/yyyy','uV','uV','uV','uV','uV','uV','uV','uV','uV','uV','uV','uV','uV','uV','uV','uV','uV','uV','uV','uV','uV','uV','uV'
'[18:01:25.000 07/07/2079]',-69.548,108.230,34.774,-32.039,19.927,-21.490,66.032,-23.053,70.720,7.424,-15.629,-21.490,-32.430,69.939,56.654,-53.138,32.430,-7.814,-33.993,-44.542,112.918,-48.449,56.654
'[18:01:25.004 07/07/2079]',0.391,0.391,0.391,0.391,0.391,0.391,0.391,0.391,0.391,0.391,0.391,0.391,0.391,0.391,0.391,0.391,0.391,0.391,0.391,0.391,0.391,0.391,0.391
'[18:01:25.008 07/07/2079]',0.391,0.781,0.391,0.000,0.391,0.391,0.391,0.391,0.391,0.391,0.391,0.391,0.391,0.391,0.391,0.391,0.391,0.391,0.391,0.391,0.391,0.391,0.391
'[18:01:25.012 07/07/2079]',-1.563,2.735,0.781,-0.781,-0.391,0.391,0.391,0.391,0.391,0.391,0.391,0.391,-0.781,1.563,0.391,0.391,0.391,0.391,0.000,0.391,0.391,0.391,0.391
'[18:01:25.016 07/07/2079]',0.000,-0.781,-1.563,3.907,0.391,-0.391,0.391,0.781,0.391,0.391,0.391,0.781,-0.781,2.735,0.391,0.000,0.391,0.391,2.344,2.344,1.563,0.781,0.391
'[18:01:25.020 07/07/2079]',8.205,-8.205,-0.781,5.079,4.298,0.391,0.391,-0.781,0.781,0.391,0.391,0.391,5.470,-4.298,0.391,0.391,0.391,0.391,1.563,1.172,0.391,1.563,0.391
'[18:01:25.023 07/07/2079]',12.503,-8.596,3.516,-2.344,4.689,3.516,-0.781,-1.954,1.172,0.391,0.391,-0.781,11.722,-13.284,1.563,1.172,0.000,0.391,-2.735,-3.516,-1.563,0.391,1.563
'[18:01:25.027 07/07/2079]',-3.126,4.689,1.954,-5.079,-2.735,0.781,-0.781,1.563,0.391,-0.391,0.000,1.954,0.000,-1.563,0.391,2.344,0.391,0.391,-1.172,-1.563,0.391,-1.172,0.391
'[18:01:25.031 07/07/2079]',-16.020,12.503,-6.252,3.907,-5.861,-4.298,0.781,3.516,-1.172,-0.781,-0.781,3.126,-16.020,17.192,-1.563,0.391,0.391,0.000,7.033,5.079,1.954,0.000,-1.563
'[18:01:25.035 07/07/2079]',0.781,-1.172,-2.735,5.079,1.954,-0.391,1.954,-1.563,1.172,1.172,0.391,-1.172,-1.563,5.079,0.781,-2.344,0.391,0.000,3.516,1.172,0.391,1.954,0.781
'[18:01:25.039 07/07/2079]',33.602,-37.900,0.391,16.410,11.722,7.033,-1.954,-4.298,3.516,2.344,2.344,-0.781,31.258,-27.741,5.861,-1.563,0.000,0.391,0.391,0.781,5.470,3.126,5.861
'[18:01:25.043 07/07/2079]',73.455,-92.210,-17.192,56.264,31.258,3.126,-10.159,-2.735,4.298,-0.781,0.391,8.596,57.045,-52.357,3.126,5.470,-1.172,-1.954,17.973,15.238,13.675,8.987,3.126
'[18:01:25.047 07/07/2079]',109.402,-97.289,-3.126,16.410,46.886,9.377,-11.331,-19.536,6.642,-2.344,-4.689,0.391,81.270,-97.289,1.563,14.066,-6.252,-5.861,3.907,-12.894,-10.549,7.033,1.563
'[18:01:25.051 07/07/2079]',105.885,-98.462,-10.159,16.020,30.085,17.973,-17.973,-17.192,13.675,-1.954,-2.735,5.861,89.084,-103.932,19.536,9.377,-5.470,-8.205,10.940,-15.629,-2.344,-2.735,19.536
'[18:01:25.055 07/07/2079]',57.436,-78.144,-23.443,31.648,8.596,7.814,-21.099,-6.642,4.689,-10.159,-8.205,23.053,54.701,-71.502,5.470,21.099,-7.814,-10.549,24.225,-1.954,7.814,0.391,5.470
'[18:01:25.059 07/07/2079]',48.059,-63.297,-23.834,16.801,1.172,12.503,-16.801,-19.145,5.861,-3.126,-14.457,9.768,48.059,-72.674,12.894,8.987,-10.549,-14.847,24.615,-16.020,4.298,-2.344,12.894
'[18:01:25.063 07/07/2079]',47.277,-76.190,-8.987,26.569,-7.424,17.192,-9.768,-10.940,14.457,4.689,-11.331,9.768,67.595,-72.283,16.410,5.079,-8.596,-13.675,9.768,-19.536,23.834,-0.781,16.410
'[18:01:25.066 07/07/2079]',61.343,-102.759,-15.629,23.443,-1.172,8.205,-21.099,-18.364,3.126,0.391,-18.364,10.159,72.283,-87.131,7.424,2.735,-13.675,-16.801,16.410,1.563,25.788,-3.126,7.424
'[18:01:25.070 07/07/2079]',67.985,-75.409,-16.410,-10.159,15.238,0.000,-17.582,-31.258,6.642,0.391,-23.053,4.689,55.092,-67.985,-9.768,11.331,-14.066,-17.582,17.192,-4.689,-3.907,3.516,-9.768
'[18:01:25.074 07/07/2079]',63.297,-51.184,-21.490,-25.788,14.066,-10.549,-5.079,-33.211,11.722,0.000,-14.457,-7.814,48.449,-32.821,-10.159,-16.020,-14.847,-17.582,22.271,-21.490,-0.391,12.112,-10.159
'[18:01:25.078 07/07/2079]',64.078,-48.059,-2.344,-34.774,24.225,2.735,-14.457,-32.430,11.722,-4.689,-3.907,6.252,57.436,-44.933,-1.172,-1.172,-10.159,-14.066,3.126,-9.768,-4.689,8.987,-1.172
'[18:01:25.082 07/07/2079]',67.595,-63.297,-12.503,-14.847,25.788,7.424,-27.741,-28.913,11.722,-6.252,-4.298,7.814,60.952,-46.105,-8.596,3.516,-7.814,-14.457,13.284,-5.079,-6.642,12.894,-8.596
'[18:01:25.086 07/07/2079]',62.515,-61.343,-21.490,18.364,23.834,3.516,-18.364,-10.159,14.457,-1.563,-3.907,13.675,51.575,-51.575,12.894,8.987,-7.033,-11.722,22.271,-21.880,8.205,3.126,12.894
'[18:01:25.090 07/07/2079]',82.051,-88.694,-14.847,10.159,23.053,3.516,-23.834,-14.066,6.642,-2.344,-6.642,9.377,38.681,-44.151,1.172,10.940,-10.159,-13.675,15.629,9.377,-16.801,11.722,1.172
'[18:01:25.094 07/07/2079]',101.978,-100.415,-26.960,0.781,26.569,5.079,-29.695,-26.569,7.424,1.954,-4.298,4.298,38.681,-35.165,10.940,-4.689,-8.987,-9.768,27.741,17.582,-35.165,18.364,10.940
'[18:01:25.098 07/07/2079]',97.680,-98.462,-19.536,7.424,29.695,5.079,-14.066,-33.211,1.172,3.516,-3.126,-2.344,41.416,-21.490,1.172,-21.490,-6.642,-4.689,20.317,0.391,0.781,33.602,1.172
'[18:01:25.102 07/07/2079]',59.780,-48.840,-24.225,4.298,26.960,-5.861,-4.689,-24.615,2.344,3.907,-2.735,8.987,36.728,5.861,-19.536,-9.768,-3.516,-3.126,25.006,-6.642,1.172,52.357,-19.536
'[18:01:25.105 07/07/2079]',29.695,-30.085,-8.205,3.907,29.304,5.470,-13.675,-25.006,12.112,5.470,-8.987,-7.814,41.026,-18.755,-4.689,-15.238,5.079,-4.298,8.987,2.735,27.350,3.126,-4.689
'[18:01:25.109 07/07/2079]',21.099,-38.681,-19.536,46.886,21.880,2.735,-9.377,-4.689,15.238,7.033,-7.424,10.549,41.026,-21.880,0.391,6.252,6.642,-0.391,20.317,-10.549,50.403,3.907,0.391
'[18:01:25.113 07/07/2079]',23.834,-34.774,-42.589,49.621,7.033,-8.205,-3.126,0.391,14.457,-1.172,-15.629,10.159,28.523,-39.853,-23.834,42.979,0.391,-5.079,43.370,-15.629,8.987,-1.954,-23.834
'[18:01:25.117 07/07/2079]',44.151,-57.436,2.344,9.377,5.861,5.079,-4.689,-6.642,17.582,1.172,-13.284,-14.066,32.821,-35.946,0.000,-4.689,-1.563,-5.861,-1.563,-0.391,0.000,-1.954,0.000
'[18:01:25.121 07/07/2079]',55.482,-56.264,5.079,11.331,2.735,17.973,-0.391,-4.689,19.927,6.642,-2.344,14.066,18.364,-4.689,3.516,21.490,3.516,3.516,-4.298,-7.814,-19.927,26.178,3.516
'[18:01:25.125 07/07/2079]',39.463,-17.973,-14.847,1.563,10.549,11.331,1.563,-14.847,10.940,0.391,-7.814,3.126,20.708,-24.615,3.907,6.642,0.391,0.781,15.629,-28.913,-10.159,13.675,3.907
'[18:01:25.129 07/07/2079]',31.648,-14.457,-2.735,9.377,29.304,9.377,-1.172,-13.284,15.238,3.516,0.781,16.410,32.430,-30.085,23.834,11.331,3.516,2.735,3.516,-16.020,10.940,1.172,23.834
'[18:01:25.133 07/07/2079]',42.198,-10.549,9.377,18.364,40.244,13.675,1.954,3.126,20.708,6.642,10.159,26.178,41.026,-24.225,20.708,27.350,12.503,12.112,-8.596,-24.225,8.987,6.642,20.708
'[18:01:25.137 07/07/2079]',25.788,-7.814,14.457,12.112,21.880,1.954,9.377,10.159,14.066,2.735,13.284,25.788,26.178,-14.066,13.284,31.258,10.940,12.503,-13.675,-28.132,16.801,6.642,13.284
'[18:01:25.141 07/07/2079]',33.211,-17.192,15.629,3.126,8.987,2.344,12.112,10.549,15.238,1.563,7.033,27.741,22.271,5.861,-19.536,44.542,9.377,7.424,-14.847,-12.894,-3.907,17.973,-19.536
'[18:01:25.145 07/07/2079]',48.840,-45.714,23.834,-26.178,-0.391,27.741,-7.033,-19.536,12.503,11.331,7.814,5.079,15.629,13.675,-1.954,10.549,12.112,2.344,-23.053,0.391,-31.648,30.867,-1.954
'[18:01:25.148 07/07/2079]',51.575,-50.012,9.768,-10.549,0.391,32.430,-14.066,-16.801,1.172,6.252,5.079,3.516,19.536,14.457,-20.317,3.907,7.424,-1.172,-8.987,-2.735,-10.940,34.383,-20.317
'[18:01:25.152 07/07/2079]',43.761,-37.509,-25.006,7.424,5.470,19.927,-17.973,-18.755,0.391,2.344,0.391,11.722,19.536,-5.079,1.172,0.781,2.344,-5.861,25.788,-10.940,4.689,12.112,1.172
'[18:01:25.156 07/07/2079]',42.589,-19.145,-22.662,-0.391,32.430,5.079,-14.066,-23.053,4.689,9.377,3.126,1.563,16.020,7.424,12.503,-16.020,4.298,-6.252,23.443,-16.801,13.675,7.424,12.503
'[18:01:25.160 07/07/2079]',61.734,-21.490,-7.424,27.741,41.807,7.033,1.954,8.596,12.503,11.331,17.192,13.675,32.039,6.252,17.582,0.391,11.331,3.907,8.205,-14.066,10.940,8.205,17.582
'[18:01:25.164 07/07/2079]',64.860,-36.337,-23.443,41.807,19.145,10.159,2.344,13.675,13.284,13.284,3.126,21.880,33.993,-25.788,12.894,30.867,11.722,0.781,24.225,-7.424,-28.523,5.079,12.894
'[18:01:25.168 07/07/2079]',42.589,-9.768,-5.079,5.861,29.304,19.145,-6.642,-8.596,22.662,19.145,-0.391,5.861,37.118,-13.675,7.424,15.629,16.020,-3.516,5.861,-4.689,-15.238,2.344,7.424
'[18:01:25.172 07/07/2079]',35.556,10.549,1.172,-17.973,23.443,41.807,-11.331,-25.397,19.145,23.443,7.424,-7.033,19.536,16.020,8.205,0.391,21.490,-1.563,-0.391,-10.549,-35.556,23.443,8.205
'[18:01:25.176 07/07/2079]',46.886,-10.549,-20.317,0.391,12.503,29.695,-12.503,-13.675,6.252,7.814,-0.781,5.470,17.582,-3.126,-11.722,17.582,12.894,-7.033,21.099,-4.689,-53.138,25.006,-11.722
'[18:01:25.180 07/07/2079]',37.900,-14.066,-20.317,-3.516,12.894,14.066,-4.689,-23.053,-0.781,7.033,0.781,5.470,19.145,3.516,-1.172,-8.205,5.861,-5.470,21.099,-8.987,-11.331,23.443,-1.172
'[18:01:25.184 07/07/2079]',55.873,1.954,-30.867,1.954,26.569,4.298,5.861,-7.814,6.642,13.675,7.814,14.457,25.397,17.192,5.861,-3.907,10.549,0.000,31.648,-27.350,-19.145,30.867,5.861
'[18:01:25.188 07/07/2079]',81.661,-53.919,-35.165,37.509,7.033,-12.894,9.768,26.178,-4.298,2.344,-7.424,39.853,7.424,5.079,-14.457,32.430,2.735,-0.391,35.946,8.987,-39.853,23.834,-14.457
'[18:01:25.191 07/07/2079]',66.422,-36.728,-35.946,11.331,8.987,1.954,-2.344,-2.735,4.689,5.861,-9.768,23.834,8.596,1.954,-4.298,19.145,2.344,-1.954,36.728,-4.298,-28.913,16.020,-4.298
'[18:01:25.195 07/07/2079]',46.105,11.722,-9.768,7.424,36.728,19.145,-1.563,1.563,25.397,18.364,1.172,15.238,22.662,20.317,1.954,16.410,12.112,6.642,10.549,-19.145,-19.927,23.053,1.954
'[18:01:25.199 07/07/2079]',40.635,-8.596,1.563,6.252,33.211,30.085,-23.053,0.391,16.020,7.814,-5.079,10.159,24.615,-7.424,-4.298,17.973,12.894,1.563,-0.781,-1.954,-34.774,17.973,-4.298
'[18:01:25.203 07/07/2079]',30.867,-1.563,-18.755,-9.377,21.490,10.549,-12.503,-18.364,9.768,6.252,-5.470,-9.768,19.927,-5.079,-7.424,-4.689,8.987,-3.126,19.536,-9.377,-26.569,10.940,-7.424
'[18:01:25.207 07/07/2079]',42.589,12.112,-29.304,-11.331,33.993,9.768,-11.331,-17.973,12.112,13.675,-5.470,-15.629,20.708,-6.252,-1.172,-6.252,10.549,-4.298,30.085,-37.900,-4.689,-2.344,-1.172
'[18:01:25.211 07/07/2079]',49.621,-1.563,-41.026,7.033,31.258,10.159,-19.145,-8.596,5.079,11.331,-7.033,-7.424,23.443,-25.397,2.344,1.954,12.503,-10.940,41.807,-27.741,-7.033,-14.457,2.344
'[18:01:25.215 07/07/2079]',69.158,-33.993,-48.840,18.755,22.662,-0.391,-5.861,-10.549,-3.516,7.424,-1.172,-11.722,19.927,-2.344,-25.788,0.391,7.033,-11.331,49.621,-18.755,-17.582,17.582,-25.788
'[18:01:25.219 07/07/2079]',25.788,20.708,-36.728,34.774,17.973,10.549,5.861,10.549,6.252,14.066,12.112,6.252,24.225,36.337,-22.271,1.563,10.549,0.391,37.509,-45.714,10.940,49.231,-22.271
'[18:01:25.223 07/07/2079]',-9.768,14.847,0.391,39.463,10.159,13.675,-4.689,26.569,1.172,3.516,4.689,29.695,17.582,39.463,-35.165,18.364,13.284,2.344,0.391,-9.377,22.271,42.979,-35.165
'[18:01:25.227 07/07/2079]',23.443,-9.377,19.145,11.331,19.927,16.410,0.781,7.424,-1.563,3.907,12.112,13.675,25.788,21.880,-26.178,7.424,10.940,6.642,-18.364,-8.596,21.880,27.741,-26.178
'[18:01:25.230 07/07/2079]',17.973,13.675,-6.642,10.940,20.708,14.847,0.781,0.000,-1.954,3.126,1.563,3.126,32.430,-4.689,-33.602,10.549,8.205,6.642,7.424,-32.039,35.556,9.768,-33.602
'[18:01:25.234 07/07/2079]',36.728,-0.781,-3.126,11.331,33.602,10.159,-0.781,0.391,1.172,8.205,-2.344,6.642,25.006,-43.761,4.298,28.913,8.987,3.907,3.907,-44.933,39.853,-33.211,4.298
'[18:01:25.238 07/07/2079]',45.324,-13.284,-5.861,0.781,35.946,-4.689,1.954,-7.814,-0.391,11.722,1.172,-11.331,14.066,-27.350,1.563,12.894,8.987,0.391,6.642,-23.053,7.814,-18.755,1.563
'[18:01:25.242 07/07/2079]',37.900,-17.582,-13.284,4.298,25.788,11.331,-9.377,-17.582,-3.126,5.861,-1.954,-3.126,7.814,-20.317,-12.503,21.880,7.814,0.391,14.066,-25.006,8.596,-4.689,-12.503
'[18:01:25.246 07/07/2079]',27.741,-5.079,-16.410,1.954,16.020,19.145,-12.503,-14.457,5.079,7.814,-0.391,2.735,15.629,-5.861,-7.424,14.847,11.331,-0.391,17.192,-39.463,22.271,1.563,-7.424
'[18:01:25.250 07/07/2079]',41.416,-22.271,-18.364,-12.894,9.768,17.973,-19.145,-21.490,0.781,5.470,-0.391,-9.377,21.099,-12.112,-8.596,-2.735,11.331,-5.079,19.145,-8.596,-22.662,11.722,-8.596
'[18:01:25.254 07/07/2079]',15.238,11.722,-42.979,-7.424,0.781,10.940,-14.066,-20.317,-1.172,2.735,-6.642,-0.391,18.755,1.954,-26.569,0.000,9.377,-3.907,43.761,-30.476,29.695,0.781,-26.569
'[18:01:25.258 07/07/2079]',11.331,14.066,-69.158,8.596,0.391,-5.079,-8.987,-20.708,0.391,0.391,-7.424,-14.847,18.364,-16.410,-9.768,-13.675,2.344,-8.596,69.939,-33.993,36.728,-14.847,-9.768
'[18:01:25.262 07/07/2079]',26.178,-23.053,-45.324,2.344,14.847,-21.099,-10.940,-21.880,2.735,0.000,-10.940,-9.377,17.973,-31.258,6.252,-11.331,-2.344,-12.503,46.105,8.596,5.470,-21.099,6.252
'[18:01:25.266 07/07/2079]',35.165,-32.430,-54.701,9.377,20.317,-18.755,-20.708,-22.662,0.391,-5.079,-15.629,-8.596,21.099,-16.410,-19.145,-13.675,-8.205,-12.112,55.482,1.954,17.582,-2.735,-19.145
'[18:01:25.270 07/07/2079]',28.132,-42.198,-37.509,-0.391,17.582,-15.238,-26.569,-28.523,4.689,-7.033,-20.708,-15.629,11.722,-0.781,-34.774,-14.457,-11.331,-13.675,38.291,12.503,9.768,11.331,-34.774
'[18:01:25.273 07/07/2079]',35.165,-35.946,-39.463,-15.629,15.238,-8.205,-25.788,-36.337,10.159,-2.735,-25.788,-16.410,12.112,8.987,-37.900,-17.192,-8.987,-16.801,40.244,5.470,14.847,6.642,-37.900
'[18:01:25.277 07/07/2079]',35.556,-35.556,-40.244,-14.457,3.516,-2.344,-23.053,-32.821,7.814,-3.126,-19.927,-12.894,18.755,19.145,-47.277,-18.755,-6.642,-16.410,41.026,5.079,12.894,19.927,-47.277
'[18:01:25.281 07/07/2079]',28.523,-39.463,-48.840,7.424,-1.563,-1.563,-20.317,-27.350,1.563,-10.159,-22.662,-9.377,31.258,-19.145,-50.794,-3.126,-8.596,-17.192,49.621,5.079,32.430,-2.735,-50.794
'[18:01:25.285 07/07/2079]',21.490,-31.648,-44.933,-0.391,-3.126,-6.642,-18.364,-25.397,-0.391,-8.987,-26.960,-14.066,20.317,-33.211,-35.556,-3.516,-9.377,-22.271,45.714,8.596,1.172,-8.205,-35.556
'[18:01:25.289 07/07/2079]',11.722,-17.582,-44.933,-5.079,0.000,-10.549,-16.410,-27.741,-0.781,-8.596,-17.973,-19.927,7.424,-5.861,-28.913,-20.317,-8.205,-21.880,45.714,26.178,-22.662,0.391,-28.913
'[18:01:25.293 07/07/2079]',25.397,-22.271,-34.774,0.781,11.331,-3.907,-17.582,-20.317,0.391,-6.252,-10.159,0.391,19.927,-6.642,-26.178,-2.735,-4.298,-13.284,35.556,19.536,-16.801,5.470,-26.178
'[18:01:25.297 07/07/2079]',21.490,-5.470,-14.457,-19.927,16.020,1.954,-14.847,-22.662,-1.954,-5.079,-12.894,-5.079,16.410,4.689,-34.383,-12.503,-2.735,-8.987,15.238,-3.907,-10.549,21.099,-34.383
'[18:01:25.301 07/07/2079]',33.602,2.735,-4.689,-24.225,22.271,10.549,-7.033,-19.145,8.596,3.516,5.470,5.861,23.443,21.880,0.391,-19.145,3.907,0.391,5.470,-10.159,-0.391,20.708,0.391
'[18:01:25.305 07/07/2079]',22.271,-7.033,-1.563,-0.781,12.112,6.642,-7.814,0.391,8.596,7.033,-1.172,16.410,21.490,8.987,11.722,-9.768,2.735,2.344,2.344,-3.126,9.377,11.722,11.722
'[18:01:25.309 07/07/2079]',16.801,-12.894,4.689,-2.344,7.814,3.907,-4.689,-0.781,2.735,3.907,-9.768,5.470,12.894,-4.689,-0.781,-3.126,-1.563,0.781,-3.907,-7.424,11.331,7.033,-0.781
'[18:01:25.313 07/07/2079]',25.397,8.205,-21.490,-7.424,12.112,6.642,-2.344,-11.722,9.768,12.894,-6.642,-15.629,17.582,0.000,5.861,-21.099,0.000,-3.126,22.271,-21.880,2.735,3.907,5.861
'[18:01:25.316 07/07/2079]',31.648,-2.344,-25.397,8.596,19.536,4.298,-5.861,-5.861,13.675,14.066,-10.549,-3.126,32.039,-22.271,4.689,-0.781,3.907,-3.126,26.178,3.126,-10.159,-7.424,4.689
'[18:01:25.320 07/07/2079]',22.271,23.443,-20.708,-5.861,25.397,0.781,0.391,-8.205,13.675,11.722,-14.847,-7.424,23.053,-11.722,-3.126,-4.298,8.205,-0.781,21.490,-23.443,6.252,-5.861,-3.126
'[18:01:25.324 07/07/2079]',24.615,34.774,-19.927,-12.894,28.913,3.907,5.079,-13.284,15.238,10.549,-7.033,-10.159,12.503,21.490,-17.582,-7.033,10.940,0.000,20.708,-31.258,-7.814,24.615,-17.582
'[18:01:25.328 07/07/2079]',21.099,12.503,5.079,7.814,25.397,9.768,3.907,6.252,22.271,12.503,-2.344,8.987,25.006,21.880,-5.861,1.954,14.066,3.126,-4.298,-6.252,-6.252,29.695,-5.861
'[18:01:25.332 07/07/2079]',16.020,-8.205,17.192,1.563,14.847,12.894,-0.781,0.000,12.894,7.814,-5.861,-1.563,23.443,16.801,-14.457,-11.722,7.033,1.172,-16.410,-0.391,8.205,29.695,-14.457
'[18:01:25.336 07/07/2079]',4.689,-1.954,0.000,-7.033,4.298,7.814,-6.642,-9.768,8.205,1.563,-12.112,-9.377,7.814,20.708,-26.569,-13.284,0.000,-3.126,0.781,2.344,-12.503,35.946,-26.569
'[18:01:25.340 07/07/2079]',10.940,4.298,-3.907,-12.112,10.159,10.159,-6.642,-13.284,16.020,8.596,-12.112,-4.689,14.457,11.331,-3.907,-13.284,0.781,-1.954,4.689,11.331,-14.457,13.284,-3.907
'[18:01:25.344 07/07/2079]',12.894,-2.344,-2.735,-7.814,6.252,8.596,-6.642,-8.596,4.689,2.735,-16.020,-9.377,18.364,-16.410,-6.642,-11.331,-0.391,-2.344,3.516,9.377,6.252,-12.894,-6.642
'[18:01:25.348 07/07/2079]',25.397,-1.954,-26.178,0.781,11.722,5.079,-3.516,-14.847,1.954,5.861,-6.252,-6.642,16.410,9.768,-9.377,-20.708,-0.781,1.172,26.960,-9.377,3.516,18.364,-9.377
'[18:01:25.352 07/07/2079]',8.987,4.689,0.391,-1.172,5.861,3.516,3.907,-1.563,-2.735,6.642,1.954,3.126,0.391,21.880,0.391,-12.112,0.781,4.689,0.391,-5.861,1.172,19.927,0.391
'[18:01:25.355 07/07/2079]',6.252,-0.391,-5.861,-1.954,-2.735,3.907,-2.344,-0.781,-4.298,3.907,3.126,0.391,1.172,39.463,-21.099,-15.238,0.391,1.563,6.642,7.424,7.033,19.927,-21.099
'[18:01:25.359 07/07/2079]',15.629,-11.722,0.391,-12.894,-0.781,6.642,-5.079,-8.205,-3.516,1.563,2.735,-2.344,5.079,10.940,1.563,-19.145,-2.344,1.954,0.391,3.516,-3.126,9.377,1.563
'[18:01:25.363 07/07/2079]',16.410,-21.880,0.391,-5.861,-1.172,3.907,-5.079,-8.205,1.563,-0.781,-2.735,4.689,15.629,-7.814,0.781,-5.470,-3.516,0.391,0.391,3.516,-0.781,8.596,0.781
'[18:01:25.367 07/07/2079]',19.536,-5.079,-2.735,7.814,2.344,8.205,-1.563,10.159,9.768,1.172,-3.907,17.192,32.039,-6.642,-1.563,2.344,0.781,3.516,3.516,-9.377,14.066,8.596,-1.563
'[18:01:25.371 07/07/2079]',-0.391,-6.252,5.861,24.615,-4.689,0.000,3.907,24.615,6.252,-1.563,-5.470,23.834,17.582,4.689,-8.987,10.159,0.000,4.689,-5.079,-9.768,17.973,23.053,-8.987
'[18:01:25.375 07/07/2079]',1.563,-10.159,16.410,20.317,-1.172,-4.689,12.112,21.880,0.781,-1.954,-1.954,20.317,8.205,25.397,-19.536,2.735,-3.516,5.470,-15.629,-2.344,7.814,42.979,-19.536
'[18:01:25.379 07/07/2079]',3.516,-11.331,6.252,23.053,-4.298,-3.126,7.033,21.880,0.000,-0.391,-3.516,18.755,8.205,25.788,-23.443,3.907,-6.252,2.344,-5.470,7.814,-3.126,39.463,-23.443
'[18:01:25.383 07/07/2079]',12.503,-23.834,14.066,4.689,-6.642,0.000,0.391,14.457,-3.907,-1.172,-7.424,2.735,13.284,-17.582,7.033,-14.066,-9.377,-0.781,-13.284,21.490,-14.066,1.954,7.033
'[18:01:25.387 07/07/2079]',17.973,-13.675,1.954,-11.331,-2.344,-3.126,-3.516,5.470,-1.563,-0.781,-12.112,2.344,9.768,-5.861,5.079,-21.490,-13.675,-0.391,-1.172,16.410,-23.834,10.159,5.079
'[18:01:25.391 07/07/2079]',19.927,10.940,-14.066,-8.205,0.000,0.781,0.000,7.033,4.689,-1.563,-12.112,12.112,18.755,12.112,-11.722,-14.847,-10.159,0.391,14.847,-5.861,-0.781,13.675,-11.722
'[18:01:25.395 07/07/2079]',15.238,22.662,-2.735,-18.364,-8.205,5.861,5.861,12.503,3.907,-1.172,-11.722,10.940,26.960,11.722,-20.317,-15.629,-9.377,0.781,3.516,-5.861,4.689,7.424,-20.317
'[18:01:25.398 07/07/2079]',19.145,16.020,-3.516,-7.814,-9.377,3.516,12.894,15.629,5.079,-3.907,-8.596,13.675,36.728,38.681,-48.840,-19.145,-9.768,5.470,4.298,-23.053,32.430,37.118,-48.840
'[18:01:25.402 07/07/2079]',4.298,23.053,-8.987,9.768,-12.112,0.781,18.755,19.927,8.596,-1.954,-11.722,19.145,37.118,22.271,-35.165,-9.377,-7.424,6.252,9.768,-31.648,37.900,31.648,-35.165
'[18:01:25.406 07/07/2079]',4.689,7.424,-12.112,18.364,-10.549,-1.172,9.377,20.708,4.689,-2.344,-16.020,13.675,27.741,-5.470,-16.410,-4.689,-9.377,2.344,12.894,-7.424,22.662,6.642,-16.410
'[18:01:25.410 07/07/2079]',1.172,-32.430,-1.563,43.761,-14.847,-5.079,3.126,27.741,-1.172,-4.689,-16.410,14.847,34.383,-36.728,4.298,-9.377,-12.112,1.954,2.344,9.768,40.244,-10.159,4.298
'[18:01:25.414 07/07/2079]',6.252,-19.927,1.563,39.463,-7.424,1.563,4.689,27.741,2.344,-3.907,-16.020,26.569,44.933,-42.979,3.907,3.126,-8.205,8.987,-0.781,0.781,24.225,0.000,3.907
'[18:01:25.418 07/07/2079]',1.172,-7.424,5.861,9.377,-13.675,3.126,3.907,15.238,3.126,-7.814,-18.755,15.238,44.542,-34.774,-12.894,-3.516,-10.159,4.298,-5.079,8.596,36.337,-20.317,-12.894
'[18:01:25.422 07/07/2079]',0.391,9.768,4.298,-21.099,-23.443,8.205,5.079,3.126,-3.126,-10.549,-17.582,0.391,28.523,-21.099,-25.006,-13.284,-9.768,3.907,-3.516,8.596,17.582,-26.569,-25.006
'[18:01:25.426 07/07/2079]',15.629,15.629,-4.298,-16.801,-4.298,6.642,7.033,0.391,-3.126,-7.814,-9.768,10.159,28.132,1.954,-42.198,1.563,-5.079,11.331,5.079,-8.596,8.596,6.252,-42.198
'[18:01:25.430 07/07/2079]',23.834,3.907,-12.894,-16.410,6.642,-0.781,5.470,-13.284,-3.907,-5.861,-8.596,0.391,18.755,-25.006,-16.410,3.516,-6.252,7.424,13.675,1.954,-16.020,-8.596,-16.410
'[18:01:25.434 07/07/2079]',28.132,-10.159,-3.907,-22.662,3.907,-1.563,-0.391,-11.722,-14.457,-8.987,-10.940,1.172,11.722,-43.370,-8.596,6.252,-5.861,3.516,4.689,16.410,-29.304,-22.271,-8.596
'[18:01:25.438 07/07/2079]',17.582,-4.689,-2.344,-5.861,12.112,-8.987,3.126,-4.298,-10.940,-0.391,-1.172,10.940,5.079,-23.834,17.973,-1.172,0.781,11.722,3.126,16.410,-21.490,-8.205,17.973
'[18:01:25.441 07/07/2079]',17.192,14.066,-7.424,-0.781,13.284,-3.907,12.894,0.391,-1.954,1.172,-0.391,6.642,10.159,-14.847,20.317,-9.768,1.563,13.284,8.205,-2.735,-11.331,-3.907,20.317
'[18:01:25.445 07/07/2079]',7.033,12.894,0.781,-0.391,-1.563,14.847,8.205,-1.172,-4.689,-2.735,3.126,6.642,16.410,-32.821,24.225,-3.516,1.563,14.847,0.000,-1.954,10.159,-29.695,24.225
'[18:01:25.449 07/07/2079]',11.331,9.768,-20.708,21.490,-2.344,17.973,-3.126,9.377,-12.112,-8.205,3.516,6.642,14.847,-35.946,7.033,3.126,0.781,13.675,21.490,-12.112,3.907,-14.847,7.033
'[18:01:25.453 07/07/2079]',2.735,0.391,-23.834,19.536,-3.907,5.861,-4.298,1.954,-15.238,-13.675,1.172,8.205,1.954,-29.695,0.391,7.814,-2.735,11.331,24.615,-1.954,-7.424,-10.549,0.391
'[18:01:25.457 07/07/2079]',-2.344,2.735,12.894,-29.695,-8.596,11.722,-3.126,-15.238,-16.410,-17.192,-2.344,1.172,-1.172,-41.026,-3.907,10.159,-4.689,6.252,-12.112,8.205,-7.424,-35.556,-3.907
'[18:01:25.461 07/07/2079]',3.126,8.596,8.987,-32.039,-3.516,11.722,-1.954,-17.192,-9.377,-6.252,-2.735,-5.861,1.563,-19.536,-7.814,0.391,1.172,5.861,-8.205,13.284,-16.410,-23.053,-7.814
'[18:01:25.465 07/07/2079]',11.722,4.689,12.894,-26.178,2.344,18.364,0.781,-17.973,-4.298,-3.126,-1.563,-9.377,16.020,-18.755,-0.781,-15.238,3.516,8.987,-12.112,0.391,0.000,-12.112,-0.781
'[18:01:25.469 07/07/2079]',-7.033,32.821,35.556,-13.284,-0.391,30.085,12.112,5.470,-1.172,0.391,7.814,9.768,7.814,14.066,0.000,-4.298,10.549,17.973,-34.774,-21.880,7.033,17.973,0.000
'[18:01:25.473 07/07/2079]',-4.298,35.556,13.284,8.205,1.172,25.006,7.814,17.582,-3.516,-3.907,12.503,18.364,-0.391,26.960,-3.126,0.391,11.722,16.410,-12.503,-19.927,8.205,23.053,-3.126
'[18:01:25.477 07/07/2079]',32.039,-4.689,-12.112,22.662,8.596,12.503,-1.563,17.582,-7.424,-14.066,11.331,17.973,9.768,18.364,-18.364,-1.563,2.735,8.987,12.894,-5.470,-4.689,25.788,-18.364
'[18:01:25.480 07/07/2079]',23.053,9.377,-3.126,1.563,3.126,7.814,6.252,12.503,-5.470,-15.629,10.549,11.331,9.768,22.662,-35.165,2.344,0.000,7.033,3.907,-7.033,-23.834,35.165,-35.165
'[18:01:25.484 07/07/2079]',5.079,16.410,-3.126,-12.894,-1.954,-5.079,10.549,1.563,0.391,-8.205,-0.781,4.298,16.020,-22.271,0.391,1.563,-1.172,-0.391,3.907,0.000,-0.781,-24.615,0.391
'[18:01:25.488 07/07/2079]',-6.252,3.126,-5.861,-25.006,-14.066,0.000,1.172,-21.880,1.563,-5.470,-12.112,-21.880,10.940,-31.648,2.344,-19.536,-3.516,-7.814,6.642,12.894,3.516,-37.509,2.344
'[18:01:25.492 07/07/2079]',-26.569,0.781,8.596,-15.238,-28.913,23.443,-7.424,-19.145,-2.735,-3.516,-11.331,-4.689,6.642,-37.118,10.549,-3.516,-1.172,-4.298,-7.814,5.861,6.252,-27.350,10.549
'[18:01:25.496 07/07/2079]',-10.549,-6.642,16.020,10.549,-9.377,18.364,1.172,-0.781,-7.424,0.391,-7.033,10.159,7.814,-32.039,14.847,4.689,0.391,-0.781,-15.238,-2.735,13.284,-10.549,14.847
'[18:01:25.500 07/07/2079]',16.801,-3.907,-1.954,12.894,16.801,13.675,-5.079,-2.344,-1.563,0.391,-2.344,6.252,15.629,-18.364,12.503,-8.205,1.563,-1.954,2.735,3.516,7.033,-8.987,12.503
'[18:01:25.504 07/07/2079]',22.271,9.377,-20.317,46.105,32.039,0.781,-3.516,26.960,1.563,-2.735,-2.344,15.238,14.457,-1.954,-6.252,5.470,0.391,3.126,21.099,-7.424,12.503,-2.735,-6.252
'[18:01:25.508 07/07/2079]',16.410,35.165,14.066,16.020,41.807,-2.344,16.410,24.615,3.126,0.000,1.563,22.271,6.252,12.894,0.391,7.424,4.689,8.987,-13.284,-15.629,1.563,8.596,0.391
'[18:01:25.512 07/07/2079]',19.145,28.913,12.894,8.205,37.509,7.424,18.364,5.079,12.894,7.814,11.331,11.722,17.973,2.735,26.569,-2.344,8.596,12.112,-12.112,-13.284,12.894,-6.642,26.569
'[18:01:25.516 07/07/2079]',5.470,14.457,4.689,12.503,16.020,15.238,3.907,1.563,2.735,-0.391,0.781,12.503,21.099,-12.112,0.391,6.642,5.470,9.768,-3.907,-5.470,10.940,-1.563,0.391
'[18:01:25.520 07/07/2079]',-4.689,2.735,16.020,21.490,2.735,9.377,14.847,8.205,-0.391,-1.954,3.907,16.801,8.596,-5.861,5.079,9.377,5.470,13.675,-15.238,-8.205,13.284,7.033,5.079
'[18:01:25.523 07/07/2079]',-2.344,-6.252,15.629,13.284,1.172,5.861,11.331,1.172,-1.172,6.252,-0.391,22.271,-0.391,-0.391,16.801,9.768,5.079,12.112,-14.847,9.377,2.735,3.126,16.801
'[18:01:25.527 07/07/2079]',10.159,-14.847,12.503,3.516,3.907,1.172,8.596,-2.735,-4.689,0.000,-1.172,10.159,4.298,-11.722,7.033,3.126,1.563,11.331,-11.722,24.615,-2.344,-14.457,7.033
'[18:01:25.531 07/07/2079]',7.424,-8.205,16.410,10.940,12.503,-9.377,15.238,7.424,-6.252,-2.344,-5.861,11.331,1.172,-16.801,2.344,8.205,0.391,15.238,-15.629,0.391,-0.781,-6.642,2.344
'[18:01:25.535 07/07/2079]',-6.642,5.470,15.629,3.907,-0.391,-0.781,22.662,-2.344,-0.391,2.344,2.344,24.225,-3.516,8.987,11.722,11.331,4.689,18.364,-14.847,4.689,-8.987,14.066,11.722
'[18:01:25.539 07/07/2079]',-16.801,26.569,11.331,1.954,-2.735,-3.126,31.648,-2.735,-3.126,0.391,5.079,7.814,-12.894,0.391,17.192,3.907,5.861,17.973,-10.549,-2.735,8.987,-12.112,17.192
'[18:01:25.543 07/07/2079]',-2.735,28.913,0.000,8.205,2.735,10.940,18.755,0.391,0.391,-0.391,3.126,4.298,-3.126,-21.490,17.973,12.894,7.814,17.192,0.781,-22.662,-4.298,-11.722,17.973
'[18:01:25.547 07/07/2079]',-5.079,1.172,15.629,19.927,-4.689,24.615,7.814,3.516,2.344,1.563,7.424,13.284,-1.954,-26.178,31.648,21.490,7.814,17.192,-14.847,-17.192,5.079,-6.252,31.648
'[18:01:25.551 07/07/2079]',8.987,10.159,21.099,0.000,5.470,15.238,12.894,4.689,1.563,4.298,7.033,8.205,-6.252,-24.615,37.118,15.629,10.159,14.066,-20.317,-1.954,-22.271,-14.066,37.118
'[18:01:25.555 07/07/2079]',7.424,16.410,5.079,7.033,12.503,7.814,6.252,8.987,2.344,1.563,2.735,8.596,-6.642,-23.834,31.648,14.457,12.112,12.112,-4.298,-8.987,-9.377,-23.834,31.648
'[18:01:25.559 07/07/2079]',7.424,2.735,12.503,19.145,4.689,5.079,19.145,13.284,2.344,4.689,5.861,21.490,-5.079,-6.642,29.695,17.973,12.894,18.755,-11.722,-11.722,-1.172,-1.563,29.695
'[18:01:25.563 07/07/2079]',13.675,10.940,8.987,1.954,3.126,-12.112,40.635,3.516,-1.563,3.907,0.781,9.768,-0.781,-24.225,24.225,14.066,10.549,17.192,-8.205,-7.033,-9.768,-15.238,24.225
'[18:01:25.566 07/07/2079]',10.159,13.675,8.987,2.344,7.033,24.615,10.549,-6.642,7.814,6.642,6.642,5.470,17.192,-25.397,21.880,12.894,12.894,19.536,-8.205,-5.079,-3.126,-12.894,21.880
'[18:01:25.570 07/07/2079]',-9.377,5.861,19.536,8.596,-11.722,30.085,0.391,5.470,5.861,0.781,5.079,14.457,0.781,-9.377,9.377,24.615,8.596,18.755,-18.755,-0.781,-20.317,8.987,9.377
'[18:01:25.574 07/07/2079]',1.563,-10.940,23.443,2.735,-19.145,33.993,-0.781,2.344,5.470,-2.344,0.391,8.205,-8.596,0.391,-12.112,32.430,5.079,12.503,-22.662,8.596,-17.192,3.126,-12.112
'[18:01:25.578 07/07/2079]',7.033,-24.615,7.424,30.476,-12.503,33.602,-8.987,8.205,3.907,-1.172,12.503,21.490,-4.298,9.768,16.410,14.457,7.033,11.331,-6.642,20.317,-16.801,18.364,16.410
'[18:01:25.582 07/07/2079]',5.861,-25.397,14.847,36.728,-3.516,23.053,-0.781,13.284,1.954,-0.391,5.861,14.066,3.907,17.973,-1.172,1.563,6.252,9.377,-14.066,13.284,11.331,26.569,-1.172
'[18:01:25.586 07/07/2079]',36.337,-35.165,16.020,8.596,-3.516,15.238,11.331,2.344,-0.781,1.563,1.954,18.755,-3.907,0.391,24.225,1.563,5.079,10.159,-15.238,-4.298,19.927,1.954,24.225
'[18:01:25.590 07/07/2079]',-21.099,39.463,17.192,-8.205,15.238,2.344,8.205,0.000,1.954,1.954,-0.781,15.238,-8.205,2.735,25.006,-0.781,0.781,3.516,-16.410,-14.066,15.238,-3.907,25.006
'[18:01:25.594 07/07/2079]',-17.192,25.006,17.973,0.391,9.768,8.987,-1.172,7.033,10.549,1.172,-5.470,11.331,10.549,-8.987,16.410,-0.781,1.563,1.563,-17.192,-10.940,17.192,-9.768,16.410
'[18:01:25.598 07/07/2079]',-21.880,18.364,3.907,9.377,-1.172,4.298,-1.172,7.033,-1.172,-3.907,-3.516,12.112,1.563,-20.708,19.536,1.954,-4.298,-1.563,-3.126,-30.085,19.145,-3.907,19.536
'[18:01:25.602 07/07/2079]',-42.589,9.377,15.238,16.410,-11.331,-1.954,0.391,11.722,-4.298,-8.205,-9.377,10.549,-10.549,5.861,-4.689,-2.344,-7.814,-7.033,-14.457,-17.192,37.118,12.894,-4.689
'[18:01:25.605 07/07/2079]',-12.503,-21.099,-10.940,39.072,-5.079,-5.861,-5.470,10.940,-1.954,-4.298,-8.205,4.298,-2.735,2.735,3.907,-14.457,-7.033,-9.768,11.722,1.954,33.993,9.768,3.907
'[18:01:25.609 07/07/2079]',7.033,-31.258,-7.033,26.569,1.563,-2.735,-8.596,5.079,-11.722,-3.516,-13.675,0.391,0.781,-10.549,-14.847,-4.298,-9.768,-10.549,7.814,-1.563,30.476,6.642,-14.847
'[18:01:25.613 07/07/2079]',12.112,-37.900,-7.814,-2.344,-1.563,-3.126,-12.112,-17.973,-2.735,-0.391,-17.582,3.516,10.549,-17.192,-12.503,1.563,-9.768,-8.596,8.596,2.344,5.079,9.377,-12.503
'[18:01:25.617 07/07/2079]',10.159,-14.847,-2.735,-7.424,0.781,3.907,-11.722,-8.205,5.470,0.781,-18.755,0.000,21.099,-32.039,-0.781,-0.781,-4.298,-6.642,3.516,-1.563,-6.642,-4.689,-0.781
'[18:01:25.621 07/07/2079]',-26.178,8.987,-13.675,-8.596,-11.331,0.391,-16.410,-10.940,15.238,0.391,-24.225,3.516,17.973,-13.284,-9.768,0.391,-4.298,-5.079,14.457,-4.689,3.907,-0.391,-9.768
'[18:01:25.625 07/07/2079]',-37.900,19.145,16.020,-26.569,-10.159,4.298,-0.781,-21.880,13.675,-1.954,-10.940,-0.391,6.252,9.768,-1.563,-14.457,-4.298,-1.172,-15.238,-18.755,25.397,21.490,-1.563
'[18:01:25.629 07/07/2079]',-19.536,2.735,18.755,7.033,-2.735,6.642,0.391,4.298,9.377,-3.907,-7.033,14.066,9.377,6.252,0.391,-3.907,-3.516,0.391,-17.973,-11.331,27.741,26.960,0.391
'[18:01:25.633 07/07/2079]',-2.735,-14.066,0.781,16.410,5.079,-0.781,-14.066,10.159,-1.954,-1.172,-8.987,10.549,12.894,-12.503,0.391,-3.516,-3.907,-3.907,0.000,-3.126,17.192,12.503,0.391
'[18:01:25.637 07/07/2079]',8.987,-14.066,-8.596,4.298,10.940,-1.954,-17.582,-1.172,-12.503,0.391,-7.424,2.735,10.159,-5.079,-8.987,-12.894,-3.907,-2.735,9.377,1.954,12.894,11.722,-8.987
'[18:01:25.641 07/07/2079]',0.781,-5.079,-12.894,1.954,1.954,-4.298,-8.205,-3.516,-13.284,0.000,-1.172,1.954,10.940,-8.987,-1.172,-14.457,-0.781,0.391,13.675,-5.861,7.033,4.689,-1.172
'[18:01:25.645 07/07/2079]',-11.722,11.331,-17.192,-14.066,-7.033,-10.549,-1.954,-10.940,12.894,5.861,-11.722,-11.331,31.258,-4.298,-10.549,-20.317,2.344,-2.344,17.973,-18.755,18.364,-7.424,-10.549
'[18:01:25.648 07/07/2079]',-9.768,28.913,-19.927,-19.145,-2.735,-3.907,7.424,-21.099,29.304,3.907,-5.861,-15.629,44.542,-8.596,-2.344,-20.708,5.861,1.172,20.708,-40.244,20.708,3.126,-2.344
'[18:01:25.652 07/07/2079]',-11.722,46.886,-22.662,-17.582,-6.252,-1.172,13.675,-10.940,40.244,0.781,-5.861,0.391,30.085,15.629,-11.722,1.172,7.814,4.689,23.443,-60.562,-4.298,45.324,-11.722
'[18:01:25.656 07/07/2079]',17.973,24.225,-16.020,-23.834,1.563,-1.172,5.861,-3.516,39.463,1.563,-9.377,1.172,18.755,5.079,0.391,8.205,8.596,0.391,16.801,-44.151,-24.225,23.443,0.391
'[18:01:25.660 07/07/2079]',34.383,-12.112,-1.954,0.781,15.238,10.940,-6.642,1.172,27.350,4.689,-9.377,2.344,21.490,-14.457,7.814,9.768,10.159,4.689,2.735,-13.675,1.172,-3.126,7.814
'[18:01:25.664 07/07/2079]',19.145,-14.847,12.894,11.722,16.410,12.112,-3.126,4.298,12.894,4.298,-7.033,2.344,22.271,-27.741,10.159,8.987,7.033,8.205,-12.112,-12.894,27.741,-12.503,10.159
'[18:01:25.668 07/07/2079]',0.000,-5.861,20.708,13.675,16.020,1.563,3.907,6.252,17.192,4.298,-9.377,-2.344,22.662,-10.159,0.391,-1.954,6.252,5.470,-19.927,-7.033,60.171,-25.788,0.391
'[18:01:25.672 07/07/2079]',-10.549,5.861,23.443,-3.907,15.238,-1.172,7.424,-6.642,21.099,4.298,-7.424,-16.410,19.145,-12.112,5.470,-10.549,5.861,5.861,-22.662,2.735,46.496,-34.383,5.470
'[18:01:25.676 07/07/2079]',2.344,3.907,0.391,1.954,16.801,5.079,-4.298,-8.205,24.615,-3.516,-4.689,-5.861,26.960,-7.033,-3.126,-5.470,3.907,3.907,0.391,-14.457,7.424,14.847,-3.126
'[18:01:25.680 07/07/2079]',16.801,-6.252,-8.205,-1.954,18.364,5.079,-8.987,-14.066,28.132,-4.298,-5.079,-7.424,40.635,-17.582,-0.781,-10.159,1.563,0.391,8.987,-14.847,-3.907,23.443,-0.781
'[18:01:25.684 07/07/2079]',30.085,-25.006,1.954,-5.470,13.675,14.847,-19.145,-8.205,33.993,-3.516,-6.252,-8.596,55.873,-51.184,14.847,-5.079,3.126,0.000,-1.172,8.205,-6.642,-18.364,14.847
'[18:01:25.688 07/07/2079]',10.549,-24.225,7.033,10.940,8.596,10.549,-19.145,4.298,26.569,0.391,-15.629,1.954,43.370,-56.264,33.211,-6.252,0.781,0.000,-6.252,-1.563,35.946,-32.821,33.211
'[18:01:25.691 07/07/2079]',-4.689,-18.755,26.178,10.549,8.987,4.298,-4.298,3.907,23.834,2.735,-13.284,5.079,42.979,-47.668,33.211,-9.768,0.391,0.391,-25.397,-10.549,81.270,-41.416,33.211
'[18:01:25.695 07/07/2079]',-7.424,-21.099,38.681,2.344,4.689,2.735,-1.563,5.861,20.317,-1.563,-21.099,5.470,39.072,-52.747,10.940,4.689,0.000,-5.470,-37.900,-1.563,73.455,-46.496,10.940
'[18:01:25.699 07/07/2079]',-15.238,-19.927,15.629,9.768,-3.126,-0.391,-7.814,2.344,15.238,-5.861,-20.708,16.020,39.072,-68.376,28.523,5.470,-3.126,-6.642,-14.847,-23.443,80.488,-45.714,28.523
'[18:01:25.703 07/07/2079]',-13.284,-19.145,25.006,3.516,0.391,-5.470,0.391,0.391,12.503,-5.470,-18.364,5.470,28.132,-45.324,11.331,-0.391,-5.079,-5.470,-24.225,-27.350,64.860,-18.364,11.331
'[18:01:25.707 07/07/2079]',-19.927,-32.430,28.132,5.861,-11.331,5.470,-10.549,-0.391,10.549,-3.907,-17.192,-0.781,21.490,-41.026,9.768,-1.954,-5.079,-6.252,-27.350,-1.172,49.231,-19.927,9.768
'[18:01:25.711 07/07/2079]',-22.271,-35.946,28.132,2.735,-14.457,5.470,-16.801,-0.391,8.205,-6.642,-15.238,-6.252,28.913,-48.059,10.549,-12.112,-8.987,-8.205,-27.350,0.391,51.575,-19.927,10.549
'[18:01:25.715 07/07/2079]',-10.940,-43.370,31.648,9.768,-4.298,5.861,-14.847,1.563,-7.424,-1.563,-10.940,-7.424,29.695,-64.860,32.430,-25.397,-10.159,-3.126,-30.867,10.159,67.985,-44.933,32.430
'[18:01:25.719 07/07/2079]',-13.675,-25.006,9.768,0.391,-3.907,-1.172,-13.284,-8.596,-7.424,-3.516,-11.722,-5.861,33.211,-33.602,-6.642,-23.053,-12.503,-5.861,-8.987,0.781,66.813,-9.768,-6.642
'[18:01:25.723 07/07/2079]',-24.615,20.708,-17.192,3.516,-0.781,-7.814,-7.814,-0.391,-7.033,-3.907,-14.066,3.907,19.145,-50.403,10.549,-2.344,-10.940,-7.033,17.973,-37.900,52.357,-16.020,10.549
'[18:01:25.727 07/07/2079]',-10.549,10.159,-5.470,9.377,7.424,-9.377,-3.907,10.549,-5.861,-0.781,-17.582,11.331,28.913,-94.945,50.403,0.781,-10.940,-2.344,6.252,-37.118,59.389,-65.641,50.403
'[18:01:25.730 07/07/2079]',0.000,8.596,-0.391,1.954,14.066,-8.987,0.391,3.907,6.642,0.391,-17.192,1.172,39.853,-66.422,24.225,-7.424,-10.940,-0.781,1.172,-38.681,51.184,-32.039,24.225
'[18:01:25.734 07/07/2079]',-26.960,11.722,12.503,-2.344,1.954,-14.847,-2.344,10.549,1.563,-3.516,-19.927,-1.954,34.383,-36.728,-5.079,-17.973,-12.112,-3.907,-11.722,-36.337,66.422,-8.987,-5.079
'[18:01:25.738 07/07/2079]',-41.026,-2.735,47.668,-26.960,-4.298,-17.192,-4.298,3.516,-2.735,-5.079,-13.284,12.112,32.039,-38.291,29.695,-33.211,-9.377,-1.954,-46.886,0.391,66.813,-34.774,29.695
'[18:01:25.742 07/07/2079]',-16.410,-0.781,7.424,-22.662,0.000,-17.192,-1.563,-12.503,-8.987,-4.689,0.391,1.172,30.476,46.496,-36.337,-52.357,-8.596,-0.391,-6.642,-12.894,67.985,34.383,-36.337
'[18:01:25.746 07/07/2079]',-8.205,10.940,-28.132,-10.549,-7.424,-14.457,0.000,-12.894,-14.066,-5.861,-1.563,3.126,26.960,58.608,-71.502,-32.821,-10.159,-2.344,28.913,-31.648,33.993,81.270,-71.502
'[18:01:25.750 07/07/2079]',-1.172,11.331,-30.476,-2.344,3.126,-4.298,-8.596,-12.112,-2.344,10.159,-13.675,7.033,31.258,-19.536,5.079,-15.629,-2.344,-0.391,31.258,-12.894,-0.391,17.192,5.079
'[18:01:25.754 07/07/2079]',12.503,17.582,-26.960,-8.205,9.768,-6.642,-2.735,-5.079,1.563,13.675,-21.490,2.344,18.755,-19.145,0.391,-1.954,-0.781,1.172,27.741,-9.768,-19.927,3.126,0.391
'[18:01:25.758 07/07/2079]',14.457,1.563,-5.861,3.907,23.443,10.940,-11.331,-8.987,12.894,16.801,-19.927,-5.861,23.443,-24.615,6.642,-2.344,2.344,2.344,6.642,1.563,-6.252,0.000,6.642
'[18:01:25.762 07/07/2079]',1.172,9.377,21.490,-6.642,25.397,13.284,-8.205,-4.689,15.238,16.020,-22.662,2.735,41.807,-61.734,34.774,-3.516,8.205,2.735,-20.708,14.457,20.708,-47.668,34.774
'[18:01:25.766 07/07/2079]',5.861,-5.079,20.317,-21.880,13.675,6.252,-1.954,-17.973,13.675,14.457,-9.768,-5.861,42.979,-40.244,37.900,-27.741,7.424,4.689,-19.536,-0.781,38.291,-39.853,37.900
'[18:01:25.770 07/07/2079]',-12.503,22.662,-7.814,-6.642,5.079,0.000,2.735,-12.112,11.722,8.205,-6.642,-4.298,39.072,-2.344,-0.781,-26.960,6.252,6.642,8.596,-31.648,64.078,-8.596,-0.781
'[18:01:25.773 07/07/2079]',-28.913,39.072,-7.814,-17.973,-11.331,3.126,3.516,-10.159,11.331,11.722,-8.596,10.159,35.946,-10.159,18.755,-19.536,7.424,7.424,8.596,-39.072,60.562,-16.020,18.755
'[18:01:25.777 07/07/2079]',-12.112,17.582,7.033,-18.755,-6.642,14.066,0.000,-13.675,17.973,13.284,-3.516,8.205,40.635,18.364,-7.424,-14.066,12.503,7.814,-6.252,-18.364,42.979,12.503,-7.424
'[18:01:25.781 07/07/2079]',6.642,-0.391,21.880,-1.563,12.112,17.582,3.126,-5.861,18.364,11.331,-3.126,12.503,44.542,-0.781,2.344,-5.079,13.284,9.377,-21.099,-5.470,23.443,12.112,2.344
'[18:01:25.785 07/07/2079]',13.284,-4.689,23.053,-3.907,18.364,16.801,3.126,-10.940,18.364,10.549,-1.172,9.768,39.463,-0.781,12.503,-11.722,12.112,5.470,-22.271,3.516,5.079,21.880,12.503
'[18:01:25.789 07/07/2079]',23.053,-8.596,21.099,-10.549,16.801,14.066,10.159,-16.801,19.927,12.112,2.344,0.000,30.085,19.927,6.642,-21.490,14.457,2.344,-20.317,14.457,-6.642,26.178,6.642
'[18:01:25.793 07/07/2079]',15.629,-20.317,24.615,-0.781,20.317,-6.642,14.847,-8.205,17.973,16.801,-6.642,5.861,38.681,-7.814,15.629,-11.722,10.940,0.781,-23.834,10.940,18.364,0.391,15.629
'[18:01:25.797 07/07/2079]',6.642,0.391,21.880,-19.927,8.596,15.238,5.861,-21.490,20.708,21.880,-8.596,0.000,48.059,-20.317,21.880,-15.238,10.940,0.391,-21.099,-3.126,31.258,-14.066,21.880
'[18:01:25.801 07/07/2079]',-9.768,21.099,22.662,-9.768,5.861,14.457,4.689,-1.172,24.225,22.271,-10.159,14.457,53.138,-7.033,3.516,2.344,17.192,1.172,-21.880,-7.033,49.621,-15.629,3.516
'[18:01:25.805 07/07/2079]',-24.615,40.635,25.397,-10.159,15.238,10.549,3.907,0.391,22.662,19.927,-7.814,13.284,47.277,-0.391,1.563,0.781,19.536,1.172,-24.615,0.391,50.794,-17.973,1.563
'[18:01:25.809 07/07/2079]',-13.284,26.569,16.020,-12.894,14.066,10.940,0.391,-8.987,12.112,12.503,-2.344,7.424,39.853,3.907,-4.689,-8.205,14.066,0.391,-15.238,-2.344,51.184,-11.331,-4.689
'[18:01:25.813 07/07/2079]',-1.563,1.563,15.238,-5.470,12.894,10.549,-1.563,-10.940,10.940,5.470,-3.907,4.689,48.059,-12.112,-10.940,-5.079,10.549,-2.735,-14.457,10.159,41.416,-6.252,-10.940
'[18:01:25.816 07/07/2079]',12.894,-9.377,0.391,-10.159,12.503,7.424,-8.596,-16.801,9.377,7.814,-3.907,-0.781,48.059,1.954,-29.304,-6.642,8.596,-4.298,0.391,17.582,7.814,17.582,-29.304
'[18:01:25.820 07/07/2079]',3.126,-7.033,-8.596,-12.112,1.563,-5.861,-6.642,-12.503,8.987,4.298,-14.066,0.391,44.933,-8.596,-19.145,-16.801,1.954,-5.470,9.377,7.814,22.271,0.000,-19.145
'[18:01:25.824 07/07/2079]',3.126,12.894,-10.159,-12.503,5.470,-0.781,0.781,-11.331,14.847,15.238,-11.722,4.689,43.761,-8.987,-9.768,0.391,5.079,-0.781,10.940,-5.470,30.476,-15.238,-9.768
'[18:01:25.828 07/07/2079]',-0.781,3.516,-3.907,6.252,5.079,-3.516,1.954,0.781,15.629,13.284,-12.894,11.722,51.966,11.331,-37.509,3.126,7.033,-1.563,4.689,18.755,29.304,8.205,-37.509
'[18:01:25.832 07/07/2079]',0.781,-13.284,17.192,11.331,3.516,-11.722,12.503,11.331,7.814,11.722,-9.377,13.284,51.575,9.768,-37.900,1.172,6.642,0.781,-16.410,8.596,57.045,6.642,-37.900
'[18:01:25.836 07/07/2079]',-12.112,0.391,-1.563,9.768,-2.735,7.033,-3.126,-4.298,1.954,9.768,-17.582,0.391,44.542,-25.788,-15.629,-7.424,4.298,0.000,2.344,-9.768,84.786,-27.350,-15.629
'[18:01:25.840 07/07/2079]',-21.880,-1.563,9.768,-8.987,-12.112,8.987,-8.596,-10.159,2.344,1.563,-24.225,4.298,37.509,-33.602,-27.741,8.596,0.391,-3.907,-8.987,19.927,36.337,-18.755,-27.741
'[18:01:25.844 07/07/2079]',-11.722,-8.596,-2.735,-17.582,-15.238,7.033,-14.847,-16.801,1.563,0.391,-20.708,-7.424,42.198,-57.827,3.516,-12.894,-4.298,-4.689,3.516,8.987,34.383,-42.589,3.516
'[18:01:25.848 07/07/2079]',-21.099,16.410,-14.457,-13.675,-11.722,6.252,-12.503,-13.675,0.391,-0.781,-21.880,11.722,42.979,-71.893,9.768,7.814,-4.298,-0.781,15.238,-0.391,21.490,-49.621,9.768
'[18:01:25.852 07/07/2079]',-27.741,10.549,0.781,-17.192,-7.424,-5.079,-3.516,-15.238,0.000,0.000,-11.722,9.768,26.569,-23.443,-5.470,0.781,-6.252,-0.391,0.000,17.973,11.331,-17.582,-5.470
'[18:01:25.855 07/07/2079]',-36.337,3.516,15.629,-6.642,-8.205,-14.457,3.516,-3.516,-2.735,-2.735,-10.549,7.814,21.490,13.675,-34.774,-8.596,-5.861,0.000,-14.847,32.430,27.350,4.689,-34.774
'[18:01:25.859 07/07/2079]',-42.589,22.662,-7.424,10.940,-19.927,-5.079,3.907,4.689,-9.768,-8.987,-6.642,19.927,16.801,6.642,-31.258,1.563,-5.079,1.563,8.205,-3.907,28.523,13.675,-31.258
'[18:01:25.863 07/07/2079]',-26.569,15.238,-10.159,-2.344,-17.582,-2.735,3.907,-7.424,-9.768,-10.159,-7.424,10.549,19.145,1.563,-36.728,-0.781,-9.377,0.391,10.940,-9.377,30.867,9.377,-36.728
'[18:01:25.867 07/07/2079]',-26.960,10.549,-13.675,-15.629,-29.304,-6.252,1.172,-11.722,-15.629,-15.629,-17.973,4.298,23.834,-39.463,-33.211,3.126,-15.238,-3.907,14.457,-5.470,21.099,-13.284,-33.211
'[18:01:25.871 07/07/2079]',-19.536,12.503,-13.675,-3.126,-21.880,-4.689,6.642,-4.298,-10.549,-7.814,-18.364,13.284,9.377,-52.357,5.079,12.894,-9.377,0.781,14.457,4.298,-7.814,-33.211,5.079
'[18:01:25.875 07/07/2079]',-5.079,-8.987,-1.172,-2.344,0.391,-21.490,16.801,-13.284,-11.331,-2.735,-12.503,5.470,0.000,-46.886,13.284,10.159,-8.987,2.735,1.954,14.847,-7.033,-37.509,13.284
'[18:01:25.879 07/07/2079]',-6.642,-4.689,8.205,-3.516,5.470,-3.907,10.940,-19.145,-7.424,0.391,-10.159,-2.344,8.205,-44.542,12.503,1.954,-2.735,2.735,-7.424,19.927,-1.563,-35.946,12.503
'[18:01:25.883 07/07/2079]',-25.006,8.205,1.172,20.317,-7.814,6.252,10.549,-2.344,-5.079,-0.391,-1.563,8.987,12.503,-34.774,23.834,-1.563,3.126,5.861,-0.391,15.629,6.642,-26.569,23.834
'[18:01:25.887 07/07/2079]',-35.165,27.350,-0.391,12.503,-12.112,1.172,12.503,3.126,-10.159,-8.205,3.516,17.192,1.954,-16.020,5.079,9.768,3.907,6.642,1.172,-1.563,10.940,-14.847,5.079
'[18:01:25.891 07/07/2079]',-27.350,48.840,-16.410,-10.159,-21.490,7.033,10.940,-1.563,-10.549,-9.377,1.172,13.284,1.563,8.205,-32.430,16.410,3.126,2.735,17.192,-33.993,3.516,17.192,-32.430
'[18:01:25.895 07/07/2079]',-10.940,26.960,-17.582,-5.861,-12.894,-1.172,10.159,-3.516,-8.987,-6.642,-2.344,12.894,6.252,-10.940,-22.662,20.708,2.344,0.391,18.364,-14.066,-17.192,8.596,-22.662
'[18:01:25.898 07/07/2079]',5.861,-7.814,12.503,3.126,10.159,-12.503,18.755,-2.344,-14.066,-1.172,-1.563,14.457,-1.563,-10.940,-17.973,27.741,5.079,3.126,-11.722,1.954,-12.503,10.159,-17.973
'[18:01:25.902 07/07/2079]',7.814,-4.689,2.735,5.470,20.708,-18.364,17.192,-8.205,-9.377,4.298,-4.689,5.079,-3.126,-18.755,3.126,14.457,6.252,1.954,-1.954,-12.112,8.596,-10.940,3.126
'[18:01:25.906 07/07/2079]',-16.410,3.907,1.954,-0.781,8.205,-18.364,16.801,-17.973,-6.252,5.470,-2.344,2.344,-12.894,-8.596,21.099,0.391,5.470,0.391,-1.172,3.907,5.861,-19.145,21.099
'[18:01:25.910 07/07/2079]',-21.099,-6.642,5.470,9.377,-5.079,-10.159,10.549,-6.642,-13.675,-4.298,-1.172,16.020,-3.516,-33.211,31.258,1.563,4.689,1.172,-4.689,16.801,28.523,-53.138,31.258
'[18:01:25.914 07/07/2079]',-10.549,8.987,-11.722,1.954,-8.596,-3.907,7.033,-5.470,-17.192,-8.596,2.735,11.331,-6.252,-35.556,17.973,11.722,1.563,0.391,12.503,-8.205,-7.033,-28.913,17.973
'[18:01:25.918 07/07/2079]',-8.596,5.861,10.549,-6.642,-2.735,-8.596,18.364,-4.689,-16.801,-8.987,0.391,8.987,-18.755,-8.205,-2.344,11.331,0.000,-1.563,-9.768,2.735,-26.178,5.861,-2.344
'[18:01:25.922 07/07/2079]',-12.503,-14.066,26.178,18.364,0.000,-14.066,21.099,11.331,-19.536,-7.033,0.000,15.238,-30.085,-18.364,11.722,23.443,1.563,0.391,-25.397,16.410,-10.549,-14.847,11.722
'[18:01:25.926 07/07/2079]',0.391,-35.946,44.933,29.304,14.066,-19.145,29.695,14.066,-19.536,0.391,-0.781,12.112,-28.523,1.954,-7.033,25.006,1.954,1.563,-44.151,8.596,1.954,21.099,-7.033
'[18:01:25.930 07/07/2079]',-4.298,-37.900,47.668,32.039,16.410,-27.741,38.681,10.159,-13.284,3.126,-0.391,15.238,-18.755,3.907,0.391,18.755,3.126,1.954,-46.886,6.642,19.927,19.536,0.391
'[18:01:25.934 07/07/2079]',-13.284,-34.774,18.364,35.165,-1.563,-10.940,9.768,8.596,-14.066,0.391,0.000,22.662,-10.549,-5.470,7.814,16.410,3.126,-3.516,-17.582,19.536,22.271,-10.159,7.814
'[18:01:25.938 07/07/2079]',-21.099,-8.596,7.814,14.066,-11.331,-8.596,5.861,6.642,-18.364,-2.344,-5.079,23.443,-16.410,-8.596,4.689,15.629,2.344,-3.907,-7.033,10.549,8.987,-15.629,4.689
'[18:01:25.941 07/07/2079]',-17.973,5.079,2.344,-2.344,-19.927,-0.391,6.252,0.781,-17.582,-6.642,-5.861,16.020,-25.006,6.252,-10.549,13.284,0.391,-5.079,-1.563,2.735,-27.350,7.814,-10.549
'[18:01:25.945 07/07/2079]',-21.880,-7.814,-0.781,0.391,-37.900,7.814,3.126,-2.344,-21.490,-9.377,-3.516,10.159,-24.225,-5.861,-5.079,9.377,-1.172,-6.642,1.563,1.172,-24.615,8.205,-5.079
'[18:01:25.949 07/07/2079]',-15.629,-8.987,7.424,8.596,-24.225,3.907,10.549,0.781,-17.582,-3.907,-5.861,14.847,-16.020,-28.132,7.033,22.271,3.516,-2.344,-6.642,-8.205,-10.940,-5.861,7.033
'[18:01:25.953 07/07/2079]',-24.225,-11.331,29.304,6.642,-21.099,-1.172,23.834,-0.391,-7.814,4.689,-0.391,16.020,-11.722,-20.708,30.476,13.675,8.596,4.298,-28.523,-12.503,18.755,-6.252,30.476
'[18:01:25.957 07/07/2079]',-19.536,-1.954,1.563,25.788,-7.424,-6.252,16.410,3.907,-10.159,-1.172,0.391,19.927,-12.894,-34.774,36.728,17.973,8.205,1.172,-0.781,-11.722,42.979,-43.761,36.728
'[18:01:25.961 07/07/2079]',1.172,-3.126,-4.298,18.755,12.503,-7.424,8.205,-1.172,0.000,9.377,-7.033,18.755,0.391,-23.053,26.178,15.629,8.596,-0.391,5.079,-3.907,49.621,-50.403,26.178
'[18:01:25.965 07/07/2079]',14.847,-14.066,5.470,1.563,9.377,-4.298,3.126,0.391,-10.159,0.000,-11.722,24.615,-0.781,-39.853,14.066,27.350,4.298,-1.563,-4.689,-1.954,27.741,-41.416,14.066
'[18:01:25.969 07/07/2079]',10.940,0.781,-15.629,-12.112,2.735,-6.252,-2.344,-8.596,-12.503,-4.298,-12.112,13.284,-19.927,-24.225,10.159,16.410,0.000,-6.642,16.410,-9.768,-29.695,-4.298,10.159
'[18:01:25.973 07/07/2079]',-1.954,9.768,-17.582,-35.165,-4.298,-7.033,-7.033,-25.006,-8.205,-2.735,-11.722,-3.516,-32.039,13.284,-10.159,0.391,-0.391,-11.722,18.364,-2.735,-57.436,33.602,-10.159
'[18:01:25.977 07/07/2079]',1.563,-16.801,4.689,-16.020,-3.516,-1.954,-1.954,-16.801,-4.298,-2.344,-7.033,-5.079,-10.159,-15.629,5.470,-1.563,2.344,-7.814,-3.907,5.470,-35.946,21.490,5.470
'[18:01:25.980 07/07/2079]',-19.145,-11.722,2.735,0.781,-9.377,-5.470,1.172,-11.331,-2.735,-0.781,-8.987,-8.596,-9.377,-5.861,-1.954,-5.079,1.954,-4.298,-1.954,0.391,-12.894,28.132,-1.954
'[18:01:25.984 07/07/2079]',-32.039,-7.033,-5.861,18.364,-12.894,-9.377,4.298,-8.205,2.344,5.079,-9.768,-27.350,0.000,0.000,2.735,-33.993,1.563,-5.079,6.642,0.391,35.165,4.689,2.735
'[18:01:25.988 07/07/2079]',-27.350,-22.662,1.172,26.178,-19.145,-9.377,3.907,3.516,-3.907,0.781,-14.847,8.987,-7.424,-7.033,5.079,-0.781,0.391,-2.344,-0.391,4.298,58.608,-17.192,5.079
'[18:01:25.992 07/07/2079]',-14.457,-16.801,-1.172,0.781,-13.284,-3.907,-0.781,-12.503,-8.205,-1.172,-16.410,7.424,-3.907,0.391,-5.861,-8.987,0.781,-1.172,1.954,3.907,51.966,-15.238,-5.861
'[18:01:25.996 07/07/2079]',0.391,-19.536,-34.774,-21.099,-13.675,-12.503,-8.596,-38.681,-16.020,-6.252,-13.284,-10.549,-11.331,2.735,-8.205,-31.648,-4.689,-8.596,35.556,-7.033,27.741,-5.861,-8.205
'[18:01:26.000 07/07/2079]',5.470,-31.258,-34.774,-23.053,-9.768,-10.159,-19.536,-42.979,-18.755,-9.377,-16.020,-8.987,-6.642,10.549,-20.317,-39.463,-3.516,-11.722,35.556,4.298,37.118,0.781,-20.317
'[18:01:26.004 07/07/2079]',-21.490,-27.350,-28.913,-17.973,-21.099,-13.284,-21.099,-38.681,-22.271,-9.377,-21.490,-19.145,-16.020,10.549,-26.569,-43.370,-7.814,-12.112,29.695,17.582,37.118,0.781,-26.569
'[18:01:26.008 07/07/2079]',-39.072,-23.443,-36.728,-8.596,-30.867,-27.741,-15.629,-32.430,-23.443,-6.642,-25.397,-20.708,-30.867,3.126,-12.894,-37.900,-12.894,-13.675,37.509,10.159,26.569,-2.735,-12.894
'[18:01:26.012 07/07/2079]',-26.569,-25.006,-23.443,-1.563,-32.039,-13.675,-11.331,-18.755,-15.238,-5.861,-26.569,-12.503,-16.410,1.954,-24.225,-24.225,-12.112,-12.503,24.225,16.801,23.834,-3.126,-24.225
'[18:01:26.016 07/07/2079]',-17.192,-28.132,-1.954,-1.954,-29.695,-2.735,-8.596,-6.642,-11.722,-3.907,-19.536,-2.735,-13.284,-8.987,-12.503,-5.470,-10.159,-6.252,2.735,23.834,-3.907,0.391,-12.503
'[18:01:26.020 07/07/2079]',-9.768,-24.225,-0.391,-15.238,-22.271,-16.020,-2.344,-8.205,-16.801,-2.735,-13.675,-5.861,-30.867,7.424,-9.377,-8.205,-7.814,-4.298,1.172,12.894,-26.178,16.020,-9.377
'[18:01:26.023 07/07/2079]',-7.033,-5.861,-3.907,-25.397,-10.940,-4.298,-6.642,-18.755,-9.377,-4.689,-7.814,-19.536,-21.490,37.118,-33.211,-25.788,-2.344,-5.470,4.689,0.391,8.987,17.192,-33.211
'[18:01:26.027 07/07/2079]',-10.940,-1.172,1.954,-7.424,-5.861,7.424,-12.503,-5.861,-5.861,5.861,-6.642,-4.689,-16.801,10.159,0.000,-6.642,2.344,-1.563,-1.172,3.907,-0.781,1.954,0.000
'[18:01:26.031 07/07/2079]',-9.768,-8.205,-1.954,2.344,-4.298,4.298,-13.284,-2.735,-11.331,1.954,-7.814,3.516,-15.629,-14.066,10.940,3.516,0.781,-0.391,2.735,0.391,19.536,-23.053,10.940
'[18:01:26.035 07/07/2079]',0.000,12.503,-11.331,-3.516,7.033,1.172,-10.940,0.391,-8.987,-1.172,-10.549,2.735,-17.192,5.470,-14.066,5.470,0.000,-2.344,12.112,-11.331,12.503,-7.033,-14.066
'[18:01:26.039 07/07/2079]',-1.172,2.344,10.159,-10.940,9.377,1.563,-10.940,0.781,-0.391,4.689,-7.033,8.596,-22.662,0.781,12.503,12.894,0.391,-1.563,-9.377,16.410,-27.350,-5.861,12.503
'[18:01:26.043 07/07/2079]',6.642,-13.675,6.642,-7.424,6.642,-1.954,-16.410,4.689,-5.861,-3.126,-4.298,10.549,-21.490,-17.582,16.020,17.192,-1.172,-1.563,-5.861,25.006,-50.012,-8.205,16.020
'[18:01:26.047 07/07/2079]',-6.642,-10.159,-2.344,-9.768,-3.907,-12.503,-10.549,-0.781,-6.252,-4.298,-1.172,1.172,-20.708,8.596,-6.252,5.079,-3.907,-1.172,3.126,-0.781,-37.900,23.443,-6.252
'[18:01:26.051 07/07/2079]',-19.927,22.662,-22.271,-2.344,-8.205,-11.331,-8.205,6.642,-4.689,-7.424,0.781,8.205,-25.397,0.000,5.079,14.457,-4.298,-2.344,23.053,-24.225,-32.039,7.814,5.079
'[18:01:26.055 07/07/2079]',-29.695,12.503,-19.536,6.252,-16.410,-14.847,-9.377,11.331,-4.689,-10.940,-3.126,14.066,-31.258,-5.079,14.847,14.066,-4.689,-3.907,20.317,-14.847,-2.344,-17.582,14.847
'[18:01:26.059 07/07/2079]',-10.940,11.331,-15.238,-11.722,-5.470,-12.503,-1.954,-5.470,-5.079,-7.814,-3.516,2.344,-29.304,0.781,2.735,7.814,-3.516,-3.907,16.020,-29.304,3.907,-8.596,2.735
'[18:01:26.063 07/07/2079]',7.814,8.596,-4.298,-21.880,3.516,-2.735,-1.172,-8.596,0.391,-3.126,-5.470,1.954,-17.192,-9.377,2.344,14.847,0.391,-3.516,5.079,-20.708,-17.582,-12.112,2.344
'[18:01:26.066 07/07/2079]',26.178,-6.252,-12.112,-12.894,8.205,14.847,-23.443,-5.079,0.000,-2.735,-1.172,5.470,-11.722,-19.927,16.410,14.457,3.516,-1.954,12.894,7.033,-49.231,-19.536,16.410
'[18:01:26.070 07/07/2079]',17.582,20.317,-17.973,-14.847,8.205,9.377,-13.675,0.391,-5.470,0.000,-1.172,12.894,-19.145,-11.722,8.205,25.788,8.205,4.298,18.755,-13.675,-49.621,-13.675,8.205
'[18:01:26.074 07/07/2079]',3.516,35.946,-32.039,-10.940,-5.470,9.768,-10.549,4.298,-11.331,-2.735,3.907,14.847,-34.383,8.205,-2.735,32.039,4.298,4.298,32.821,-25.788,-69.158,6.252,-2.735
'[18:01:26.078 07/07/2079]',13.675,7.814,-14.066,-1.172,0.391,18.364,-12.894,0.781,-14.066,-0.391,14.847,12.894,-32.039,-1.954,25.006,21.490,5.079,5.079,14.847,-8.987,-50.794,-5.470,25.006
'[18:01:26.082 07/07/2079]',7.033,-5.470,14.457,-4.298,1.954,11.722,0.781,-1.172,-12.503,7.033,7.033,9.377,-25.788,-3.126,22.662,16.410,5.079,7.424,-13.675,-13.284,-16.020,-1.954,22.662
'[18:01:26.086 07/07/2079]',-6.252,-8.205,27.741,-5.861,1.954,5.079,1.563,-0.781,-14.066,5.079,0.391,5.470,-27.741,10.159,0.391,11.722,1.172,7.033,-26.960,-2.344,-8.205,13.284,0.391
'[18:01:26.090 07/07/2079]',-4.689,-1.954,21.490,-26.569,1.172,5.470,-1.563,-15.238,-8.205,5.079,0.781,-0.781,-34.383,12.503,17.582,0.000,0.781,6.252,-20.708,14.457,-40.635,4.298,17.582
'[18:01:26.094 07/07/2079]',11.722,-5.470,12.503,-20.708,0.391,0.781,2.735,-5.079,0.781,5.079,0.391,8.205,-21.490,5.861,17.973,10.549,5.079,8.987,-11.722,19.145,-64.860,2.735,17.973
'[18:01:26.098 07/07/2079]',-3.907,2.735,4.689,-16.410,-14.457,-1.954,7.814,-3.126,-1.954,3.516,0.391,3.516,-18.364,13.284,3.126,5.470,4.689,11.331,-3.907,8.596,-58.608,14.457,3.126
'[18:01:26.102 07/07/2079]',5.470,5.470,-8.205,-20.317,-14.066,4.298,1.954,-8.596,-0.391,4.298,3.907,3.126,-30.476,17.192,16.410,5.861,8.987,8.987,8.987,0.000,-66.422,8.987,16.410
'[18:01:26.105 07/07/2079]',5.079,9.768,-1.954,-12.894,-5.470,5.470,5.470,-4.298,-3.126,3.516,4.298,2.344,-34.774,21.490,16.410,2.344,12.112,7.814,2.735,-2.344,-42.979,5.470,16.410
'[18:01:26.109 07/07/2079]',8.205,15.629,2.735,7.424,15.238,4.298,6.642,7.814,-3.126,1.954,4.298,7.814,-19.145,14.847,7.424,5.861,10.940,12.894,-1.954,-16.020,-0.391,0.391,7.424
'[18:01:26.113 07/07/2079]',16.410,8.205,13.284,-11.722,21.099,7.033,1.954,-2.344,4.689,0.391,1.954,4.298,-5.470,-3.907,21.880,-0.781,8.987,8.987,-12.503,-8.596,-10.549,-12.112,21.880
'[18:01:26.117 07/07/2079]',36.728,4.298,17.973,-21.099,22.662,10.940,4.689,0.000,18.755,2.735,7.424,10.940,6.252,2.344,32.430,-0.781,8.987,10.159,-17.192,-15.629,-27.741,-3.126,32.430
'[18:01:26.121 07/07/2079]',26.178,14.847,3.516,-17.192,6.642,6.252,11.331,2.735,16.410,0.781,9.768,14.457,5.470,16.020,28.523,-7.814,8.205,12.894,-2.735,-20.317,-14.066,1.172,28.523
'[18:01:26.125 07/07/2079]',23.053,7.033,-9.768,-8.596,-12.112,3.126,16.410,3.516,0.000,-0.781,10.159,13.284,-8.987,11.331,22.662,-1.954,2.735,10.940,10.549,-42.589,-9.377,5.079,22.662
'[18:01:26.129 07/07/2079]',23.834,9.768,-19.145,1.954,-14.847,3.126,21.880,6.252,-12.112,1.172,16.410,19.145,-16.020,13.675,20.708,4.689,3.516,12.503,19.927,-59.780,-3.907,16.410,20.708
'[18:01:26.133 07/07/2079]',16.410,23.443,-32.430,15.629,-7.424,1.563,18.364,10.159,-17.192,-1.954,17.192,12.894,-14.066,34.774,-14.066,2.735,4.298,13.675,33.211,-48.059,-2.344,36.728,-14.066
'[18:01:26.137 07/07/2079]',-5.470,17.582,-12.503,16.020,-2.344,-10.549,20.708,7.424,-6.252,5.470,10.549,6.642,-10.549,33.602,-4.689,-1.563,4.689,13.675,13.284,-14.066,-1.563,25.397,-4.689
'[18:01:26.141 07/07/2079]',-16.410,19.927,14.066,-2.735,2.344,1.954,10.549,0.391,5.861,7.814,5.861,5.470,-11.331,26.569,7.033,3.126,5.470,10.940,-13.284,8.205,-25.006,14.847,7.033
'[18:01:26.145 07/07/2079]',1.563,21.490,14.066,-7.424,9.377,6.642,7.424,5.470,15.238,0.000,11.331,8.596,-1.172,51.966,-15.629,0.391,6.252,10.159,-13.284,3.907,-32.430,43.761,-15.629
'[18:01:26.148 07/07/2079]',16.020,13.675,14.457,-14.457,15.629,3.126,14.457,-4.298,22.662,7.424,5.470,-2.344,5.470,41.026,0.000,-10.940,5.861,12.894,-13.675,-6.642,-17.973,35.556,0.000
'[18:01:26.152 07/07/2079]',23.834,36.728,5.079,-14.457,15.238,-1.954,22.662,14.066,13.284,10.159,8.596,12.112,-2.735,16.410,24.225,7.033,5.470,17.973,-4.298,-59.389,-10.549,16.801,24.225
'[18:01:26.156 07/07/2079]',42.589,17.192,-2.344,-1.563,25.397,-17.192,24.225,22.271,9.377,10.549,8.596,12.894,0.391,26.569,21.880,-6.252,7.814,17.973,3.126,-67.204,29.695,11.722,21.880
'[18:01:26.160 07/07/2079]',65.641,-35.556,10.159,15.238,13.675,0.781,16.020,24.615,12.503,12.503,16.410,13.675,17.973,27.741,21.490,-12.112,11.331,21.099,-9.377,-32.821,28.523,19.927,21.490
'[18:01:26.164 07/07/2079]',28.523,-26.569,23.053,25.006,10.549,-12.503,17.973,33.602,10.159,5.861,15.238,25.788,23.834,0.781,34.383,-1.172,11.722,20.317,-22.271,-14.457,19.927,7.033,34.383
'[18:01:26.168 07/07/2079]',2.735,8.596,-3.516,34.383,0.000,-13.284,12.503,43.761,5.470,-1.954,11.722,33.602,1.172,43.761,-0.781,2.735,11.722,12.894,4.298,-16.410,-13.675,48.449,-0.781
'[18:01:26.172 07/07/2079]',8.205,25.788,-0.391,-5.861,10.549,-7.814,14.457,9.768,21.490,-2.735,18.364,8.596,-0.391,57.827,8.205,-19.536,14.457,10.549,1.172,1.563,-32.430,36.337,8.205
'[18:01:26.176 07/07/2079]',0.391,33.993,-4.689,3.126,28.523,-22.662,15.629,10.159,23.053,-1.563,2.735,11.722,5.079,26.178,0.000,4.298,12.112,7.033,5.470,-1.563,-14.457,8.987,0.000
'[18:01:26.180 07/07/2079]',29.304,33.602,-8.987,-2.735,51.575,-25.788,21.880,3.516,19.536,9.768,1.172,2.344,13.284,21.099,-5.079,3.516,10.940,5.470,9.768,-15.629,-4.689,2.735,-5.079
'[18:01:26.184 07/07/2079]',33.993,23.053,0.391,1.563,48.059,-0.391,5.470,4.689,32.430,12.112,0.391,1.563,31.258,18.364,-5.470,3.126,14.457,2.735,0.391,-19.536,33.993,-11.722,-5.470
'[18:01:26.188 07/07/2079]',4.689,48.449,-5.079,8.987,36.337,-2.735,5.470,17.192,30.085,6.642,-1.172,10.940,26.178,21.099,-12.112,12.112,10.940,3.126,5.861,-31.258,48.059,-10.549,-12.112
'[18:01:26.191 07/07/2079]',-11.331,68.376,-19.536,10.549,23.053,-3.126,8.596,18.364,31.258,8.205,3.516,13.675,17.973,23.834,0.391,13.675,9.377,3.516,20.317,-44.542,4.689,14.847,0.391
'[18:01:26.195 07/07/2079]',-19.536,72.283,-32.430,10.940,16.020,4.689,-2.344,11.722,29.304,5.861,0.391,8.596,14.066,19.927,2.344,6.642,5.079,0.000,33.211,-43.370,-16.020,28.132,2.344
'[18:01:26.199 07/07/2079]',-23.834,51.575,-22.662,5.079,10.940,1.954,-8.987,4.689,23.053,2.735,-3.516,5.470,15.629,-12.503,16.801,7.814,2.735,-1.563,23.443,-9.377,-25.006,-0.781,16.801
'[18:01:26.203 07/07/2079]',-5.470,21.490,-3.126,0.781,13.675,-5.079,-5.470,10.940,14.066,1.954,-3.126,5.079,5.470,-12.894,12.894,12.112,1.172,0.000,3.907,2.735,-35.946,0.000,12.894
'[18:01:26.207 07/07/2079]',17.973,4.298,12.894,-10.549,14.847,-1.954,7.033,4.298,10.940,1.563,2.344,-1.954,3.126,-1.563,4.298,7.033,3.126,0.781,-12.112,1.954,-19.927,-4.689,4.298
'[18:01:26.211 07/07/2079]',26.569,8.205,19.536,1.954,9.377,4.689,14.457,26.178,5.861,2.344,4.689,14.066,12.894,0.391,-5.079,21.099,7.814,4.689,-18.755,-10.940,8.205,-9.768,-5.079
'[18:01:26.215 07/07/2079]',44.933,-5.470,21.099,-1.172,9.377,8.205,17.192,22.662,8.205,0.781,13.284,10.159,21.099,8.205,-10.159,14.457,6.642,5.861,-20.317,-25.006,7.033,9.768,-10.159
'[18:01:26.219 07/07/2079]',24.225,19.145,-12.112,11.722,12.503,-1.954,9.768,21.490,3.126,-4.298,9.377,15.238,8.205,14.066,-13.675,14.457,3.907,1.954,12.894,-49.231,7.814,21.490,-13.675
'[18:01:26.223 07/07/2079]',-6.642,41.026,-8.205,14.847,20.708,3.907,-3.516,17.973,12.894,4.689,-3.126,11.331,6.252,16.020,-8.987,12.112,3.126,-2.344,8.987,-25.788,-4.298,21.880,-8.987
'[18:01:26.227 07/07/2079]',-3.126,3.907,12.503,8.596,24.225,13.284,-20.317,4.689,20.708,-1.954,3.126,2.735,30.085,-16.020,6.642,3.516,1.954,-3.516,-11.722,13.284,-3.907,-4.298,6.642
'[18:01:26.230 07/07/2079]',-9.377,19.145,0.781,21.490,23.834,1.563,-9.377,16.020,9.768,-3.126,-0.781,11.722,19.145,-24.615,4.689,18.755,-0.781,1.563,0.000,-4.298,-10.940,-1.954,4.689
'[18:01:26.234 07/07/2079]',-25.006,48.449,3.516,20.317,15.238,-1.172,9.377,22.662,10.940,4.298,6.642,19.536,12.112,-12.894,22.271,20.708,2.735,7.814,-2.735,-16.801,-19.145,11.331,22.271
'[18:01:26.238 07/07/2079]',-10.159,58.608,-4.689,8.596,0.391,4.689,21.490,24.615,10.940,3.907,13.675,12.112,7.424,5.470,14.847,14.066,5.861,10.159,5.470,-28.913,-18.364,10.159,14.847
'[18:01:26.242 07/07/2079]',25.397,51.184,-44.542,12.503,-1.172,-8.205,27.350,27.350,7.424,-1.563,6.642,21.490,4.298,3.126,4.298,22.662,0.781,9.377,45.324,-81.661,-7.424,14.066,4.298
'[18:01:26.246 07/07/2079]',42.979,1.954,-10.940,-14.066,14.847,-8.987,12.112,0.781,13.284,-3.126,0.000,1.563,6.252,14.457,-18.364,8.205,-0.781,0.781,11.722,-47.668,-14.847,29.695,-18.364
'[18:01:26.250 07/07/2079]',83.614,-70.720,7.814,3.126,13.284,14.066,-12.112,8.205,23.443,-12.112,2.344,3.907,22.271,-2.735,-4.689,3.126,-0.781,-2.735,-7.033,-3.516,-5.470,3.907,-4.689
'[18:01:26.254 07/07/2079]',34.383,-50.403,13.284,9.377,20.317,-5.861,-18.364,10.549,18.755,-18.755,-1.954,16.410,8.596,-5.470,-10.159,21.490,-3.907,-3.126,-12.503,17.582,-2.344,-4.298,-10.159
'[18:01:26.258 07/07/2079]',-22.662,-0.391,23.834,28.523,27.741,-7.033,-4.689,12.894,14.847,-5.079,11.331,19.927,-6.252,4.689,25.397,17.582,-3.126,5.079,-23.053,10.549,4.298,8.987,25.397
'[18:01:26.262 07/07/2079]',-32.821,40.635,-13.284,44.933,11.331,-1.172,2.735,24.225,13.675,-3.126,13.284,22.662,-0.391,-1.172,27.350,21.099,-0.781,4.689,14.066,-30.085,19.927,5.079,27.350
'[18:01:26.266 07/07/2079]',-25.397,29.695,3.516,24.225,3.126,5.861,5.470,17.192,17.973,0.391,11.331,17.973,9.768,2.344,21.099,15.238,0.391,8.205,-2.735,-17.973,15.238,7.033,21.099
'[18:01:26.270 07/07/2079]',-3.516,-0.391,16.020,6.252,2.735,7.424,0.391,7.033,10.159,4.689,8.596,5.861,2.735,22.271,12.894,-7.814,0.391,7.814,-15.238,-11.331,25.788,12.112,12.894
'[18:01:26.273 07/07/2079]',10.159,-7.814,0.000,8.205,-4.298,2.735,-7.424,19.145,3.126,-4.298,7.814,21.099,-4.689,39.463,-12.503,6.642,-1.563,3.516,0.781,-9.768,9.768,22.662,-12.503
'[18:01:26.277 07/07/2079]',31.258,-10.549,-4.689,3.907,2.344,16.020,-12.503,13.675,7.814,1.954,13.675,10.549,10.940,55.873,-32.821,1.563,1.954,4.689,5.470,-7.814,6.642,36.337,-32.821
'[18:01:26.281 07/07/2079]',1.954,18.755,-19.145,11.722,6.252,10.159,-11.722,8.987,1.563,8.205,7.033,6.642,-0.781,52.357,-28.913,2.344,1.954,4.689,19.927,-8.596,-9.768,44.151,-28.913
'[18:01:26.285 07/07/2079]',-21.880,96.117,-42.979,-4.298,12.503,2.735,10.159,-0.391,7.033,14.066,7.424,1.954,-4.689,38.681,-7.424,5.861,3.126,8.987,43.761,-59.389,-10.940,35.165,-7.424
'[18:01:26.289 07/07/2079]',-8.596,103.150,-61.734,-9.768,13.675,2.344,7.424,-1.172,5.861,16.020,6.252,-8.987,-14.847,11.331,25.006,-1.563,1.172,3.516,62.515,-67.204,-30.085,2.344,25.006
'[18:01:26.293 07/07/2079]',-3.907,38.681,5.079,-4.298,16.410,10.159,3.516,3.516,2.735,17.582,0.391,7.424,-7.814,-6.642,27.741,16.410,5.079,7.424,-4.298,-10.159,-23.053,-8.596,27.741
'[18:01:26.297 07/07/2079]',-5.470,19.927,20.317,-19.145,7.033,13.284,-1.563,-3.126,-0.391,10.159,4.689,-6.252,-5.470,-15.629,29.695,-0.391,0.391,2.735,-19.536,4.298,-30.867,-15.629,29.695
'[18:01:26.301 07/07/2079]',4.298,-5.470,13.675,-1.172,4.298,9.768,-9.768,5.861,-1.172,7.033,1.563,10.549,-3.907,5.079,0.391,16.801,0.000,-0.781,-12.894,10.940,-17.973,-0.391,0.391
'[18:01:26.305 07/07/2079]',6.642,-32.430,21.490,-11.331,-7.033,27.741,-32.430,-3.907,-1.172,2.735,-11.722,2.344,-12.503,25.006,-37.509,16.801,-0.391,-6.252,-20.708,35.165,-13.675,3.907,-37.509
'[18:01:26.309 07/07/2079]',-5.079,0.391,4.689,-21.880,-5.861,17.192,-16.410,-15.629,3.516,3.516,-1.172,-1.563,-11.722,33.211,-14.457,-2.344,-4.298,-1.563,-3.907,7.033,-13.284,12.894,-14.457
'[18:01:26.313 07/07/2079]',-16.020,63.687,-44.933,-16.020,0.391,5.861,-10.159,-10.549,0.000,-3.907,-2.344,15.238,-9.377,21.099,-19.927,15.238,-9.768,-1.172,45.714,-57.827,8.596,8.205,-19.927
'[18:01:26.316 07/07/2079]',-6.252,90.256,-71.893,-5.079,0.781,1.954,-5.470,8.205,-9.768,-4.298,2.344,23.834,-15.629,6.642,10.159,10.159,-10.159,0.781,72.674,-96.117,9.377,-3.516,10.159
'[18:01:26.320 07/07/2079]',-10.940,108.230,-80.879,-5.470,1.954,-10.940,8.205,10.159,-3.907,-4.298,2.344,17.582,-6.642,37.900,-23.443,3.907,-10.940,3.126,81.661,-106.276,25.397,16.801,-23.443
'[18:01:26.324 07/07/2079]',-15.238,130.891,-101.978,-12.894,-3.907,-12.894,7.033,8.596,-12.112,-15.238,-1.563,12.894,-10.940,8.205,-24.615,10.159,-15.238,0.000,102.759,-123.077,23.053,-7.814,-24.615
'[18:01:26.328 07/07/2079]',31.648,16.410,-62.515,6.252,-5.079,-1.954,-7.424,6.642,-12.112,-7.814,-15.238,14.457,-9.768,-6.252,-25.397,19.927,-13.284,-4.689,63.297,-44.542,0.391,-14.847,-25.397
'[18:01:26.332 07/07/2079]',2.735,-14.847,-5.079,0.781,-3.907,5.079,-14.066,-3.907,-5.470,-7.424,-15.238,1.954,1.954,-8.205,-37.509,16.410,-11.331,-3.907,5.861,25.788,-12.112,-10.159,-37.509
'[18:01:26.336 07/07/2079]',-37.509,-11.722,17.582,-3.907,-16.801,3.516,-12.503,-9.377,-5.861,-5.861,-16.020,7.814,-15.629,2.735,-28.132,19.145,-10.159,-2.344,-16.801,45.714,-24.225,-1.172,-28.132
'[18:01:26.340 07/07/2079]',-37.900,-37.900,41.807,3.516,-18.755,5.470,-11.331,-4.689,-8.987,-7.424,-11.331,7.033,-31.258,19.536,-27.350,17.582,-8.205,-2.735,-41.026,64.469,-13.675,-2.344,-27.350
'[18:01:26.344 07/07/2079]',-27.350,-6.642,34.383,-4.298,-8.987,13.675,-3.516,-3.907,-1.954,-2.735,-7.814,-6.642,-7.033,1.172,-10.159,-3.907,-2.735,-0.781,-33.602,45.324,4.298,-27.741,-10.159
'[18:01:26.348 07/07/2079]',-6.252,21.880,-4.689,-5.079,-9.377,9.768,4.298,1.172,-5.470,-5.861,-1.954,3.907,-11.331,16.410,-21.490,5.470,-2.344,2.344,5.470,-7.424,-10.940,4.689,-21.490
'[18:01:26.352 07/07/2079]',-3.516,18.364,-24.615,-17.973,-22.271,-11.331,8.987,-3.516,-17.973,-14.457,-10.549,-11.331,-30.867,1.954,-19.145,-7.424,-11.331,-4.298,25.397,-25.006,-5.470,-15.238,-19.145
'[18:01:26.355 07/07/2079]',10.549,14.847,-26.960,-3.516,-12.112,-3.907,7.424,3.126,-10.549,-8.987,-4.689,-0.391,-21.099,4.689,-8.596,-0.781,-8.205,-3.516,27.741,-17.192,-13.675,-12.503,-8.596
'[18:01:26.359 07/07/2079]',15.238,-16.020,-16.020,6.642,-4.689,-11.722,0.391,5.470,-11.722,-12.112,-4.298,10.940,-13.675,19.927,-34.774,8.987,-8.987,-3.907,16.801,5.470,-20.317,13.284,-34.774
'[18:01:26.363 07/07/2079]',13.675,-40.244,-29.695,9.768,-15.238,-10.549,-11.722,-8.596,-14.457,-13.675,-5.861,3.516,-12.503,18.755,-38.681,0.391,-12.112,-8.987,30.476,10.549,-1.172,5.470,-38.681
'[18:01:26.367 07/07/2079]',0.000,-8.987,-13.675,-19.536,-15.238,-1.563,-4.298,-20.317,-10.549,-12.112,-7.814,-9.768,1.172,-9.377,-20.708,-13.284,-11.331,-9.768,14.457,12.112,-0.781,-14.457,-20.708
'[18:01:26.371 07/07/2079]',0.391,51.184,-45.714,-13.284,-15.238,-8.987,10.549,5.861,-10.549,-10.549,1.563,0.781,-13.284,13.675,-16.020,-3.126,-8.596,-0.391,46.496,-30.867,-26.569,3.907,-16.020
'[18:01:26.375 07/07/2079]',-19.145,75.018,-81.270,-17.192,-30.085,-15.629,8.205,-4.689,-20.317,-12.112,-5.079,-7.814,-33.993,-7.033,2.344,-8.987,-14.066,-3.516,82.051,-73.846,-14.847,-10.549,2.344
'[18:01:26.379 07/07/2079]',-14.457,32.430,-7.424,-16.801,-20.708,-10.940,20.708,3.516,-12.112,-8.205,-4.298,-3.907,-26.960,-9.377,6.252,0.000,-10.549,-0.391,8.205,-33.993,-13.675,-2.344,6.252
'[18:01:26.383 07/07/2079]',11.722,-7.814,0.000,21.880,-12.112,-1.954,12.112,27.741,-4.298,-9.768,2.344,16.020,-16.410,-8.205,11.722,15.238,-5.079,3.907,0.781,0.000,2.344,-27.741,11.722
'[18:01:26.387 07/07/2079]',-8.205,-62.906,25.397,41.026,-20.317,0.391,-11.331,27.350,-12.503,-8.596,-14.457,15.238,-36.337,0.391,0.000,12.894,-8.205,-1.172,-24.615,54.701,23.443,-37.509,0.000
'[18:01:26.391 07/07/2079]',0.000,-57.045,30.085,7.814,-12.503,2.344,-10.940,3.126,-12.112,-7.033,-14.066,6.252,-46.496,9.768,6.252,0.781,-10.549,-3.126,-29.304,71.893,-10.549,-33.602,6.252
'[18:01:26.395 07/07/2079]',10.549,-19.927,-16.410,7.424,-5.861,-0.781,-7.033,-3.516,-12.894,-10.159,-12.503,-4.298,-35.165,8.596,-3.907,-11.331,-13.675,-5.079,17.192,41.807,-9.768,-32.039,-3.907
'[18:01:26.398 07/07/2079]',6.252,-28.523,-3.126,5.470,-9.377,-9.377,-3.907,3.126,-28.523,-7.814,-6.642,-2.735,-57.436,39.853,-10.940,-18.364,-16.801,-1.954,3.907,30.476,-20.317,10.159,-10.940
'[18:01:26.402 07/07/2079]',21.490,32.039,-32.821,-25.788,4.298,-2.344,3.516,-9.377,-10.940,-1.563,0.000,3.907,-56.264,68.376,-15.629,-5.470,-7.424,0.391,33.602,-28.132,-54.310,40.635,-15.629
'[18:01:26.406 07/07/2079]',33.602,43.761,-12.894,-27.350,21.880,9.377,7.424,-1.954,9.377,2.735,5.470,13.284,-36.728,76.972,-19.927,11.331,2.735,5.861,13.675,-17.973,-63.297,42.979,-19.927
'[18:01:26.410 07/07/2079]',35.946,-21.880,25.788,-1.563,11.722,17.192,-7.814,16.020,1.563,-1.563,5.861,25.397,-28.132,55.873,-21.490,24.615,4.689,5.470,-25.006,36.728,-62.125,27.741,-21.490
'[18:01:26.414 07/07/2079]',50.012,-14.066,5.861,-1.954,18.755,25.006,-11.722,7.033,9.768,6.252,8.205,16.020,-14.066,40.244,-3.516,18.755,7.814,9.377,-5.079,23.834,-63.687,7.033,-3.516
'[18:01:26.418 07/07/2079]',42.589,-2.735,2.344,-5.470,16.020,20.708,-3.516,1.172,12.503,13.284,0.000,3.516,-10.940,14.847,11.331,13.675,7.424,7.033,-1.563,27.350,-56.264,-24.615,11.331
'[18:01:26.422 07/07/2079]',26.569,13.675,-15.238,-1.563,1.563,16.801,-0.781,2.735,1.172,19.536,6.252,-1.954,-30.085,38.291,23.834,-7.424,5.470,8.596,16.020,22.271,-64.469,-9.377,23.834
'[18:01:26.426 07/07/2079]',46.105,21.490,-33.993,-5.079,14.847,7.424,5.079,0.391,8.205,24.225,7.424,-5.861,-14.847,21.880,43.370,-15.629,5.079,9.768,34.774,6.252,-60.171,-24.225,43.370
'[18:01:26.430 07/07/2079]',52.357,72.674,-62.906,-19.145,18.755,13.284,7.033,1.172,11.722,17.973,6.642,4.298,-11.722,40.244,12.503,0.000,6.642,10.940,63.687,-35.165,-87.131,12.503,12.503
'[18:01:26.434 07/07/2079]',67.595,20.708,-42.198,-5.470,23.053,24.225,-13.675,6.642,14.066,15.629,10.549,2.735,-8.596,50.012,7.424,-4.298,5.861,7.033,42.979,7.814,-105.885,34.774,7.424
'[18:01:26.438 07/07/2079]',52.357,-34.774,-0.781,0.391,8.596,24.615,-26.178,8.596,10.549,11.722,5.861,6.642,-12.894,42.589,7.033,-0.781,3.126,4.298,1.563,42.589,-66.032,12.112,7.033
'[18:01:26.441 07/07/2079]',47.668,-37.900,-10.940,10.549,0.391,29.304,-24.225,3.907,10.159,7.814,10.549,5.079,-14.847,37.509,7.424,4.689,3.516,3.516,11.722,30.867,-60.952,8.205,7.424
'[18:01:26.445 07/07/2079]',49.621,-53.919,26.178,-4.298,1.172,30.085,-14.066,0.000,5.470,16.801,5.861,-1.954,-16.801,35.556,4.298,2.344,2.344,2.735,-25.397,52.357,-64.469,10.159,4.298
'[18:01:26.449 07/07/2079]',32.430,-46.105,18.755,-9.377,-14.847,23.443,-11.722,-0.391,-1.954,12.894,3.907,-2.735,-10.159,15.238,9.377,-3.126,1.563,3.907,-17.973,41.026,-42.198,-9.768,9.377
'[18:01:26.453 07/07/2079]',23.443,-18.755,-5.079,-8.987,-26.178,10.940,3.126,1.563,-3.126,5.470,2.344,2.344,-16.801,26.569,-7.033,4.298,3.126,6.252,5.861,17.973,-46.105,8.987,-7.033
'[18:01:26.457 07/07/2079]',38.681,-21.880,12.894,-23.053,-14.847,7.033,14.066,0.391,3.516,7.814,1.563,-3.516,-19.927,52.747,-21.880,-0.781,3.516,8.205,-12.112,30.085,-52.747,23.443,-21.880
'[18:01:26.461 07/07/2079]',45.324,-1.563,-22.271,-9.377,-17.973,34.383,-5.079,0.391,13.284,13.675,10.549,-4.298,-1.172,29.695,9.768,-4.689,6.642,9.768,23.053,1.954,-55.092,13.284,9.768
'[18:01:26.465 07/07/2079]',45.324,-14.066,-33.211,7.424,-14.847,33.993,-14.847,1.172,14.847,9.377,6.642,3.516,7.033,6.642,9.768,11.722,4.298,5.861,33.993,1.954,-55.482,9.377,9.768
'[18:01:26.469 07/07/2079]',39.463,-40.635,3.907,17.192,12.112,17.192,-14.457,4.689,13.675,7.033,1.563,2.344,4.298,-7.424,15.629,12.503,0.391,3.126,-3.126,37.118,-53.529,3.907,15.629
'[18:01:26.473 07/07/2079]',25.397,-13.284,-1.563,2.735,17.192,10.549,-10.159,-3.907,13.675,11.722,9.768,-2.344,-1.172,-5.079,37.118,3.126,0.000,3.907,2.344,28.913,-78.535,5.470,37.118
'[18:01:26.477 07/07/2079]',28.913,-45.714,3.126,13.675,13.675,-3.516,-5.861,-2.735,7.033,9.768,7.033,10.549,11.722,-12.503,22.271,13.284,1.172,3.907,-2.344,41.416,-64.860,12.894,22.271
'[18:01:26.480 07/07/2079]',35.556,-40.635,8.205,-4.298,17.582,-17.192,14.847,-16.020,6.252,10.940,8.596,-1.954,16.020,6.252,5.079,-2.344,2.735,10.159,-7.424,39.853,-55.873,26.960,5.079
'[18:01:26.484 07/07/2079]',24.615,-29.304,24.225,-6.252,13.675,3.126,10.549,-15.238,10.159,19.145,18.755,-12.112,18.364,5.470,24.615,-11.722,7.424,12.894,-23.443,32.821,-32.039,9.377,24.615
'[18:01:26.488 07/07/2079]',13.284,-25.788,10.159,12.112,1.563,8.596,3.126,-4.298,2.735,17.192,10.549,-13.675,15.238,14.457,-9.377,-1.954,7.814,10.159,-9.377,25.397,0.391,10.940,-9.377
'[18:01:26.492 07/07/2079]',20.317,-61.343,21.880,23.443,4.298,12.503,-8.596,-3.126,0.781,5.861,3.516,-15.238,16.020,-1.172,-26.569,7.033,4.298,5.861,-21.099,41.026,7.033,10.940,-26.569
'[18:01:26.496 07/07/2079]',23.053,-72.674,39.853,32.821,8.596,13.284,-3.126,4.689,3.907,8.205,10.159,-2.344,16.801,-18.364,8.987,14.066,3.516,10.159,-39.072,43.761,-6.252,9.377,8.987
'[18:01:26.500 07/07/2079]',25.006,-75.409,25.397,33.602,3.907,7.033,-5.079,3.126,4.689,5.470,5.079,-3.516,14.066,-28.523,14.847,11.722,1.172,7.814,-24.615,52.357,-19.927,-6.642,14.847
'[18:01:26.504 07/07/2079]',23.053,-19.145,-22.271,13.284,-4.298,7.814,-2.735,-5.861,4.689,5.470,8.205,-0.391,-3.907,-8.987,18.364,14.457,3.516,12.112,23.053,16.020,-55.482,0.391,18.364
'[18:01:26.508 07/07/2079]',23.443,-30.867,-12.503,16.410,1.172,3.907,5.470,-15.238,8.987,7.033,10.940,-5.861,5.079,-15.238,29.695,2.344,3.516,16.020,13.284,16.801,-28.132,-4.689,29.695
'[18:01:26.512 07/07/2079]',17.582,-39.072,-6.252,19.145,-2.735,5.079,6.642,-17.973,3.516,8.596,12.112,-14.066,4.298,-8.987,13.284,1.954,2.344,13.675,7.033,17.973,-19.927,-1.172,13.284
'[18:01:26.516 07/07/2079]',19.145,-35.946,-8.987,27.741,-6.252,11.722,3.516,-7.033,2.344,7.424,11.722,-3.516,8.205,0.000,-11.331,21.099,4.298,16.020,9.768,14.847,-30.085,18.755,-11.331
'[18:01:26.520 07/07/2079]',30.476,-56.654,17.192,12.112,0.781,0.391,10.549,-8.205,4.689,8.987,14.457,-2.344,2.735,2.344,0.781,20.317,4.298,16.410,-16.410,28.132,-39.463,21.880,0.781
'[18:01:26.523 07/07/2079]',9.377,-31.648,19.536,0.000,0.000,-1.563,13.284,-13.284,4.298,4.689,13.284,-5.470,-8.596,-3.516,13.284,16.801,1.563,12.112,-18.755,28.913,-40.244,0.391,13.284
'[18:01:26.527 07/07/2079]',19.927,-8.596,3.907,0.000,12.503,8.596,4.298,-10.159,8.987,2.735,14.457,1.172,-3.126,-7.424,14.066,25.397,5.861,10.159,-3.126,18.364,-43.761,-12.112,14.066
'[18:01:26.531 07/07/2079]',25.788,3.907,-19.536,-2.735,18.364,5.079,4.298,-21.490,4.298,2.344,14.457,-12.894,-3.907,-11.331,17.582,7.033,6.252,7.424,20.317,-2.344,-30.085,-14.847,17.582
'[18:01:26.535 07/07/2079]',21.099,21.490,-42.198,12.112,21.099,-3.516,7.814,-11.722,9.768,-0.391,7.033,-3.126,-8.205,1.172,9.377,11.331,6.252,5.470,42.979,-27.741,-6.642,-13.675,9.377
'[18:01:26.539 07/07/2079]',16.801,19.536,-39.853,7.814,14.066,0.391,2.735,-13.284,6.252,4.689,7.814,0.391,-20.708,28.132,-4.298,18.755,6.252,5.079,40.635,-17.973,-19.927,-0.781,-4.298
'[18:01:26.543 07/07/2079]',22.271,-10.549,-23.443,5.079,5.079,-0.391,2.735,-14.847,4.298,5.470,8.987,-5.470,-11.331,23.443,-7.814,10.549,3.907,7.033,24.225,5.079,-21.490,3.516,-7.814
'[18:01:26.547 07/07/2079]',7.424,-42.198,1.954,7.424,-8.596,-10.940,5.079,-10.159,-5.079,-3.126,5.470,0.781,-24.225,1.954,-0.391,19.927,-3.907,5.861,-1.172,28.913,-20.317,-12.503,-0.391
'[18:01:26.551 07/07/2079]',-5.079,-46.886,19.927,-3.126,-9.768,3.516,-5.470,-22.271,-5.861,-4.689,11.722,-5.861,-28.132,18.364,-6.642,11.722,-3.907,4.298,-19.145,52.747,-23.053,-1.172,-6.642
'[18:01:26.555 07/07/2079]',-15.629,-50.012,26.960,3.907,-16.410,2.735,-7.424,-12.503,-11.331,-7.033,9.377,-5.470,-41.807,24.615,-14.066,15.629,-1.563,1.954,-26.178,51.966,-14.457,-1.172,-14.066
'[18:01:26.559 07/07/2079]',-4.689,-51.184,6.642,21.490,-10.940,-1.954,-6.252,-5.861,-16.410,-7.033,9.768,-5.861,-50.403,19.927,-1.954,12.112,-1.563,2.735,-5.861,28.523,-0.391,-12.503,-1.954
'[18:01:26.563 07/07/2079]',6.252,-41.026,-4.689,23.053,0.781,-1.172,-5.470,-9.377,-9.377,-1.563,1.172,-4.298,-33.993,15.629,-11.331,14.066,-1.172,0.391,5.470,14.066,5.861,-4.689,-11.331
'[18:01:26.566 07/07/2079]',8.987,-34.774,-7.033,12.894,1.172,-6.252,-5.079,-9.377,-3.907,0.391,-6.642,-3.516,-25.397,3.126,-10.159,18.755,0.391,-3.516,7.814,20.708,-3.126,-19.145,-10.159
'[18:01:26.570 07/07/2079]',-0.391,-34.774,-10.159,8.987,-7.424,-16.020,-4.689,-7.424,-5.470,-3.907,-10.159,-3.126,-37.118,-4.689,-1.954,18.364,-2.344,-6.252,10.940,26.960,-17.973,-28.132,-1.954
'[18:01:26.574 07/07/2079]',-11.331,-25.788,-0.781,-9.377,-7.033,-14.457,-2.344,-22.662,-1.563,-3.516,-8.596,-11.722,-41.026,10.940,-6.252,8.596,-1.954,-8.987,1.563,37.509,-23.443,-19.536,-6.252
'[18:01:26.578 07/07/2079]',-0.391,-37.118,1.563,-16.410,-13.675,-10.940,-0.781,-26.569,-1.954,-5.861,-6.642,-15.238,-39.463,13.675,-16.801,10.940,1.563,-11.722,-0.781,39.463,-35.165,-13.284,-16.801
'[18:01:26.582 07/07/2079]',-8.987,-48.840,-1.563,14.066,-26.178,-11.722,-1.563,-4.689,-8.596,-2.735,0.781,-5.861,-50.012,17.582,-0.781,14.847,3.516,-8.205,2.344,31.648,-34.774,-5.470,-0.781
'[18:01:26.586 07/07/2079]',-24.615,-38.291,-2.735,20.317,-20.317,-17.192,0.000,-7.033,-15.238,-2.735,-3.907,-10.940,-53.919,8.596,3.907,6.252,1.172,-10.549,3.516,25.397,-14.457,-6.252,3.907
'[18:01:26.590 07/07/2079]',-28.913,-26.178,-6.252,25.788,-10.940,-21.880,0.391,-2.344,0.000,-3.516,-10.940,-0.781,-40.635,7.814,1.954,14.457,2.344,-12.503,7.033,28.913,5.470,-23.053,1.954
'[18:01:26.594 07/07/2079]',-23.443,-24.615,-10.549,39.463,-7.814,-20.317,0.781,8.596,0.781,-8.596,-11.331,3.126,-32.430,-5.861,4.689,16.410,0.391,-15.629,11.331,23.834,3.907,-24.615,4.689
'[18:01:26.598 07/07/2079]',-13.675,-28.523,-9.377,21.880,-1.172,-26.960,3.907,-4.689,-6.252,-8.205,-10.159,-3.907,-32.039,-7.033,7.033,1.172,-2.735,-14.847,10.159,23.834,17.582,-33.211,7.033
'[18:01:26.602 07/07/2079]',-11.722,-6.642,0.391,-2.735,1.563,-24.615,12.112,-10.159,0.000,-7.424,-10.159,-8.205,-31.648,20.317,-14.457,-1.563,-1.172,-12.112,0.391,13.284,22.662,-21.490,-14.457
'[18:01:26.605 07/07/2079]',0.000,-38.291,0.391,3.126,-14.066,-26.569,8.987,-2.735,-18.755,-5.470,-2.735,7.424,-57.045,30.867,-4.689,9.768,-3.907,-9.768,0.391,17.582,-3.907,-5.470,-4.689
'[18:01:26.609 07/07/2079]',-7.424,-29.695,-6.642,3.126,-13.675,-28.913,3.126,-1.172,-26.178,-0.391,-5.079,1.563,-49.231,12.112,-6.252,11.722,-6.252,-8.596,7.424,11.722,-9.377,-14.847,-6.252
'[18:01:26.613 07/07/2079]',-19.536,-29.695,-1.172,7.424,-18.755,-8.205,-14.457,-1.172,-19.145,-1.172,-2.344,5.079,-33.993,0.391,1.954,13.675,-8.987,-6.642,1.954,10.549,-12.894,-8.205,1.954
'[18:01:26.617 07/07/2079]',-22.662,-29.304,-7.033,0.391,-32.039,-5.861,-11.331,-8.596,-8.596,-3.516,3.516,3.907,-27.741,7.033,10.549,3.907,-9.768,-7.814,7.814,17.582,-13.284,-9.768,10.549
'[18:01:26.621 07/07/2079]',-30.476,10.159,-32.039,-1.954,-30.085,-7.424,-12.503,-3.126,-3.907,-14.066,-4.689,1.563,-31.648,11.722,-6.252,4.298,-10.940,-10.940,32.821,1.954,6.642,-28.523,-6.252
'[18:01:26.625 07/07/2079]',-8.596,-27.741,-5.470,-12.112,-29.304,-0.391,-9.377,-14.457,-1.172,-17.582,-4.689,-6.252,-26.178,17.973,-19.536,-4.689,-12.112,-10.159,6.252,17.973,19.927,-10.940,-19.536
'[18:01:26.629 07/07/2079]',6.642,-45.714,-21.880,-5.470,-22.271,-7.814,-10.549,-24.615,-2.735,-25.788,-8.205,-12.503,-25.397,2.735,-20.708,-7.033,-14.066,-16.020,22.662,19.145,17.582,-8.596,-20.708
'[18:01:26.633 07/07/2079]',6.642,-36.337,-16.020,10.549,-2.735,-13.284,-10.940,-7.424,1.954,-14.066,-17.582,-10.549,-19.536,-5.079,-16.410,0.391,-6.642,-15.238,16.801,15.238,13.284,-11.331,-16.410
'[18:01:26.637 07/07/2079]',4.689,-46.496,5.861,7.033,7.033,-12.112,-16.801,-5.470,-1.172,-5.861,-16.410,-16.410,-17.973,-9.768,-10.940,-0.781,-3.516,-14.066,-5.079,35.946,-8.596,-9.377,-10.940
'[18:01:26.641 07/07/2079]',1.954,-33.602,10.549,0.000,5.861,-9.377,-10.159,-5.861,1.563,-0.781,-8.596,-5.079,-16.020,0.781,0.391,1.954,-1.954,-10.159,-9.768,27.741,-10.940,-7.814,0.391
'[18:01:26.645 07/07/2079]',-2.344,-21.099,9.377,-2.735,-3.126,-5.861,-2.344,-3.907,-4.689,0.781,-2.735,0.391,-16.801,9.377,-1.563,4.298,0.391,-7.033,-8.596,23.443,-0.781,-18.364,-1.563
'[18:01:26.648 07/07/2079]',-3.907,-25.788,7.424,-8.987,-16.020,-5.470,0.000,-8.596,-5.861,-1.172,-1.563,0.391,-12.112,-5.079,3.907,2.735,-1.172,-3.126,-6.642,15.629,8.205,-28.913,3.907
'[18:01:26.652 07/07/2079]',-10.940,-25.397,1.954,-10.159,-28.523,-6.252,1.172,-10.159,-14.066,-10.159,-4.689,1.563,-27.741,1.563,-7.033,4.298,-4.689,-3.516,-1.172,10.159,0.391,-7.033,-7.033
'[18:01:26.656 07/07/2079]',-14.457,-15.238,-13.284,-3.126,-21.099,-22.662,10.549,-11.722,-17.192,-8.205,-2.735,-2.344,-39.463,8.596,4.298,-6.252,-5.470,-4.298,14.066,8.205,6.642,-19.145,4.298
'[18:01:26.660 07/07/2079]',3.126,-20.317,-11.722,-7.033,-7.814,-7.814,0.000,-18.755,-17.192,-4.298,-3.516,-2.344,-30.867,-7.033,9.768,-0.781,-0.781,-3.907,12.503,20.317,-13.284,-21.490,9.768
'[18:01:26.664 07/07/2079]',7.033,-6.252,-10.159,-10.159,-0.781,-5.079,1.563,-14.847,-17.192,-3.907,0.000,1.954,-20.317,6.642,-5.470,-0.391,1.172,-1.172,10.940,6.252,-3.907,-3.907,-5.470
'[18:01:26.668 07/07/2079]',6.642,12.894,-18.364,-10.159,10.940,-9.377,6.642,-16.801,-12.894,0.391,1.172,1.172,-14.847,5.470,-0.391,0.000,1.563,-1.954,19.145,-0.391,9.768,-21.880,-0.391
'[18:01:26.672 07/07/2079]',1.954,8.596,-26.960,-4.689,-2.735,-9.377,2.735,-10.940,-10.549,-0.781,-5.470,5.861,-21.099,11.722,-11.331,7.814,0.391,-4.689,27.741,6.252,8.987,-25.788,-11.331
'[18:01:26.676 07/07/2079]',-1.172,-10.159,-20.708,-5.861,-10.549,-12.112,-1.954,-14.066,-13.284,-4.689,-5.861,3.126,-11.331,-1.954,-12.112,3.126,-5.079,-5.079,21.490,10.159,7.033,-16.410,-12.112
'[18:01:26.680 07/07/2079]',7.033,-25.788,-20.317,5.470,-5.079,-14.066,-4.689,-8.205,-10.549,-10.549,-5.470,7.033,-2.735,-11.331,-10.940,3.907,-8.987,-8.205,21.099,9.377,10.549,-12.112,-10.940
'[18:01:26.684 07/07/2079]',9.377,-45.714,-12.503,-1.954,-17.192,-14.457,-7.033,-10.549,-11.331,-15.238,-8.205,5.079,-2.344,-12.894,-16.801,0.391,-13.675,-10.549,13.284,28.132,8.987,-15.238,-16.801
'[18:01:26.688 07/07/2079]',-7.424,-37.118,11.331,-9.768,-17.582,-7.424,-5.861,-11.331,-7.424,-8.987,0.391,3.516,-12.112,-0.781,-2.344,1.563,-8.596,-4.689,-10.549,42.979,-14.066,-1.954,-2.344
'[18:01:26.691 07/07/2079]',-2.344,-13.675,12.894,0.000,1.172,0.000,1.563,-4.689,7.814,-5.079,6.252,8.205,2.344,9.377,-2.344,7.424,-2.344,1.563,-12.112,19.536,22.662,-11.331,-2.344
'[18:01:26.695 07/07/2079]',2.344,-9.768,5.470,-2.735,0.391,-0.391,2.735,-6.252,6.642,1.563,-2.735,1.954,10.549,-11.722,-1.172,8.987,-4.298,1.563,-4.689,21.099,6.642,-18.364,-1.172
'[18:01:26.699 07/07/2079]',4.298,1.954,0.781,-9.377,3.516,1.563,1.954,-8.596,-2.735,2.344,0.781,-1.172,7.424,-18.364,4.689,3.516,-2.344,3.516,0.000,23.443,-12.112,-13.284,4.689
'[18:01:26.703 07/07/2079]',8.987,37.900,-41.416,5.079,8.596,-1.563,-1.172,4.689,-0.781,3.126,3.907,8.205,10.940,-18.364,12.894,7.033,0.000,5.079,42.198,-25.006,-1.563,-11.722,12.894
'[18:01:26.707 07/07/2079]',14.066,24.225,-45.714,1.954,0.000,-5.861,0.000,1.563,-5.861,0.000,0.000,10.940,5.079,-12.503,-0.781,11.722,-2.735,-0.391,46.496,-28.913,3.126,-6.642,-0.781
'[18:01:26.711 07/07/2079]',27.350,5.861,-25.788,-13.284,-1.563,0.391,0.391,-5.079,-4.689,3.126,1.563,-1.172,10.159,-15.629,0.391,3.126,0.781,-1.954,26.569,-13.675,-0.781,-14.066,0.391
'[18:01:26.715 07/07/2079]',18.755,-23.053,-17.192,-3.126,-12.112,-1.563,-3.516,-5.861,-1.172,5.470,1.954,5.470,21.490,-23.053,4.689,7.814,2.344,0.000,17.973,-1.954,17.192,-16.410,4.689
'[18:01:26.719 07/07/2079]',13.284,-30.867,-21.490,-13.284,-24.615,-14.457,1.563,-14.457,-4.298,3.907,-4.689,5.470,19.145,-25.788,2.735,2.735,0.000,-2.344,22.271,-1.172,39.463,-36.337,2.735
'[18:01:26.723 07/07/2079]',-3.516,-38.291,-13.675,-26.569,-29.304,-14.066,-7.814,-29.304,-12.503,1.954,-10.159,-16.410,13.284,-15.238,-17.973,-18.364,-2.735,-9.377,14.457,22.271,46.105,-33.602,-17.973
'[18:01:26.727 07/07/2079]',-1.954,-48.840,-21.880,-7.814,-19.536,-16.801,-16.020,-26.178,-17.192,0.000,-3.516,-1.954,33.211,-32.821,-6.252,-18.364,-4.689,-9.377,22.662,19.927,67.985,-33.602,-6.252
'[18:01:26.730 07/07/2079]',1.563,-53.529,-21.490,0.000,-17.192,-14.066,-19.145,-22.271,-18.364,-1.954,-5.861,-3.126,30.476,-33.993,-10.549,-16.801,-4.298,-11.331,22.271,12.503,73.065,-32.430,-10.549
'[18:01:26.734 07/07/2079]',9.768,-73.846,7.424,6.252,-8.205,-5.861,-17.582,-15.629,-13.675,-1.563,-10.159,-1.563,25.006,-8.987,-32.430,-10.940,-2.344,-11.331,-6.642,34.774,63.297,-4.298,-32.430
'[18:01:26.738 07/07/2079]',24.615,-60.562,3.907,-9.768,0.000,-7.033,-17.973,-14.847,-7.033,-2.735,-12.503,-7.424,14.066,-19.145,-17.973,-8.987,-4.298,-10.940,-3.126,39.463,32.430,-25.006,-17.973
'[18:01:26.742 07/07/2079]',38.291,-60.562,-12.894,-5.470,-1.954,-3.516,-19.536,-14.847,-6.252,-3.516,-14.457,-0.391,7.814,-21.099,-17.192,3.516,-3.516,-8.205,13.675,40.635,1.954,-24.225,-17.192
'[18:01:26.746 07/07/2079]',48.059,-59.389,-10.549,-26.569,-1.563,-2.344,-15.629,-27.741,-3.907,-6.642,-19.145,-14.457,10.549,-26.960,-23.834,-5.470,-6.252,-12.112,11.331,35.165,-21.099,-9.377,-23.834
'[18:01:26.750 07/07/2079]',18.364,-10.940,-39.072,-31.258,-12.503,-8.987,-16.020,-23.834,-8.205,-8.596,-10.159,-8.205,8.987,-34.383,-0.781,-11.331,-5.861,-14.457,39.853,14.066,-34.774,-12.112,-0.781
'[18:01:26.754 07/07/2079]',0.391,-7.424,-29.304,-26.178,-11.722,-16.020,-13.675,-19.536,-13.284,-7.033,-9.377,-7.424,5.861,-38.291,4.298,-12.112,-4.298,-14.457,30.085,11.331,-14.066,-22.271,4.298
'[18:01:26.758 07/07/2079]',-7.424,-21.490,7.814,-19.536,-8.205,-7.814,-8.205,-14.457,-14.457,-3.516,-3.516,-5.861,4.298,-19.536,-3.907,-10.159,-1.172,-11.331,-7.033,13.284,8.205,-3.516,-3.907
'[18:01:26.762 07/07/2079]',-9.768,-30.867,0.781,-1.563,-14.066,-1.563,-14.066,-9.377,-18.364,-7.424,0.391,-0.391,16.020,-19.536,-17.192,-7.033,-0.391,-12.503,0.000,10.549,28.913,1.563,-17.192
'[18:01:26.766 07/07/2079]',-2.344,-26.178,0.391,-8.987,-11.722,0.391,-14.066,-11.331,-15.238,-2.735,-8.596,-8.596,24.615,-38.291,-23.834,-0.781,0.781,-10.549,0.391,8.987,35.556,-25.006,-23.834
'[18:01:26.770 07/07/2079]',0.000,-7.814,0.781,-10.159,0.000,-0.781,-8.987,-6.252,-3.516,-1.172,-6.252,-5.079,26.960,-24.615,-20.708,0.391,4.689,-5.861,0.000,1.172,33.993,-18.364,-20.708
'[18:01:26.773 07/07/2079]',-12.112,16.020,-22.662,-13.675,-0.391,-10.940,-7.814,-12.112,-5.861,-5.861,-7.814,-1.563,25.788,-27.350,-24.615,2.344,0.391,-8.205,23.443,-5.079,23.053,-12.112,-24.615
'[18:01:26.777 07/07/2079]',3.516,6.642,-14.457,-30.867,7.033,-16.020,-0.781,-24.615,-2.735,-5.861,-7.033,-18.755,37.509,-47.277,-15.629,-10.159,-2.344,-9.768,15.238,9.377,13.675,-30.085,-15.629
'[18:01:26.781 07/07/2079]',21.880,-7.814,-5.861,-22.662,21.490,-8.596,-3.126,-23.443,0.391,1.172,-1.563,-15.238,42.979,-37.900,-7.033,-12.894,-0.391,-3.126,6.642,4.298,20.317,-15.238,-7.033
'[18:01:26.785 07/07/2079]',16.020,-29.695,-14.847,-11.722,-2.735,-0.781,-13.675,-21.099,-13.675,-3.516,-7.033,-11.722,24.615,-17.192,-38.681,-7.033,-5.470,-7.424,15.629,-1.172,19.536,16.801,-38.681
'[18:01:26.789 07/07/2079]',22.271,-52.357,-1.563,-23.443,-15.238,3.126,-10.940,-30.867,-8.987,0.391,-5.470,-25.788,17.973,-14.066,-28.913,-16.410,-3.126,-8.987,2.344,8.987,19.145,3.516,-28.913
'[18:01:26.793 07/07/2079]',28.523,-54.701,3.126,-8.205,-10.549,7.814,-8.987,-17.192,-2.735,7.814,-2.735,-18.755,30.476,-19.145,-16.410,-11.722,3.516,-3.516,-2.344,3.907,25.788,1.172,-16.410
'[18:01:26.797 07/07/2079]',12.894,-28.132,2.735,0.000,-3.907,1.563,-5.079,-2.735,-4.298,7.033,-3.907,-7.424,29.695,-20.317,-18.755,0.391,5.861,0.000,-1.954,-6.252,19.145,6.642,-18.755
'[18:01:26.801 07/07/2079]',-0.781,-14.457,14.847,-8.987,6.642,-2.735,1.563,-14.457,1.563,9.768,-2.344,-9.768,28.523,-8.596,-14.066,-5.861,9.377,0.000,-14.066,8.987,16.801,7.424,-14.066
'[18:01:26.805 07/07/2079]',-12.503,0.000,20.708,-7.424,9.377,-3.907,3.907,-8.596,0.391,9.768,-4.689,-4.689,23.834,-10.159,-11.722,-1.172,12.112,0.391,-19.927,19.536,21.490,-6.252,-11.722
'[18:01:26.809 07/07/2079]',-11.722,-6.252,19.927,-3.126,7.424,-3.126,7.033,-11.722,-5.470,7.033,-1.563,-1.563,21.099,-15.238,-13.284,4.298,10.940,0.781,-19.145,19.927,14.457,0.781,-13.284
'[18:01:26.813 07/07/2079]',-12.503,0.781,4.298,-8.205,-2.735,-0.391,5.861,-16.410,-11.722,-1.954,-5.861,-5.079,18.364,-16.410,-39.072,8.987,6.252,-3.516,-3.516,-3.907,16.020,9.768,-39.072
'[18:01:26.816 07/07/2079]',-4.298,-15.238,14.457,-4.298,-8.596,2.344,7.814,-10.159,-4.689,-1.954,-1.563,-10.549,25.397,-27.350,-25.397,5.861,6.252,-3.907,-13.675,8.987,18.755,-9.377,-25.397
'[18:01:26.820 07/07/2079]',-8.987,-16.020,16.410,-10.549,-16.020,-3.126,6.642,-5.861,-1.172,-2.735,-2.735,-13.675,15.629,-25.397,-14.847,2.344,2.735,-3.907,-15.629,21.099,-8.596,-13.284,-14.847
'[18:01:26.824 07/07/2079]',2.735,7.424,-11.722,-8.205,-8.987,2.735,3.126,-5.861,-2.344,-5.861,-0.781,-0.781,4.298,-8.596,-21.880,14.457,3.516,-2.344,12.503,-6.252,-12.503,-6.252,-21.880
'[18:01:26.828 07/07/2079]',31.648,-24.225,-3.126,-6.252,-3.126,16.410,0.391,-16.410,5.079,8.205,-0.781,-6.252,14.457,-26.960,13.284,4.689,7.424,-1.954,3.907,4.689,-9.768,-24.615,13.284
'[18:01:26.832 07/07/2079]',24.615,-28.913,-8.987,5.470,-6.642,12.503,-2.735,-10.159,-6.252,0.391,-1.563,2.344,13.675,-41.807,4.298,16.020,4.689,-1.954,9.768,3.907,-5.079,-23.053,4.298
'[18:01:26.836 07/07/2079]',10.159,-10.549,-1.172,8.205,-0.781,6.642,6.642,-5.470,-12.112,-0.391,0.391,5.470,7.424,-27.350,-9.377,21.880,5.861,1.954,1.954,-7.424,9.377,-11.331,-9.377
'[18:01:26.840 07/07/2079]',1.954,-18.364,9.768,17.582,-5.861,-2.344,16.020,3.126,-8.596,5.470,3.126,1.563,3.126,-13.675,-7.033,17.973,7.033,3.126,-8.987,-0.781,6.642,0.000,-7.033
'[18:01:26.844 07/07/2079]',-3.516,-37.900,28.132,15.238,-15.629,-8.987,20.708,7.814,-6.252,0.391,1.172,-6.642,18.755,-19.536,-25.788,14.457,2.735,0.391,-27.350,12.894,31.648,-14.457,-25.788
'[18:01:26.848 07/07/2079]',6.642,-33.602,25.006,11.331,-9.768,-12.894,25.397,8.596,-1.563,5.470,5.861,3.126,28.913,-22.271,-10.159,16.410,4.298,6.642,-24.225,11.722,16.801,-8.205,-10.159
'[18:01:26.852 07/07/2079]',10.159,-21.490,0.000,1.954,-19.927,3.907,9.768,-2.344,-5.079,6.252,1.563,-0.391,15.629,-29.304,1.954,11.722,2.344,4.689,0.781,-7.424,8.596,-14.066,1.954
'[18:01:26.855 07/07/2079]',14.457,-23.443,-14.457,0.781,-20.708,8.987,3.907,-13.675,-8.596,4.689,0.391,-5.861,22.271,-51.184,12.503,5.079,-0.391,1.172,15.238,-4.689,10.940,-30.867,12.503
'[18:01:26.859 07/07/2079]',11.331,-12.112,-8.987,8.205,-8.596,16.801,0.000,-9.377,-11.331,3.516,0.781,-1.954,28.523,-62.125,9.768,12.112,2.344,3.516,9.768,3.907,-2.344,-29.695,9.768
'[18:01:26.863 07/07/2079]',7.424,-14.066,8.596,8.205,1.563,21.490,1.954,-14.457,-8.987,6.642,4.689,-11.722,28.523,-44.542,1.172,3.516,3.516,6.642,-7.814,12.503,-6.642,-6.642,1.172
'[18:01:26.867 07/07/2079]',10.549,-10.549,17.973,15.238,3.907,18.755,9.377,0.391,5.861,7.814,7.814,1.954,36.728,-24.225,0.000,12.112,7.814,8.205,-17.192,10.159,0.781,-3.516,0.000
'[18:01:26.871 07/07/2079]',4.298,5.861,25.788,0.391,3.126,18.364,14.457,0.000,14.457,11.331,10.940,0.391,33.211,-6.642,4.298,5.861,9.768,10.159,-25.006,11.722,-0.781,-5.470,4.298
'[18:01:26.875 07/07/2079]',11.722,-5.470,21.490,-5.861,0.391,19.927,9.377,-8.205,8.205,8.987,11.331,-1.563,25.006,-2.735,1.172,3.126,4.689,11.722,-20.708,9.768,-6.642,4.298,1.172
'[18:01:26.879 07/07/2079]',22.662,-16.020,14.457,1.172,-0.391,26.569,7.033,-10.159,8.205,5.470,15.629,0.781,35.946,-21.099,14.066,1.172,1.172,11.722,-13.675,0.000,3.907,-0.391,14.066
'[18:01:26.883 07/07/2079]',15.238,-20.708,24.225,13.284,-5.861,27.741,6.642,3.516,0.000,5.861,8.205,7.033,39.072,-45.324,17.192,9.377,1.172,11.722,-23.443,14.847,7.033,-12.894,17.192
'[18:01:26.887 07/07/2079]',-5.470,-12.503,16.020,14.066,-14.066,15.629,5.470,5.079,-3.907,1.954,4.298,-1.172,33.211,-26.178,-3.126,-2.735,-0.781,8.205,-15.238,23.834,7.424,1.954,-3.126
'[18:01:26.891 07/07/2079]',-8.987,-11.331,30.085,2.735,-10.549,11.331,12.894,-1.172,-0.781,2.344,5.861,2.735,26.569,-12.894,-2.344,-0.391,-0.781,8.987,-29.304,20.317,6.642,14.066,-2.344
'[18:01:26.895 07/07/2079]',-0.391,-6.252,11.722,5.861,-15.629,12.894,8.987,4.689,4.689,6.252,3.516,7.033,39.072,-23.053,3.907,1.954,0.781,7.033,-10.940,10.940,-2.344,5.470,3.907
'[18:01:26.898 07/07/2079]',13.284,-5.470,-5.079,-8.596,-12.503,0.391,12.503,-6.252,3.907,7.814,4.689,-7.424,37.900,-10.549,-7.814,-8.987,0.391,6.642,5.861,5.470,-14.457,11.722,-7.814
'[18:01:26.902 07/07/2079]',21.490,-0.781,-7.424,-7.424,2.735,5.861,3.907,-7.424,0.391,10.940,10.159,-12.503,26.569,-15.629,10.940,-12.894,0.781,10.159,8.205,-12.112,0.391,0.000,10.940
'[18:01:26.906 07/07/2079]',21.099,6.642,-9.377,8.987,3.516,5.861,5.861,11.722,0.000,12.112,9.768,3.126,28.913,-10.940,6.642,0.391,4.298,11.722,10.159,-23.443,25.397,-4.298,6.642
'[18:01:26.910 07/07/2079]',12.503,-6.642,3.907,16.801,1.172,4.298,3.126,16.410,-7.814,8.596,8.596,-0.391,33.993,-19.927,-3.516,-1.563,3.516,10.159,-3.126,1.172,26.569,-3.126,-3.516
'[18:01:26.914 07/07/2079]',-11.722,1.563,-1.954,16.020,-11.331,0.391,1.172,14.066,-10.940,2.735,5.470,-2.735,32.430,-21.099,-3.907,-11.722,-0.391,9.377,2.735,-8.205,30.867,10.940,-3.907
'[18:01:26.918 07/07/2079]',-19.145,0.000,3.126,10.940,-16.801,1.172,2.344,8.596,-7.033,1.172,4.689,3.907,29.304,-18.364,-2.735,-3.907,-2.735,11.331,-2.344,-5.079,25.397,16.020,-2.735
'[18:01:26.922 07/07/2079]',-21.880,0.781,-0.391,0.781,-22.662,-0.391,1.563,1.172,-2.344,0.781,5.861,-2.344,20.317,-8.596,2.344,-12.112,-4.689,10.940,1.172,7.814,11.331,10.159,2.344
'[18:01:26.926 07/07/2079]',-5.079,-7.033,1.563,-2.344,-16.410,3.516,0.000,-0.391,1.563,3.516,8.205,-7.424,25.788,-18.364,12.503,-12.503,-4.689,14.847,-0.781,-0.781,12.503,-0.391,12.503
'[18:01:26.930 07/07/2079]',10.940,-33.602,14.847,7.814,-6.642,5.861,-1.954,3.516,2.735,8.205,6.252,-2.735,31.258,-20.317,5.861,-1.954,-4.298,15.238,-14.066,3.516,26.960,-2.735,5.861
'[18:01:26.934 07/07/2079]',8.987,-42.589,30.085,9.768,-6.252,11.722,-5.861,7.424,10.549,9.377,4.689,-8.205,36.337,-6.642,-8.596,-4.298,-0.781,11.331,-29.304,18.364,33.211,1.172,-8.596
'[18:01:26.938 07/07/2079]',-15.238,-37.900,24.225,18.755,-17.973,9.377,-12.503,12.503,1.172,7.033,0.000,-7.033,23.053,-12.894,-3.126,-5.079,0.000,7.424,-23.443,26.178,36.337,-5.861,-3.126
'[18:01:26.941 07/07/2079]',-14.847,-36.728,14.847,16.020,-17.582,8.205,-15.238,5.470,-7.033,1.954,1.563,-2.735,10.940,-20.708,0.781,2.344,-1.954,5.470,-14.066,14.066,24.225,2.735,0.781
'[18:01:26.945 07/07/2079]',-8.987,-27.741,13.675,7.033,-10.549,8.987,-10.159,-1.954,-5.079,-1.954,8.205,-10.940,18.755,-21.490,-2.344,-4.689,-1.954,4.689,-12.894,11.331,27.350,1.172,-2.344
'[18:01:26.949 07/07/2079]',-18.364,-7.814,14.066,15.629,-7.033,10.549,-8.987,10.159,-2.735,2.735,9.768,2.344,21.099,-25.006,12.112,3.516,0.391,9.377,-13.284,12.894,31.258,-14.457,12.112
'[18:01:26.953 07/07/2079]',-10.159,-12.112,14.066,7.424,-4.689,-0.781,-5.079,12.503,-6.642,4.689,9.768,4.298,8.596,-8.205,2.735,8.205,-1.172,10.549,-13.284,5.079,21.880,-1.563,2.735
'[18:01:26.957 07/07/2079]',-16.410,-10.159,21.490,7.814,-6.252,-5.470,6.642,8.205,-1.954,5.470,14.457,-3.126,8.205,15.629,-7.033,-1.172,-4.689,11.331,-20.708,3.126,42.589,2.344,-7.033
'[18:01:26.961 07/07/2079]',-21.880,-15.629,32.430,7.814,-13.284,16.410,-7.814,9.377,4.689,16.801,4.298,0.781,15.238,4.298,2.735,5.079,-2.735,11.331,-31.648,12.894,32.039,-1.954,2.735
'[18:01:26.965 07/07/2079]',-25.006,-11.331,3.126,7.424,-24.225,7.033,-11.722,5.079,-14.066,4.298,0.781,-5.861,4.689,-17.973,-1.172,0.391,-8.987,6.252,-2.344,-1.172,20.708,0.781,-1.172
'[18:01:26.969 07/07/2079]',-25.006,-5.079,-6.642,7.033,-26.178,6.642,-10.940,1.172,-14.847,2.735,2.735,1.563,0.000,-12.894,3.126,3.126,-7.814,8.596,7.424,-6.252,9.768,9.768,3.126
'[18:01:26.973 07/07/2079]',-18.364,-10.940,13.675,-2.344,-17.582,8.205,-8.205,0.781,-7.814,5.861,3.126,0.391,2.344,-14.457,15.238,-1.563,-4.298,9.377,-12.894,19.536,0.391,-5.470,15.238
'[18:01:26.977 07/07/2079]',-11.331,1.563,-6.642,13.284,-14.066,7.814,-5.079,8.987,-14.066,1.172,7.033,8.205,8.205,-27.350,13.284,8.205,-0.781,10.159,7.424,5.861,3.126,-16.801,13.284
'[18:01:26.980 07/07/2079]',-16.020,0.000,-7.033,22.271,-16.410,3.907,-2.735,14.066,-5.861,2.344,6.252,10.940,16.020,-20.317,6.252,12.112,0.391,12.112,7.814,2.735,7.424,-8.596,6.252
'[18:01:26.984 07/07/2079]',-11.722,8.596,5.861,7.424,-4.298,5.861,4.298,5.079,2.344,6.642,7.814,3.907,21.099,-14.847,11.331,3.126,2.344,14.066,-5.079,0.391,18.364,-13.284,11.331
'[18:01:26.988 07/07/2079]',-26.178,20.708,-4.689,4.689,-16.020,-2.344,7.424,6.252,-9.768,0.391,5.861,0.391,2.735,-9.377,0.391,3.126,-0.781,10.940,5.470,-11.331,25.006,-12.112,0.391
'[18:01:26.992 07/07/2079]',-17.192,-10.159,7.033,6.642,-19.927,-8.596,7.033,8.205,-6.252,-1.563,3.516,2.344,7.814,-0.781,-15.238,5.861,-2.344,10.159,-6.252,-3.907,21.490,8.205,-15.238
'[18:01:26.996 07/07/2079]',-0.391,-27.741,21.099,-5.470,-7.424,-8.205,6.642,-2.344,-8.987,0.000,8.596,-5.861,10.940,-8.596,0.391,-10.549,-6.252,9.768,-20.317,-1.563,23.053,6.252,0.391
'[18:01:27.000 07/07/2079]',-11.331,-17.192,17.973,0.000,-7.814,-6.252,1.563,3.126,-7.033,-1.954,7.814,-1.172,9.768,-6.252,0.781,-7.033,-4.298,8.596,-17.192,6.642,20.708,0.781,0.781
'[18:01:27.004 07/07/2079]',-28.523,-0.391,9.377,8.596,-14.066,-3.516,-4.689,13.284,0.000,-1.172,0.391,5.470,7.814,-8.205,2.735,1.172,-2.344,7.424,-8.596,14.847,14.457,-6.642,2.735
'[18:01:27.008 07/07/2079]',-26.178,7.814,1.172,3.126,-9.768,-7.033,0.391,3.516,-1.954,0.000,-0.391,-1.563,0.391,-3.907,1.172,-3.516,-5.861,5.470,-0.391,3.516,13.284,0.391,1.172
'[18:01:27.012 07/07/2079]',-21.099,3.126,6.252,-4.689,-8.596,-3.516,2.735,-5.861,-1.563,-2.735,-2.735,-9.768,12.503,-17.582,-5.470,-6.252,-4.689,2.344,-5.470,5.079,26.960,-6.642,-5.470
'[18:01:27.016 07/07/2079]',-6.252,-22.271,14.066,-5.079,-14.847,-3.516,1.954,-1.172,-10.940,-0.391,-4.689,-9.377,0.000,-24.615,-3.126,0.781,-3.907,0.391,-13.284,20.317,17.973,-19.536,-3.126
'[18:01:27.020 07/07/2079]',-6.642,-30.867,23.834,-14.457,-14.457,-14.457,5.861,-4.689,-7.814,1.172,-4.689,-21.490,-3.126,0.391,-16.801,-13.284,-6.642,1.172,-23.053,18.755,24.225,-3.126,-16.801
'[18:01:27.023 07/07/2079]',-10.549,-10.940,14.457,-18.755,-14.066,1.563,-8.205,-2.735,-1.172,-4.689,1.172,-17.582,5.861,-3.907,-7.424,-16.801,-5.470,3.126,-13.675,8.205,28.913,-16.020,-7.424
'[18:01:27.027 07/07/2079]',-12.112,-5.861,12.503,-9.377,-14.066,6.642,-8.596,1.563,-3.907,-1.563,7.033,-8.987,5.861,-4.689,4.689,-13.675,-5.861,7.814,-11.722,14.066,12.503,-10.940,4.689
'[18:01:27.031 07/07/2079]',-26.960,-3.516,10.549,1.954,-19.145,4.689,-7.424,5.470,-0.781,-5.079,3.907,-2.344,17.192,4.298,-10.549,-14.457,-8.205,10.549,-9.768,12.112,16.801,13.284,-10.549
'[18:01:27.035 07/07/2079]',-29.695,5.079,-1.563,0.391,-22.271,5.861,-10.940,2.344,-5.079,-9.768,7.814,1.563,14.457,-1.954,-5.470,-12.503,-9.768,8.987,2.344,-0.391,19.927,6.252,-5.470
'[18:01:27.039 07/07/2079]',-21.490,-12.112,5.470,1.563,-21.099,8.596,-9.768,-2.344,-12.503,-5.861,-3.907,-8.596,-8.596,4.689,-16.020,-12.112,-10.549,3.126,-4.689,8.987,34.383,-2.344,-16.020
'[18:01:27.043 07/07/2079]',-8.205,-38.681,4.689,14.457,-15.629,5.861,-17.582,0.391,-0.391,-5.079,-10.549,-3.516,3.907,14.457,-37.118,-3.126,-5.470,-1.563,-3.907,22.271,43.761,2.344,-37.118
'[18:01:27.047 07/07/2079]',-4.298,-25.006,5.079,12.503,-3.907,-2.735,-15.238,10.549,9.377,-9.377,-11.331,-7.814,11.722,5.861,-33.602,-3.516,-5.470,-4.689,-4.298,5.861,41.026,-3.516,-33.602
'[18:01:27.051 07/07/2079]',-9.377,-0.781,3.516,-2.344,5.079,-8.596,-10.159,5.079,12.894,-6.642,-13.675,-10.159,-4.298,0.000,-16.410,1.954,-3.907,-7.814,-2.735,-7.033,37.900,-20.708,-16.410
'[18:01:27.055 07/07/2079]',-26.960,3.126,-2.735,-3.907,-0.781,-21.880,-9.768,3.126,8.205,-8.205,-14.457,-5.861,-17.192,3.126,-13.675,5.470,-3.516,-9.768,3.516,5.470,7.424,-10.549,-13.675
'[18:01:27.059 07/07/2079]',-25.788,13.284,-1.563,-14.457,-5.079,-24.615,2.344,-0.391,-3.126,-9.768,-6.252,-2.735,-29.695,-12.894,11.722,6.252,-6.252,-5.861,2.344,-4.298,-16.020,-12.894,11.722
'[18:01:27.063 07/07/2079]',-14.457,9.768,-24.225,-13.284,-13.675,0.391,-12.503,-14.066,-3.126,-8.596,-7.814,-10.549,-19.536,-16.801,0.000,2.735,-7.424,-7.424,25.006,-19.536,-4.689,-11.331,0.000
'[18:01:27.066 07/07/2079]',-8.987,-20.708,-19.927,-0.781,-17.192,2.344,-19.536,-14.847,3.516,-8.205,-14.066,-11.331,-6.252,-1.563,-22.271,-0.781,-7.814,-10.940,20.708,8.987,3.516,-1.172,-22.271
'[18:01:27.070 07/07/2079]',-2.344,-18.364,-6.252,-2.735,-5.079,-1.172,-15.629,-6.252,10.549,-3.516,-10.940,-8.987,-1.172,8.596,-20.317,-1.172,-5.861,-7.033,7.033,7.424,12.503,2.735,-20.317
'[18:01:27.074 07/07/2079]',-24.615,13.675,-14.457,3.126,4.298,-6.642,-14.847,-3.126,19.536,-5.861,-16.410,-14.066,1.954,4.298,-29.695,4.689,-6.252,-10.159,15.238,-7.814,21.099,0.781,-29.695
'[18:01:27.078 07/07/2079]',-13.675,12.112,-11.331,-0.391,14.457,-12.503,-8.987,-5.470,18.364,-7.033,-12.503,-19.536,0.391,2.735,-25.397,0.000,-6.642,-12.503,12.112,-7.424,13.284,3.516,-25.397
'[18:01:27.082 07/07/2079]',-15.629,27.741,-10.159,-10.159,6.252,-9.768,-5.470,0.781,16.801,-9.377,-8.205,-8.205,-5.079,-4.689,-10.940,9.377,-4.298,-8.987,10.940,-13.284,-12.503,1.172,-10.940
'[18:01:27.086 07/07/2079]',-32.430,58.999,-11.722,-23.053,-3.516,-1.563,0.000,-2.344,14.066,-11.722,-6.252,-8.987,-14.457,7.033,-14.847,7.033,-1.954,-5.861,12.503,-30.867,-9.377,5.470,-14.847
'[18:01:27.090 07/07/2079]',-11.722,34.774,-1.954,-19.536,-4.298,5.470,-0.391,0.781,15.238,-15.238,3.516,-4.298,-21.880,31.648,-17.582,6.252,-1.172,-3.907,2.735,-20.317,-3.126,5.861,-17.582
'[18:01:27.094 07/07/2079]',-1.563,-1.954,16.410,-16.020,-11.331,9.768,-3.907,2.344,10.549,-10.940,5.470,-2.735,-23.053,8.596,11.331,5.079,0.000,-2.735,-15.629,5.861,-9.377,-16.801,11.331
'[18:01:27.098 07/07/2079]',-21.490,16.020,11.722,-8.987,-9.768,4.298,-2.735,7.033,0.391,-13.284,0.391,-0.781,-26.960,5.861,-3.907,11.331,-2.344,-1.563,-10.940,-3.907,4.689,-10.549,-3.907
'[18:01:27.102 07/07/2079]',-18.755,21.099,-0.781,-8.596,1.172,-5.470,-5.861,4.298,-0.391,-17.192,1.954,-11.331,-39.072,7.424,-0.781,3.126,-6.252,-2.344,1.563,-2.735,-11.331,-10.549,-0.781
'[18:01:27.105 07/07/2079]',-26.569,14.847,4.689,-4.298,-1.954,-0.781,-8.987,2.344,5.861,-6.252,-3.126,-7.424,-39.072,13.675,8.205,3.907,-6.642,-0.781,-3.907,13.675,-21.099,-6.642,8.205
'[18:01:27.109 07/07/2079]',-20.317,22.271,-2.344,0.000,-4.689,7.424,-4.689,0.781,7.033,-3.126,2.735,5.470,-26.178,13.675,8.205,14.847,-4.298,4.298,3.126,5.470,-17.192,-7.424,8.205
'[18:01:27.113 07/07/2079]',-0.781,17.973,7.424,11.331,12.894,12.112,6.252,5.079,19.536,1.954,8.987,4.689,-2.344,23.834,2.735,10.549,-0.391,12.894,-6.642,4.298,0.391,0.391,2.735
'[18:01:27.117 07/07/2079]',5.079,33.993,16.801,14.457,23.834,23.834,12.894,10.159,33.211,9.377,12.112,8.596,12.112,35.556,5.470,10.549,3.907,16.020,-16.020,-2.344,12.894,1.563,5.470
'[18:01:27.121 07/07/2079]',33.993,62.515,3.126,2.344,43.370,27.350,17.582,13.284,38.681,13.284,13.675,12.503,15.629,38.291,12.503,12.503,12.894,18.364,-2.344,-8.987,3.907,-15.629,12.503
'[18:01:27.125 07/07/2079]',59.389,69.939,7.033,2.344,71.111,22.662,26.960,17.973,52.747,8.596,12.503,9.377,39.072,27.350,1.172,15.629,16.020,21.880,-6.252,-9.768,0.391,-16.020,1.172
'[18:01:27.129 07/07/2079]',78.535,60.562,16.020,5.470,83.614,43.370,16.801,17.192,63.297,14.457,18.755,20.708,50.012,31.258,16.801,19.536,19.927,24.615,-15.238,-7.814,-5.861,-7.033,16.801
'[18:01:27.133 07/07/2079]',105.495,58.217,12.503,7.424,91.038,57.045,19.145,16.410,79.707,21.099,24.225,29.304,68.376,35.165,30.085,21.099,29.304,26.960,-11.722,6.642,-18.364,-12.894,30.085
'[18:01:27.137 07/07/2079]',97.680,75.800,19.145,15.238,98.462,64.078,23.834,22.271,92.210,26.569,26.178,27.741,78.926,49.231,28.913,15.629,33.211,31.258,-18.364,6.642,6.252,-21.880,28.913
'[18:01:27.141 07/07/2079]',93.382,101.587,34.383,18.755,124.249,75.800,30.476,18.364,111.355,38.681,32.821,23.443,100.806,88.303,14.457,3.126,37.509,34.774,-33.602,1.563,42.198,1.563,14.457
'[18:01:27.145 07/07/2079]',100.415,144.957,37.118,3.516,140.269,90.256,40.244,15.629,132.063,49.231,34.774,23.443,134.017,78.535,26.178,1.563,43.370,37.509,-36.337,-6.642,35.556,-12.894,26.178
'[18:01:27.148 07/07/2079]',117.216,153.162,28.913,8.987,152.381,88.303,41.416,26.178,140.659,51.184,32.039,23.053,148.474,85.177,14.066,-0.391,48.059,39.463,-28.132,-6.642,38.681,-10.549,14.066
'[18:01:27.152 07/07/2079]',128.547,128.938,50.794,3.907,153.944,80.098,48.840,28.132,139.878,52.357,33.993,29.304,149.255,92.601,12.503,1.563,46.105,42.979,-50.012,4.298,48.840,-7.033,12.503
'[18:01:27.156 07/07/2079]',143.785,135.580,46.496,4.298,155.116,92.210,54.310,28.913,157.070,59.780,36.728,37.900,156.288,96.117,29.695,9.377,55.873,44.542,-45.714,3.126,36.728,-15.629,29.695
'[18:01:27.160 07/07/2079]',161.368,137.143,1.563,25.788,153.162,89.866,46.105,35.946,155.116,56.654,30.085,39.072,163.321,87.131,19.927,10.159,54.310,37.509,-0.781,-0.391,21.490,-14.457,19.927
'[18:01:27.164 07/07/2079]',148.864,132.845,8.205,21.880,156.288,99.243,29.695,25.788,145.739,52.747,30.085,33.211,160.586,83.223,19.145,0.000,49.231,35.946,-7.424,-0.391,36.337,-8.987,19.145
'[18:01:27.168 07/07/2079]',133.236,153.553,17.192,12.112,183.639,86.740,31.258,13.675,146.520,53.919,31.648,26.960,145.348,102.369,19.145,-7.033,50.403,32.821,-16.410,-4.689,41.026,-0.391,19.145
'[18:01:27.172 07/07/2079]',114.481,144.176,27.350,-2.344,174.652,67.985,29.695,10.549,130.110,48.840,32.430,14.847,117.216,123.077,6.642,-20.317,45.714,26.569,-26.569,9.768,26.960,10.940,6.642
'[18:01:27.176 07/07/2079]',117.216,113.309,31.648,-0.391,173.089,51.184,23.443,13.284,101.587,35.556,37.118,15.238,97.680,91.819,13.284,-12.503,38.681,26.960,-30.867,14.066,36.337,-14.457,13.284
'[18:01:27.180 07/07/2079]',111.355,94.554,44.933,-8.205,175.043,21.099,35.946,10.549,92.210,40.244,28.523,7.033,87.912,69.939,16.801,-5.861,35.165,27.350,-44.151,7.033,48.449,-30.085,16.801
'[18:01:27.184 07/07/2079]',93.382,123.077,10.549,4.689,151.209,24.225,32.821,22.662,85.958,36.337,17.582,9.377,83.614,57.436,3.516,5.079,31.258,19.536,-9.768,-18.364,32.430,-10.940,3.516
'[18:01:27.188 07/07/2079]',69.158,129.719,-13.284,-1.172,116.044,22.271,23.053,21.099,68.767,26.178,10.159,6.252,67.985,28.523,6.252,8.596,21.490,13.675,14.066,-24.225,28.132,-34.383,6.252
'[18:01:27.191 07/07/2079]',55.482,114.481,-17.582,0.781,93.773,30.867,17.973,9.768,67.204,19.145,3.126,3.516,55.873,30.476,-1.172,8.987,16.801,11.331,18.364,-33.211,37.118,-23.834,-1.172
'[18:01:27.195 07/07/2079]',44.933,98.462,-1.172,0.781,87.912,26.178,21.490,7.033,55.092,12.894,7.814,4.689,44.933,37.900,-16.410,14.457,16.410,8.596,1.954,-26.569,26.569,-1.954,-16.410
'[18:01:27.199 07/07/2079]',36.337,55.482,32.821,-14.847,59.389,39.072,8.987,1.172,41.026,2.735,10.549,1.954,33.993,20.708,-6.642,9.768,15.238,7.814,-32.039,11.722,21.099,-23.443,-6.642
'[18:01:27.203 07/07/2079]',8.987,48.840,29.695,-12.503,37.118,30.085,1.172,6.252,23.053,-4.298,6.642,6.642,12.503,6.642,4.298,6.642,9.768,7.424,-28.913,10.940,26.960,-37.509,4.298
'[18:01:27.207 07/07/2079]',2.735,41.026,25.006,-17.973,23.053,17.582,6.642,2.344,9.768,-4.689,0.781,3.126,-2.344,22.662,-8.205,-1.172,5.079,3.516,-24.225,2.344,24.615,-13.284,-8.205
'[18:01:27.211 07/07/2079]',3.516,30.476,17.582,-18.364,7.814,16.801,5.079,1.172,3.516,-5.470,-3.516,-1.954,3.907,5.470,-7.033,-10.549,0.000,-1.563,-16.801,2.735,21.099,-13.675,-7.033
'[18:01:27.215 07/07/2079]',-8.205,31.258,-15.238,-11.331,-5.861,-2.344,0.781,1.954,-10.549,-10.159,-9.377,-0.391,-8.205,-17.582,4.689,-10.549,-8.987,-5.861,16.020,-13.675,25.006,-31.258,4.689
'[18:01:27.219 07/07/2079]',-16.801,37.118,-15.629,-4.298,-5.861,-8.987,7.424,6.252,-11.331,-8.987,-13.284,4.298,-18.364,-3.907,-8.987,1.954,-10.159,-5.470,16.410,-31.648,21.490,-11.331,-8.987
'[18:01:27.223 07/07/2079]',-27.350,32.039,-3.126,-6.252,-9.377,-8.596,6.252,6.252,-16.410,-7.424,-13.284,1.954,-32.039,-0.391,-3.516,1.563,-8.987,-7.814,3.907,-7.033,12.894,-21.490,-3.516
'[18:01:27.227 07/07/2079]',-17.582,-6.252,15.238,0.781,-10.159,-3.907,-3.907,10.940,-22.271,-10.940,-10.159,11.722,-23.834,-10.940,-5.079,8.596,-9.377,-7.033,-14.457,22.662,4.689,-22.271,-5.079
'[18:01:27.230 07/07/2079]',-18.755,-17.582,19.145,5.470,-23.053,-0.391,-3.516,16.020,-28.132,-16.801,-8.205,14.066,-28.132,-7.424,-12.894,9.377,-9.377,-4.689,-18.364,18.364,7.033,-10.940,-12.894
'[18:01:27.234 07/07/2079]',-22.271,-25.788,24.615,-1.563,-27.350,-2.344,-1.172,6.642,-30.476,-15.629,-10.549,6.252,-32.430,7.814,-20.317,-3.907,-10.549,-6.252,-23.834,25.397,16.410,0.391,-20.317
'[18:01:27.238 07/07/2079]',-30.085,-21.099,8.205,-11.722,-41.807,-11.331,-2.344,0.391,-36.337,-17.973,-9.768,2.344,-41.026,-4.298,-1.954,-14.847,-17.192,-7.033,-7.424,14.847,18.755,-15.629,-1.954
'[18:01:27.242 07/07/2079]',-32.430,-5.861,-23.834,-3.516,-52.357,-14.066,-2.344,2.735,-39.853,-24.615,-6.252,9.768,-35.556,-29.304,10.159,-6.642,-19.536,-5.470,24.615,-24.615,31.258,-31.258,10.159
'[18:01:27.246 07/07/2079]',-28.913,0.781,-35.165,-3.126,-48.840,-17.973,1.563,-1.172,-39.463,-14.457,-16.020,8.205,-26.960,-35.165,4.689,-5.079,-21.099,-7.033,35.946,-38.291,34.774,-26.178,4.689
'[18:01:27.250 07/07/2079]',-40.244,-0.391,-25.397,-3.907,-53.529,-21.880,0.781,4.298,-43.761,-17.192,-12.503,5.079,-28.523,-37.118,7.814,-10.940,-22.271,-8.596,26.178,-12.894,17.973,-30.085,7.814
'[18:01:27.254 07/07/2079]',-43.370,-25.006,-4.298,12.112,-51.966,-25.788,-0.781,18.755,-43.761,-19.536,-14.847,17.192,-32.430,-19.536,-12.503,2.344,-18.755,-10.549,5.079,23.443,13.284,-21.880,-12.503
'[18:01:27.258 07/07/2079]',-30.476,-37.900,17.973,-13.284,-46.496,-19.536,2.344,0.781,-44.542,-16.801,-9.768,5.861,-37.509,-10.549,-14.457,-3.126,-16.801,-10.940,-17.192,29.695,8.987,-13.675,-14.457
'[18:01:27.262 07/07/2079]',-30.085,-45.324,14.457,-20.708,-54.701,-2.344,-13.284,-10.549,-42.589,-15.629,-8.205,-15.629,-26.178,-25.006,-1.172,-29.695,-17.973,-14.847,-13.675,30.867,-0.781,-12.112,-1.172
'[18:01:27.266 07/07/2079]',-40.244,-34.383,-2.735,-7.424,-67.204,-3.126,-13.284,-1.172,-42.198,-17.192,-9.768,4.689,-22.662,-27.350,-6.642,-8.596,-16.410,-12.894,3.516,9.768,17.582,-10.159,-6.642
'[18:01:27.270 07/07/2079]',-42.589,-8.987,-17.192,-12.894,-65.250,-9.768,-7.033,0.000,-41.807,-17.973,-12.112,8.205,-23.834,-29.695,-5.079,-4.298,-16.410,-9.768,17.973,-24.615,25.397,-6.642,-5.079
'[18:01:27.273 07/07/2079]',-45.714,3.126,-26.960,-7.814,-58.608,-17.192,-3.126,1.563,-40.244,-17.192,-15.629,0.000,-26.178,-27.741,-6.252,-13.284,-19.145,-10.549,27.741,-29.695,29.304,-9.377,-6.252
'[18:01:27.277 07/07/2079]',-38.681,-44.933,13.284,0.000,-59.389,-17.973,3.126,3.907,-38.681,-19.927,-10.940,10.940,-16.410,-19.145,-26.569,3.126,-17.973,-8.987,-12.503,6.642,43.761,-5.079,-26.569
'[18:01:27.281 07/07/2079]',-32.821,-73.455,20.317,2.344,-59.780,-23.053,0.391,1.172,-40.244,-21.490,-9.377,0.391,-12.112,-39.463,-8.596,-10.940,-21.490,-9.377,-19.536,23.443,41.416,-21.880,-8.596
'[18:01:27.285 07/07/2079]',-44.151,-54.310,8.987,-4.689,-61.734,-24.615,1.563,-8.987,-35.946,-13.284,-8.205,-8.205,-12.503,-34.774,3.516,-23.834,-19.536,-6.642,-8.205,18.755,33.602,-19.927,3.516
'[18:01:27.289 07/07/2079]',-50.012,-58.217,5.861,-5.470,-73.846,-20.317,-1.172,-10.940,-36.728,-14.457,-6.642,-10.940,-19.145,-17.582,-3.516,-29.304,-19.536,-9.377,-5.079,25.006,25.788,-8.205,-3.516
'[18:01:27.293 07/07/2079]',-37.900,-40.244,-17.192,7.814,-61.734,-18.364,-5.861,-0.781,-36.337,-19.145,-8.205,2.735,-6.642,-25.397,-12.894,-17.582,-16.801,-7.814,17.973,10.940,28.523,-4.298,-12.894
'[18:01:27.297 07/07/2079]',-25.006,-53.529,-6.252,2.344,-46.105,-35.165,4.689,-4.298,-41.416,-22.662,-5.470,-2.344,-12.503,-41.026,-0.781,-19.145,-16.410,-7.424,7.033,14.066,13.284,-1.954,-0.781
'[18:01:27.301 07/07/2079]',-21.880,-70.720,6.252,7.033,-48.840,-28.523,-0.781,1.172,-45.324,-21.099,-3.516,0.391,-26.960,-12.894,-15.629,-14.457,-16.801,-8.596,-5.470,13.284,22.662,20.317,-15.629
'[18:01:27.305 07/07/2079]',-34.383,-53.919,-4.689,8.987,-55.482,-36.337,-0.391,8.205,-45.324,-26.569,-6.252,5.861,-33.602,-25.397,-15.629,1.954,-17.192,-8.987,5.470,4.689,29.695,-5.079,-15.629
'[18:01:27.309 07/07/2079]',-55.873,-26.569,-39.853,14.066,-60.171,-44.542,3.126,-5.861,-48.449,-25.397,-0.781,-12.894,-26.569,-40.635,1.172,-21.490,-20.708,-8.596,40.635,0.000,26.178,-16.801,1.172
'[18:01:27.313 07/07/2079]',-62.906,-30.867,-57.827,62.906,-62.515,-27.350,-10.159,11.331,-39.853,-18.364,-4.298,-2.735,-17.192,-2.735,-38.291,-8.205,-19.927,-5.470,58.608,3.516,36.728,18.364,-38.291
'[18:01:27.316 07/07/2079]',-52.747,4.298,-57.827,21.490,-57.436,-23.053,-10.159,5.861,-40.244,-23.443,-7.424,-1.954,-21.490,-6.642,-37.900,-8.205,-21.880,-8.596,58.608,-26.178,34.383,2.344,-37.900
'[18:01:27.320 07/07/2079]',-56.264,-8.205,-69.158,43.761,-50.012,-32.821,-10.159,4.689,-45.714,-30.867,-5.861,-6.252,-26.569,-10.940,-38.291,-14.847,-23.443,-9.377,69.939,-11.722,36.337,7.814,-38.291
'[18:01:27.324 07/07/2079]',-40.635,-46.105,8.987,9.768,-42.198,-29.695,-1.563,5.079,-41.807,-16.410,-7.033,1.954,-42.589,-14.457,-11.722,3.907,-23.443,-3.126,-8.205,1.563,16.020,13.284,-11.722
'[18:01:27.328 07/07/2079]',-24.615,-58.217,32.430,-18.364,-41.416,-30.867,10.159,-5.470,-42.589,-12.112,-6.642,1.954,-42.198,-26.178,-5.861,13.284,-21.880,-1.563,-31.648,-3.907,0.000,13.675,-5.861
'[18:01:27.332 07/07/2079]',-41.807,-50.794,32.039,-23.443,-50.794,-25.788,4.298,-10.549,-39.463,-11.331,-9.768,-1.172,-29.695,-44.542,-6.252,16.410,-18.364,-3.126,-31.258,9.768,-1.172,-1.954,-6.252
'[18:01:27.336 07/07/2079]',-55.873,-44.933,41.807,-22.662,-52.357,-19.145,2.344,-12.503,-32.039,-4.689,-3.516,-7.033,-23.443,-35.946,3.516,5.861,-11.722,0.781,-41.026,27.350,2.344,-10.549,3.516
'[18:01:27.340 07/07/2079]',-66.813,-19.145,15.629,-3.907,-57.045,-12.894,-0.391,-3.126,-26.178,-5.079,-4.689,-2.344,-24.225,-26.960,1.172,8.596,-8.596,-1.563,-14.847,10.549,17.973,-19.927,1.172
'[18:01:27.344 07/07/2079]',-71.502,-1.954,-21.099,5.079,-64.860,-15.238,-7.033,-0.781,-36.728,-15.629,-7.424,-3.516,-23.443,-44.542,-6.642,8.205,-12.112,-7.424,21.880,-7.424,35.946,-39.072,-6.642
'[18:01:27.348 07/07/2079]',-65.250,-2.735,-20.317,11.722,-58.217,-17.973,-6.252,5.470,-41.026,-16.410,-3.907,-5.861,-33.993,-50.794,7.814,6.642,-14.457,-2.735,21.099,-11.331,9.768,-30.476,7.814
'[18:01:27.352 07/07/2079]',-50.403,-25.397,-14.457,7.033,-55.873,-21.880,-12.112,6.642,-47.277,-20.708,-10.159,3.516,-60.952,-39.853,3.907,19.536,-22.662,-5.079,15.238,-5.470,-20.317,-8.987,3.907
'[18:01:27.355 07/07/2079]',-46.105,-21.099,-3.907,-16.410,-50.012,-26.960,-5.861,-5.079,-47.668,-21.099,-2.735,5.079,-64.860,-18.755,-5.470,20.708,-25.788,-4.298,4.689,-1.563,-40.244,11.722,-5.470
'[18:01:27.359 07/07/2079]',-21.880,-28.132,8.596,-22.662,-33.602,0.391,-21.490,-8.596,-36.337,-17.582,1.563,-7.814,-45.324,-25.397,-2.735,12.112,-19.927,-2.735,-7.814,9.768,-51.575,4.689,-2.735
'[18:01:27.363 07/07/2079]',-16.020,-33.211,3.907,-7.033,-27.350,-1.954,-16.410,-6.252,-25.397,-12.112,3.907,4.689,-25.788,-23.443,-1.172,19.536,-16.410,-0.781,-3.126,-3.516,-17.582,10.549,-1.172
'[18:01:27.367 07/07/2079]',-33.993,-19.927,2.344,1.563,-35.165,-8.596,-8.205,3.126,-26.178,-19.536,3.907,5.079,-20.708,-40.635,9.377,14.847,-18.364,-2.735,-1.563,-12.894,8.596,-11.331,9.377
'[18:01:27.371 07/07/2079]',-43.370,-24.225,1.172,7.033,-41.807,-8.987,-12.894,6.252,-25.788,-14.457,-4.689,-2.735,-24.225,-33.993,-3.126,10.549,-17.192,-6.642,-0.391,10.159,6.642,-16.020,-3.126
'[18:01:27.375 07/07/2079]',-27.741,-59.780,10.159,10.940,-37.509,-12.894,-16.410,1.563,-30.476,-14.457,-12.503,3.126,-26.569,-40.635,-1.563,12.503,-16.801,-9.768,-9.377,21.490,8.987,-10.549,-1.563
'[18:01:27.379 07/07/2079]',-25.788,-66.032,4.298,-1.172,-42.589,-17.192,-19.145,-8.596,-39.072,-21.490,-12.894,-0.781,-32.821,-60.171,5.861,9.377,-23.053,-16.410,-3.516,17.582,-17.192,-7.814,5.861
'[18:01:27.383 07/07/2079]',-29.304,-29.304,-3.126,0.391,-35.165,-8.596,-16.020,-1.563,-31.258,-15.238,-12.112,-6.642,-37.509,-50.403,8.596,9.768,-15.629,-17.192,3.907,18.364,-45.324,-10.159,8.596
'[18:01:27.387 07/07/2079]',-36.728,-10.159,-8.205,0.391,-30.476,-5.079,-21.880,2.735,-21.880,-21.490,-9.377,-1.563,-28.913,-32.430,-12.894,17.582,-11.722,-17.973,8.987,5.861,-18.364,-10.549,-12.894
'[18:01:27.391 07/07/2079]',-37.118,4.689,-34.774,7.033,-34.774,-16.801,-12.894,4.689,-21.490,-30.085,-4.689,-1.954,-36.728,-15.238,-14.066,4.298,-16.801,-16.801,35.556,-13.284,-21.880,4.298,-14.066
'[18:01:27.395 07/07/2079]',-33.993,-1.954,-30.085,9.768,-37.900,-6.642,-11.722,0.781,-17.192,-34.383,2.344,-16.801,-19.927,-5.470,-33.211,-8.205,-17.192,-15.629,30.867,2.344,-12.112,8.987,-33.211
'[18:01:27.398 07/07/2079]',-22.662,-23.834,-18.755,10.159,-37.118,5.470,-28.913,5.470,-12.112,-18.364,-9.768,3.126,-11.331,19.145,-49.231,1.954,-11.331,-10.940,19.536,8.596,-3.126,35.556,-49.231
'[18:01:27.402 07/07/2079]',-26.960,-32.821,-16.020,3.907,-45.324,0.781,-25.788,-0.781,-23.443,-14.847,-14.066,0.391,-23.053,-13.284,-5.079,-12.112,-16.020,-7.424,16.801,0.391,-2.344,21.490,-5.079
'[18:01:27.406 07/07/2079]',-42.589,-16.410,11.722,-27.741,-52.747,7.424,-15.629,-12.112,-24.615,-7.033,-16.801,-4.689,-36.728,-36.337,17.582,-0.781,-16.801,-5.861,-10.940,2.735,-26.178,-0.391,17.582
'[18:01:27.410 07/07/2079]',-37.900,-19.145,13.675,-2.735,-42.589,8.987,-14.847,2.735,-18.364,2.735,-21.880,0.391,-19.536,-50.794,23.443,7.424,-14.066,-4.298,-12.894,7.424,-13.675,-10.549,23.443
'[18:01:27.414 07/07/2079]',-50.012,-21.490,23.443,-2.735,-44.151,-5.470,-5.079,4.298,-21.880,-3.516,-17.192,-4.689,-11.722,-50.403,17.973,-5.861,-19.536,-4.689,-22.662,5.079,17.582,-12.503,17.973
'[18:01:27.418 07/07/2079]',-46.886,-35.556,25.397,-8.205,-48.840,-8.205,-1.954,-4.298,-20.317,-0.391,-14.847,-18.364,-15.629,-21.880,4.689,-23.053,-22.271,-6.642,-24.615,10.940,31.648,-7.033,4.689
'[18:01:27.422 07/07/2079]',-48.840,-35.556,5.861,6.642,-53.529,-19.927,-3.516,5.470,-20.708,-6.642,-16.410,-7.814,-9.377,-5.079,-14.457,-24.225,-22.271,-11.331,-5.079,14.066,43.761,8.987,-14.457
'[18:01:27.426 07/07/2079]',-37.118,-30.085,-8.596,-2.735,-48.449,-18.755,-8.205,-2.344,-24.225,-6.252,-11.722,-9.768,-7.424,-1.563,-14.847,-30.085,-19.536,-9.768,9.377,3.126,42.198,8.596,-14.847
'[18:01:27.430 07/07/2079]',-32.039,-37.900,-32.039,8.987,-57.436,-5.861,-25.006,-3.516,-29.304,-14.847,-14.847,-5.861,-2.344,-24.225,-21.099,-18.364,-19.927,-13.284,32.821,-3.907,40.635,-6.642,-21.099
'[18:01:27.434 07/07/2079]',-34.774,8.987,-69.158,4.298,-48.449,-8.596,-21.099,-9.768,-25.788,-11.722,-19.145,-10.940,-11.331,-51.575,6.252,-14.457,-17.973,-15.629,69.939,-23.053,1.172,-21.099,6.252
'[18:01:27.438 07/07/2079]',-41.416,5.861,-60.952,9.377,-43.761,-11.722,-24.615,-5.470,-25.788,-10.940,-23.053,-9.377,-22.662,-33.211,0.000,-16.020,-16.801,-16.801,61.734,-7.033,9.377,-26.569,0.000
'[18:01:27.441 07/07/2079]',-28.523,-20.317,-35.946,5.079,-34.383,-3.907,-28.523,-11.331,-19.927,-7.424,-23.053,-14.457,-18.755,-26.960,-12.894,-8.205,-16.801,-16.801,36.728,2.735,8.987,-20.708,-12.894
'[18:01:27.445 07/07/2079]',-17.192,-50.403,-4.689,-3.516,-30.476,0.000,-21.099,-21.880,-21.099,-2.344,-20.317,-27.741,-15.238,-32.430,3.126,-30.085,-18.755,-15.629,5.470,13.675,10.549,-7.424,3.126
'[18:01:27.449 07/07/2079]',-25.788,-57.436,15.629,1.954,-31.258,-4.298,-18.755,-7.814,-16.410,-2.735,-21.099,-14.457,-7.424,-16.801,-12.112,-20.317,-15.629,-16.020,-14.847,24.225,25.788,1.172,-12.112
'[18:01:27.453 07/07/2079]',-26.960,-44.933,12.503,9.768,-31.648,-6.252,-12.503,2.344,-16.801,-3.126,-16.410,-7.814,-12.894,-1.172,-24.615,-7.033,-8.987,-12.894,-11.722,16.801,17.192,12.894,-24.615
'[18:01:27.457 07/07/2079]',-29.304,-33.602,8.987,-2.735,-30.867,-11.331,-7.814,-3.907,-24.225,-8.205,-16.020,-10.940,-34.383,-5.861,-13.284,-8.596,-8.596,-15.629,-8.205,10.549,0.391,10.549,-13.284
'[18:01:27.461 07/07/2079]',-19.927,-26.178,-3.516,4.689,-26.960,-11.722,-1.172,-3.907,-13.284,-5.861,-9.377,-3.516,-27.741,-6.642,-1.954,1.172,-3.907,-14.066,4.298,16.410,-16.410,3.126,-1.954
'[18:01:27.465 07/07/2079]',-7.814,-21.490,-14.457,8.205,-23.834,-8.205,1.563,-4.298,-10.159,-2.735,0.781,-10.549,-26.569,1.954,0.781,-1.954,0.000,-8.987,15.238,18.755,-49.621,16.410,0.781
'[18:01:27.469 07/07/2079]',-8.205,-19.145,16.020,-16.020,-17.973,11.331,-9.377,-9.768,-7.033,-0.781,0.391,-8.987,-21.880,-3.907,8.987,-2.344,0.781,-5.079,-15.238,14.066,-39.463,14.457,8.987
