'Time and date','FP1-F7','F7-T7','T7-P7','P7-O1','FP1-F3','F3-C3','C3-P3','P3-O1','FP2-F4','F4-C4','C4-P4','P4-O2','FP2-F8','F8-T8','T8-P8','P8-O2','FZ-CZ','CZ-PZ','P7-T7','T7-FT9','FT9-FT10','FT10-T8','T8-P8'
'hh:mm:ss.mmm dd/mm/yyyy','uV','uV','uV','uV','uV','uV','uV','uV','uV','uV','uV','uV','uV','uV','uV','uV','uV','uV','uV','uV','uV','uV','uV'
'[14:23:39.000 02/09/2075]',89.866,0.000,-8.596,-53.138,-42.198,48.059,19.536,2.735,-124.640,17.192,60.171,51.575,-46.496,26.960,24.225,-0.391,-5.079,60.562,9.377,-32.821,-25.788,-40.244,24.225
'[14:23:39.004 02/09/2075]',0.391,0.391,0.391,0.391,0.391,0.391,0.391,0.391,0.391,0.391,0.391,0.391,0.391,0.391,0.391,0.391,0.391,0.391,0.391,0.391,0.391,0.391,0.391
'[14:23:39.008 02/09/2075]',0.391,0.391,0.391,0.391,0.391,0.391,0.391,0.391,0.391,0.391,0.391,0.391,0.391,0.391,0.391,0.391,0.391,0.391,0.391,0.391,0.391,0.391,0.391
'[14:23:39.012 02/09/2075]',0.391,0.391,0.391,0.391,0.781,0.391,0.391,0.391,0.781,0.391,0.391,0.391,0.391,0.391,0.391,0.391,0.391,0.391,0.391,0.391,0.391,0.391,0.391
'[14:23:39.016 02/09/2075]',0.391,0.391,0.391,0.391,0.391,0.391,0.391,0.391,0.000,0.391,0.391,0.391,0.391,0.391,0.391,0.391,0.391,0.391,0.391,0.000,0.391,0.781,0.391
'[14:23:39.020 02/09/2075]',0.391,0.781,0.000,0.000,-1.563,1.563,0.391,0.781,-1.172,0.391,0.391,1.172,-0.781,1.172,0.391,0.391,0.391,0.781,0.781,0.000,0.391,0.391,0.391
'[14:23:39.023 02/09/2075]',1.172,0.000,0.000,1.172,-0.391,1.563,0.391,1.172,-0.391,0.781,0.781,1.172,-0.391,0.781,0.781,0.781,0.781,0.391,0.781,1.954,0.391,-1.563,0.781
'[14:23:39.027 02/09/2075]',1.563,-0.391,0.391,1.563,3.126,-0.391,0.391,0.391,1.172,0.391,1.172,0.391,1.563,-0.391,0.781,1.172,1.563,0.000,0.391,2.344,0.000,-0.391,0.781
'[14:23:39.031 02/09/2075]',0.000,0.781,0.781,-0.391,3.126,-1.954,0.781,-0.781,1.954,0.000,0.391,-0.391,1.563,0.000,0.391,0.391,0.781,0.391,0.000,-1.563,0.000,3.126,0.391
'[14:23:39.035 02/09/2075]',-1.563,1.563,0.391,-1.172,-1.954,1.172,0.000,0.391,0.781,0.000,-0.391,0.781,-1.172,2.344,0.391,0.000,0.000,0.391,0.391,-2.344,0.781,2.344,0.391
'[14:23:39.039 02/09/2075]',0.781,0.391,-0.781,1.172,-5.079,4.689,-1.563,3.126,-3.126,0.391,0.000,4.298,-3.907,2.735,0.781,1.172,0.781,0.391,1.563,0.391,1.172,-3.126,0.781
'[14:23:39.043 02/09/2075]',5.470,3.516,-5.861,0.391,-10.940,8.987,-0.391,6.252,-14.847,3.516,2.344,12.503,-7.814,6.642,1.172,3.516,3.126,4.689,6.642,-3.516,-1.954,-2.735,1.172
'[14:23:39.047 02/09/2075]',9.377,2.344,-7.814,4.689,-11.722,12.503,1.563,6.642,-13.675,4.689,7.033,14.066,-8.987,10.549,6.642,4.298,9.377,2.344,8.596,2.344,-3.126,-8.987,6.642
'[14:23:39.051 02/09/2075]',14.847,-1.172,-8.987,13.284,-2.344,10.549,0.781,8.987,-8.596,4.298,8.987,17.192,-8.987,10.549,9.768,10.549,16.801,0.000,9.768,7.814,-3.907,-14.066,9.768
'[14:23:39.055 02/09/2075]',10.159,0.000,-3.907,8.987,7.424,3.126,-1.172,4.689,1.172,1.954,7.033,14.847,-6.642,11.722,8.205,13.284,20.708,-3.907,4.689,0.000,-5.470,-3.907,8.205
'[14:23:39.059 02/09/2075]',3.126,-1.563,-3.126,10.159,14.847,-0.391,-2.735,-1.954,19.145,-3.907,4.689,8.205,-7.424,14.847,7.814,12.503,21.099,-11.722,3.907,-5.470,-2.344,2.344,7.814
'[14:23:39.063 02/09/2075]',1.563,-7.033,-0.391,14.847,22.662,-0.781,-11.722,-2.344,29.304,-4.689,-1.563,7.424,-9.377,16.410,7.033,14.847,21.099,-18.755,1.172,-5.079,1.172,0.781,7.033
'[14:23:39.066 02/09/2075]',-1.172,-9.768,0.391,17.973,33.602,-4.689,-16.410,-4.298,36.728,-5.079,-5.079,7.033,-7.424,18.364,5.470,16.410,21.880,-21.099,0.391,-8.987,2.344,6.642,5.470
'[14:23:39.070 02/09/2075]',-3.126,-7.424,-1.563,20.708,42.979,-11.722,-10.940,-11.331,50.012,-5.079,-3.126,2.344,-1.954,23.443,6.642,14.066,22.271,-22.271,2.344,-14.847,1.563,16.410,6.642
'[14:23:39.074 02/09/2075]',-2.344,-8.987,0.391,25.006,42.979,-11.722,-7.033,-9.377,60.562,-4.298,-0.781,0.391,1.172,28.132,10.159,12.503,22.271,-22.271,0.391,-12.112,1.954,16.410,10.159
'[14:23:39.078 02/09/2075]',-5.079,-8.987,4.689,24.615,36.728,-13.675,-3.516,-4.298,65.641,-5.861,-2.344,1.954,1.563,30.476,12.112,13.284,19.536,-16.801,-3.907,-10.940,4.298,14.457,12.112
'[14:23:39.082 02/09/2075]',-12.894,-5.861,1.563,23.053,29.304,-23.053,4.298,-5.079,69.939,-10.940,-0.391,-1.954,3.126,28.913,8.596,12.894,12.112,-11.331,-0.781,-14.847,4.298,19.927,8.596
'[14:23:39.086 02/09/2075]',-17.973,-6.252,-2.735,22.662,16.410,-29.304,10.159,-3.126,69.158,-14.847,1.563,-8.987,2.344,26.569,11.331,4.298,2.735,-7.424,3.516,-9.768,2.344,19.536,11.331
'[14:23:39.090 02/09/2075]',-25.788,-8.596,-4.689,22.271,-1.563,-32.039,9.377,5.861,60.562,-20.317,-1.172,-4.298,-4.298,23.053,10.940,2.735,-6.642,-4.298,5.470,-3.126,5.470,13.284,10.940
'[14:23:39.094 02/09/2075]',-37.509,-5.079,-9.768,22.271,-19.145,-36.337,11.331,13.284,50.794,-24.615,-2.344,-1.563,-10.940,21.490,7.033,2.344,-14.066,-1.954,10.549,-3.516,9.768,15.238,7.033
'[14:23:39.098 02/09/2075]',-40.635,-2.735,-12.503,22.271,-31.258,-36.337,15.238,17.582,43.370,-25.788,1.172,-4.689,-11.331,21.099,6.252,-3.516,-19.536,-3.516,13.284,1.172,12.112,15.629,6.252
'[14:23:39.102 02/09/2075]',-38.681,-2.344,-3.907,16.410,-41.416,-30.085,17.973,24.225,30.085,-24.615,2.344,-1.563,-15.629,17.973,5.470,-1.954,-21.880,-2.344,4.689,8.596,15.629,7.814,5.470
'[14:23:39.105 02/09/2075]',-40.244,0.000,-1.954,15.629,-45.324,-29.304,19.145,28.523,17.582,-21.880,0.391,0.391,-20.317,15.238,0.781,-0.781,-19.145,-3.907,2.735,8.987,20.708,6.252,0.781
'[14:23:39.109 02/09/2075]',-39.072,4.689,-3.907,17.192,-43.370,-28.523,21.880,27.741,10.549,-16.801,1.172,-2.344,-20.317,14.457,0.391,-1.563,-15.238,-3.516,4.689,7.424,19.927,10.940,0.391
'[14:23:39.113 02/09/2075]',-35.556,3.126,-2.735,19.145,-38.291,-25.006,18.755,28.523,5.079,-10.159,0.391,-4.298,-22.271,13.675,0.781,-1.563,-8.205,-8.205,3.516,15.238,20.317,3.516,0.781
'[14:23:39.117 02/09/2075]',-31.258,1.954,-2.344,21.880,-29.695,-26.960,15.629,31.258,3.907,-5.861,-1.954,-4.298,-23.443,12.112,1.563,0.391,1.563,-14.066,3.126,18.755,20.317,-1.172,1.563
'[14:23:39.121 02/09/2075]',-30.476,0.391,-5.861,25.006,-20.317,-33.211,12.503,30.085,8.596,-4.298,-5.470,-5.861,-20.708,11.722,0.391,0.391,5.079,-19.145,6.642,15.629,19.536,3.126,0.391
'[14:23:39.125 02/09/2075]',-29.304,-1.954,-8.205,27.350,-11.331,-37.509,11.722,24.225,15.238,-1.954,-5.470,-12.894,-17.973,13.675,0.781,-3.126,5.470,-23.443,8.987,17.973,17.192,6.642,0.781
'[14:23:39.129 02/09/2075]',-26.960,-8.205,-8.596,32.430,-6.252,-38.681,7.033,25.006,23.834,-3.126,-8.987,-12.503,-16.801,15.238,2.344,-3.516,6.252,-25.788,9.377,22.271,19.145,3.907,2.344
'[14:23:39.133 02/09/2075]',-26.960,-11.722,-10.549,36.337,4.689,-44.542,3.126,20.708,36.728,-5.470,-10.549,-13.284,-12.112,18.364,2.344,-3.516,5.861,-25.006,11.331,17.973,19.927,11.722,2.344
'[14:23:39.137 02/09/2075]',-27.350,-10.940,-14.066,40.244,19.927,-50.403,4.298,10.940,51.184,-5.470,-7.814,-19.536,-4.298,22.662,3.907,-5.861,6.642,-25.397,14.847,15.629,16.801,21.099,3.907
'[14:23:39.141 02/09/2075]',-24.225,-14.066,-12.894,42.589,28.523,-50.012,1.172,8.987,64.860,-7.814,-8.205,-19.927,-0.391,24.615,7.424,-5.470,9.377,-28.132,13.675,16.410,17.973,19.145,7.424
'[14:23:39.145 02/09/2075]',-23.053,-16.410,-3.907,32.821,35.556,-52.357,-2.735,7.424,75.800,-12.894,-12.503,-19.145,0.391,25.397,7.424,-3.907,8.596,-30.867,4.689,11.722,16.410,19.927,7.424
'[14:23:39.148 02/09/2075]',-24.225,-16.020,-7.033,24.615,43.370,-60.171,-3.907,-1.954,84.005,-17.973,-16.020,-25.397,1.563,24.225,5.470,-9.377,2.344,-35.556,7.814,7.033,12.112,26.178,5.470
'[14:23:39.152 02/09/2075]',-23.834,-19.927,-8.205,17.973,45.324,-66.422,-7.033,-6.642,88.694,-23.053,-17.973,-30.476,2.344,21.099,4.689,-14.847,-5.861,-39.072,8.987,7.033,13.284,25.397,4.689
'[14:23:39.156 02/09/2075]',-26.960,-26.960,-8.987,11.331,39.072,-72.674,-14.066,-4.298,89.084,-29.304,-23.834,-28.523,-1.954,20.317,2.735,-16.801,-15.629,-40.635,9.768,10.159,14.457,21.880,2.735
'[14:23:39.160 02/09/2075]',-33.211,-30.476,-17.973,6.642,31.258,-82.442,-17.973,-5.861,87.521,-34.774,-30.085,-28.132,-4.689,19.145,0.391,-21.880,-25.397,-42.979,18.755,8.596,14.066,25.788,0.391
'[14:23:39.164 02/09/2075]',-39.072,-33.211,-21.880,3.516,22.271,-91.038,-16.020,-6.642,84.396,-37.118,-29.304,-30.085,-4.689,16.801,0.000,-26.178,-32.430,-43.370,22.662,14.066,13.284,23.834,0.000
'[14:23:39.168 02/09/2075]',-39.463,-37.118,-21.490,0.391,6.642,-85.568,-16.410,-3.907,77.753,-40.244,-30.085,-29.695,-8.205,13.284,-1.954,-26.178,-35.946,-43.370,22.271,19.145,10.940,17.582,-1.954
'[14:23:39.172 02/09/2075]',-43.761,-37.118,-26.178,-1.172,-9.377,-76.972,-17.973,-3.907,67.595,-41.807,-36.337,-28.132,-12.503,7.424,-9.377,-24.615,-38.681,-44.151,26.960,16.410,11.722,16.801,-9.377
'[14:23:39.176 02/09/2075]',-46.886,-34.383,-31.258,1.954,-17.192,-70.330,-14.066,-8.205,57.436,-40.635,-34.774,-32.430,-14.066,3.126,-13.675,-25.788,-39.072,-42.979,32.039,13.675,11.331,19.927,-13.675
'[14:23:39.180 02/09/2075]',-44.542,-35.556,-29.304,5.470,-16.410,-64.860,-16.410,-6.252,47.668,-37.900,-35.165,-30.476,-16.410,0.391,-17.582,-23.053,-36.337,-42.979,30.085,17.973,16.801,13.675,-17.582
'[14:23:39.184 02/09/2075]',-45.324,-34.774,-27.741,10.549,-14.457,-59.780,-18.364,-3.907,35.946,-37.509,-36.728,-23.443,-19.927,-3.516,-22.662,-15.238,-31.648,-42.589,28.523,19.145,23.443,8.205,-22.662
'[14:23:39.188 02/09/2075]',-46.105,-29.695,-28.913,17.582,-4.689,-60.952,-14.847,-6.642,28.913,-34.774,-31.648,-24.615,-18.755,-5.079,-19.536,-17.973,-25.397,-40.635,29.695,16.801,24.225,14.457,-19.536
'[14:23:39.191 02/09/2075]',-41.026,-24.225,-20.708,13.284,17.192,-68.376,-12.894,-8.596,22.662,-32.821,-29.695,-23.834,-19.536,-7.424,-20.317,-15.238,-20.317,-40.635,21.490,17.973,25.788,12.503,-20.317
'[14:23:39.195 02/09/2075]',-38.681,-22.271,-20.317,16.410,-3.516,-37.509,-17.973,-5.470,15.629,-32.430,-31.648,-19.145,-23.443,-9.768,-21.490,-12.894,-15.238,-41.416,21.099,18.755,30.085,5.861,-21.490
'[14:23:39.199 02/09/2075]',-37.900,-18.364,-22.662,19.145,0.000,-30.867,-18.364,-9.377,14.066,-29.304,-32.039,-19.536,-21.490,-12.503,-22.271,-10.159,-9.768,-38.681,23.443,16.410,28.523,7.814,-22.271
'[14:23:39.203 02/09/2075]',-31.258,-14.457,-21.880,20.317,15.629,-33.602,-14.847,-14.457,18.364,-26.569,-29.695,-24.225,-15.629,-13.675,-23.443,-8.987,-2.344,-37.509,22.662,14.066,25.788,9.768,-23.443
'[14:23:39.207 02/09/2075]',-24.615,-15.629,-20.317,24.225,21.880,-27.350,-17.973,-12.894,24.225,-25.397,-31.258,-22.662,-12.112,-11.331,-25.006,-7.033,3.907,-38.291,21.099,17.582,26.960,5.079,-25.006
'[14:23:39.211 02/09/2075]',-24.225,-16.020,-20.708,30.867,27.741,-26.569,-19.536,-12.112,33.602,-24.615,-32.430,-23.053,-7.033,-9.377,-24.225,-5.079,9.768,-36.337,21.490,17.582,29.695,4.689,-24.225
'[14:23:39.215 02/09/2075]',-20.708,-13.675,-20.317,33.993,53.529,-43.370,-16.801,-14.847,47.277,-23.053,-29.304,-28.523,1.172,-6.642,-23.053,-5.079,13.284,-36.728,21.099,15.238,26.569,13.284,-23.053
'[14:23:39.219 02/09/2075]',-20.708,-13.284,-19.145,36.728,42.198,-26.569,-17.582,-14.847,58.608,-22.271,-29.695,-32.039,6.642,-3.907,-23.053,-5.470,12.503,-38.291,19.927,17.192,29.304,15.238,-23.053
'[14:23:39.223 02/09/2075]',-23.834,-15.238,-19.927,41.807,38.291,-23.834,-21.490,-10.159,69.548,-24.615,-32.821,-28.913,10.549,-3.907,-22.271,-1.172,9.768,-37.509,20.708,15.629,35.946,13.675,-22.271
'[14:23:39.227 02/09/2075]',-26.960,-12.112,-14.457,36.728,44.151,-30.476,-21.490,-9.377,77.753,-27.741,-35.946,-27.741,13.284,-3.907,-24.225,0.391,6.642,-37.509,15.238,8.596,37.118,21.099,-24.225
'[14:23:39.230 02/09/2075]',-25.006,-11.722,-10.159,31.648,45.324,-32.821,-18.364,-9.768,83.223,-28.523,-34.383,-32.430,16.020,-3.126,-26.178,-0.391,1.563,-36.728,10.940,9.377,37.509,20.317,-26.178
'[14:23:39.234 02/09/2075]',-23.443,-15.238,-6.252,30.085,46.105,-35.556,-20.708,-5.079,85.958,-30.476,-33.993,-32.039,19.927,-4.689,-26.960,0.000,-0.391,-36.337,7.033,12.894,42.198,12.503,-26.960
'[14:23:39.238 02/09/2075]',-26.569,-16.801,-5.079,26.569,42.979,-40.244,-20.317,-4.298,85.568,-32.430,-34.774,-30.476,21.099,-7.424,-28.913,1.563,-3.126,-33.602,5.861,9.377,39.853,16.410,-28.913
'[14:23:39.242 02/09/2075]',-30.867,-16.801,-4.298,25.006,33.993,-37.900,-15.629,-7.033,83.223,-31.648,-30.867,-35.946,22.271,-9.768,-28.132,-1.172,-5.470,-33.211,5.079,8.205,37.118,21.880,-28.132
'[14:23:39.246 02/09/2075]',-33.211,-21.490,-3.516,27.350,19.927,-28.913,-20.708,-1.563,79.316,-31.258,-32.821,-32.039,21.490,-14.066,-25.788,0.391,-5.861,-32.430,4.298,12.894,41.416,12.503,-25.788
'[14:23:39.250 02/09/2075]',-37.118,-25.788,-3.126,30.085,11.722,-27.741,-22.662,1.954,69.939,-33.602,-34.774,-26.178,17.582,-21.880,-27.741,6.252,-5.861,-31.258,3.907,12.503,42.979,9.377,-27.741
'[14:23:39.254 02/09/2075]',-41.416,-24.225,-3.516,29.304,8.987,-28.523,-20.317,-0.391,59.780,-33.211,-33.211,-30.476,13.284,-26.960,-29.695,5.079,-6.642,-32.821,4.298,9.377,42.589,12.112,-29.695
'[14:23:39.258 02/09/2075]',-41.807,-24.615,-4.298,31.258,6.642,-25.788,-19.536,-0.391,50.012,-31.258,-32.039,-32.039,8.596,-29.695,-29.695,4.689,-5.861,-35.946,5.079,11.331,42.979,7.424,-29.695
'[14:23:39.262 02/09/2075]',-43.370,-23.443,-2.344,31.648,4.689,-23.053,-21.099,0.781,39.463,-30.867,-33.602,-28.523,3.516,-32.821,-30.476,5.861,-3.516,-39.463,3.126,12.894,45.714,1.172,-30.476
'[14:23:39.266 02/09/2075]',-45.324,-17.973,1.563,24.225,8.205,-24.615,-17.192,-3.126,28.523,-28.523,-30.476,-31.258,-0.781,-33.211,-29.695,1.954,-1.954,-41.026,-0.781,7.033,44.151,5.470,-29.695
'[14:23:39.270 02/09/2075]',-46.496,-12.894,0.781,23.443,12.894,-24.615,-13.675,-8.205,18.364,-22.662,-28.132,-33.993,-2.735,-34.774,-27.350,-1.172,-0.391,-42.198,0.000,5.861,42.589,7.424,-27.350
'[14:23:39.273 02/09/2075]',-45.324,-11.331,0.781,23.443,13.284,-21.880,-16.410,-6.642,7.033,-18.364,-28.523,-30.867,-7.814,-34.383,-26.178,-1.954,0.781,-42.198,0.000,8.205,46.105,0.000,-26.178
'[14:23:39.277 02/09/2075]',-44.151,-7.424,-1.954,23.443,16.410,-22.662,-17.582,-7.033,0.391,-17.582,-30.085,-28.132,-14.847,-30.867,-26.960,-3.516,1.172,-40.244,2.735,5.861,46.496,0.391,-26.960
'[14:23:39.281 02/09/2075]',-39.853,-3.516,-6.642,21.490,26.569,-25.397,-15.629,-13.284,-0.391,-13.675,-30.476,-30.476,-13.284,-27.741,-28.523,-5.470,3.126,-43.370,7.424,3.907,43.370,3.907,-28.523
'[14:23:39.285 02/09/2075]',-33.211,-1.954,-6.252,17.192,35.165,-26.178,-18.364,-15.238,1.172,-11.331,-31.648,-29.304,-8.987,-26.569,-27.350,-7.424,6.642,-48.449,7.033,6.252,40.635,0.781,-27.350
'[14:23:39.289 02/09/2075]',-30.085,-0.391,-4.298,11.331,42.589,-27.350,-23.834,-14.847,10.549,-13.284,-36.337,-27.350,-4.298,-23.053,-26.960,-11.331,10.159,-53.138,5.079,3.126,43.761,0.391,-26.960
'[14:23:39.293 02/09/2075]',-26.569,3.126,-6.642,7.033,53.138,-31.648,-25.788,-17.582,15.629,-6.642,-41.807,-27.350,5.861,-22.271,-29.695,-13.284,11.722,-58.608,7.424,-3.126,43.761,7.033,-29.695
'[14:23:39.297 02/09/2075]',-17.973,2.735,-6.252,2.735,61.343,-30.476,-29.695,-19.927,26.569,-3.516,-44.151,-30.085,18.755,-23.053,-29.695,-15.629,13.284,-62.515,7.033,-0.781,42.198,4.298,-29.695
'[14:23:39.301 02/09/2075]',-12.112,2.344,-7.033,0.391,66.032,-28.132,-38.681,-15.629,39.853,-6.642,-47.277,-29.304,25.006,-23.053,-31.258,-14.457,12.503,-63.687,7.814,-0.781,42.589,-0.391,-31.258
'[14:23:39.305 02/09/2075]',-5.861,5.470,-12.894,0.000,75.800,-33.211,-38.291,-16.801,48.059,-5.470,-51.184,-28.523,32.430,-21.880,-35.946,-11.331,11.722,-62.906,13.675,-8.987,39.853,6.642,-35.946
'[14:23:39.309 02/09/2075]',-0.391,9.768,-10.940,-9.768,80.488,-33.602,-36.728,-21.099,57.827,-7.033,-47.668,-33.602,37.509,-20.708,-35.165,-12.112,10.940,-62.515,11.722,-14.457,30.476,11.331,-35.165
'[14:23:39.313 02/09/2075]',2.735,9.377,-6.252,-16.410,76.190,-29.304,-37.900,-19.145,64.860,-8.596,-47.668,-32.430,37.900,-17.582,-33.602,-11.722,9.768,-58.217,7.033,-15.629,30.476,6.642,-33.602
'[14:23:39.316 02/09/2075]',2.735,7.424,-6.252,-16.020,71.893,-29.695,-35.165,-17.192,66.422,-8.596,-46.886,-30.867,39.853,-17.973,-31.258,-10.549,10.159,-53.529,7.033,-16.801,29.695,7.814,-31.258
'[14:23:39.320 02/09/2075]',0.781,6.642,-6.252,-15.238,64.860,-29.304,-27.350,-21.880,69.939,-8.205,-42.979,-36.337,42.979,-18.755,-28.132,-14.066,8.205,-48.059,7.033,-19.145,28.913,12.894,-28.132
'[14:23:39.324 02/09/2075]',-1.563,2.735,-3.516,-13.675,50.794,-22.662,-22.271,-21.880,72.674,-10.940,-39.853,-39.463,40.244,-17.973,-24.615,-15.629,4.689,-43.370,4.298,-15.238,33.211,10.549,-24.615
'[14:23:39.328 02/09/2075]',-6.642,-0.781,-1.563,-8.987,35.556,-18.755,-19.927,-16.801,70.330,-15.629,-40.635,-35.165,33.602,-17.582,-25.006,-11.331,1.172,-38.291,2.344,-12.894,39.072,8.596,-25.006
'[14:23:39.332 02/09/2075]',-13.675,0.000,-1.954,-5.079,27.350,-19.536,-11.331,-18.755,71.502,-19.145,-38.681,-37.118,31.648,-19.536,-26.178,-9.768,-3.907,-32.039,2.735,-16.410,40.244,16.801,-26.178
'[14:23:39.336 02/09/2075]',-18.755,0.391,-0.781,-1.563,22.271,-19.536,-4.298,-21.490,71.502,-21.490,-36.337,-40.244,29.695,-21.880,-26.569,-7.814,-7.033,-26.960,1.563,-14.066,42.198,19.927,-26.569
'[14:23:39.340 02/09/2075]',-24.225,0.391,0.781,2.735,17.192,-17.582,-4.689,-15.238,67.204,-25.397,-37.900,-35.556,24.225,-25.006,-27.741,-3.516,-10.549,-22.662,0.000,-10.159,46.105,16.801,-27.741
'[14:23:39.344 02/09/2075]',-31.648,3.516,0.781,8.205,14.847,-18.364,-1.172,-14.066,63.297,-26.960,-41.026,-35.165,23.443,-30.085,-29.695,-3.907,-12.112,-19.145,0.000,-12.894,50.794,19.536,-29.695
'[14:23:39.348 02/09/2075]',-33.211,9.768,0.000,12.503,18.755,-16.410,3.516,-16.801,58.217,-28.523,-39.463,-39.463,21.099,-32.821,-31.258,-6.642,-11.331,-16.801,0.781,-12.503,53.919,19.145,-31.258
'[14:23:39.352 02/09/2075]',-32.039,14.457,8.987,7.424,22.271,-13.675,6.642,-15.629,50.403,-30.085,-35.556,-37.900,16.020,-34.774,-30.476,-3.907,-10.549,-14.847,-8.205,-9.768,53.138,14.457,-30.476
'[14:23:39.355 02/09/2075]',-31.648,17.582,11.331,10.549,25.006,-11.722,3.126,-8.596,39.853,-28.523,-35.165,-30.085,10.549,-35.165,-30.085,0.781,-7.033,-10.940,-10.549,-12.112,53.919,11.722,-30.085
'[14:23:39.359 02/09/2075]',-31.258,20.708,10.940,13.675,28.132,-13.284,5.470,-5.861,31.648,-27.350,-29.695,-24.615,7.424,-36.337,-27.741,5.861,-5.470,-7.814,-10.159,-14.847,48.840,14.847,-27.741
'[14:23:39.363 02/09/2075]',-27.350,18.755,12.112,18.364,26.569,-9.768,4.689,0.781,21.880,-24.615,-20.317,-18.364,2.735,-35.165,-21.099,11.331,-1.563,-5.861,-11.331,-8.205,44.542,5.861,-21.099
'[14:23:39.367 02/09/2075]',-24.225,13.675,11.331,25.006,22.662,-8.205,1.172,11.331,10.159,-19.536,-18.755,-8.205,-0.781,-35.556,-18.755,18.364,0.781,-3.516,-10.549,-3.126,42.198,-2.735,-18.755
'[14:23:39.371 02/09/2075]',-23.053,12.894,9.768,28.523,19.145,-8.205,5.079,12.894,6.642,-16.020,-13.675,-7.424,1.563,-34.383,-19.145,21.099,5.079,-2.344,-8.987,-4.298,38.681,-1.172,-19.145
'[14:23:39.375 02/09/2075]',-19.536,13.284,11.331,28.523,14.457,-2.344,8.987,12.503,9.377,-12.112,-7.424,-8.596,5.470,-30.085,-16.801,21.490,8.205,-1.954,-10.549,-3.907,34.383,-1.172,-16.801
'[14:23:39.379 02/09/2075]',-13.675,7.424,13.675,28.913,10.940,0.781,6.642,17.973,12.112,-6.252,-8.987,-3.516,9.377,-25.397,-16.801,25.397,11.722,-2.344,-12.894,0.391,31.258,-5.861,-16.801
'[14:23:39.383 02/09/2075]',-9.377,3.126,8.596,32.430,12.894,-2.735,4.298,19.927,21.490,-4.689,-10.159,0.000,17.973,-23.053,-21.099,32.039,13.675,-1.563,-7.814,0.000,26.178,-3.126,-21.099
'[14:23:39.387 02/09/2075]',-5.079,1.172,4.298,32.430,16.410,-6.252,5.470,15.629,32.430,-3.126,-7.814,-4.298,25.788,-21.099,-16.020,27.350,13.284,-1.172,-3.516,-1.563,19.145,2.344,-16.020
'[14:23:39.391 02/09/2075]',-0.781,-3.907,0.391,34.383,17.582,-6.252,2.735,14.457,41.416,-3.126,-9.377,-4.298,30.085,-17.582,-15.629,26.178,12.503,-2.735,0.391,3.516,16.410,-1.172,-15.629
'[14:23:39.395 02/09/2075]',-0.391,-8.205,-1.172,33.602,16.410,-5.470,-2.735,13.284,50.012,-7.033,-13.675,-1.172,31.258,-14.066,-17.192,26.960,9.768,-4.689,1.954,4.298,16.410,-3.126,-17.192
'[14:23:39.398 02/09/2075]',-0.781,-7.033,0.391,26.960,21.490,-5.079,-3.907,5.470,60.562,-11.722,-14.457,-4.689,35.165,-13.284,-16.020,23.053,7.424,-8.596,0.391,-0.391,14.066,2.344,-16.020
'[14:23:39.402 02/09/2075]',-1.563,-9.377,0.000,23.053,25.397,-5.470,-6.642,-0.391,69.548,-16.801,-14.066,-8.205,37.118,-12.894,-14.847,19.927,6.252,-13.675,0.781,1.172,11.722,1.954,-14.847
'[14:23:39.406 02/09/2075]',-2.735,-11.331,0.391,21.880,25.006,-3.126,-12.894,0.000,74.628,-23.443,-17.192,-4.689,32.430,-12.894,-14.457,22.662,3.907,-15.629,0.391,0.781,10.549,0.000,-14.457
'[14:23:39.410 02/09/2075]',-6.252,-9.377,-0.391,21.880,24.615,-4.689,-13.675,0.000,76.972,-30.867,-17.973,-4.689,26.178,-14.457,-12.503,23.834,1.954,-16.410,1.172,-5.470,8.596,2.735,-12.503
'[14:23:39.414 02/09/2075]',-7.033,-8.987,-0.781,21.490,23.053,-5.470,-9.377,-3.907,76.972,-34.383,-12.503,-12.503,22.662,-15.238,-8.596,17.582,1.172,-15.238,1.563,-4.298,6.252,4.689,-8.596
'[14:23:39.418 02/09/2075]',-6.642,-12.894,0.781,23.443,17.582,-1.563,-6.252,-5.079,73.455,-37.509,-8.596,-15.238,16.410,-14.847,-6.252,16.020,0.391,-12.894,0.000,0.781,7.814,0.781,-6.252
'[14:23:39.422 02/09/2075]',-10.159,-15.238,0.391,26.960,12.894,-4.298,-4.298,-3.516,66.422,-40.635,-8.205,-14.847,9.377,-16.410,-7.814,16.410,-0.781,-9.768,0.391,0.391,10.549,2.344,-7.814
'[14:23:39.426 02/09/2075]',-16.410,-14.847,-1.954,26.960,8.205,-6.642,0.000,-8.596,60.171,-39.853,-5.470,-21.880,7.424,-19.145,-7.814,10.940,-2.735,-6.642,2.735,-0.391,12.894,8.987,-7.814
'[14:23:39.430 02/09/2075]',-21.099,-18.364,0.391,28.913,0.781,-5.470,-0.391,-5.861,51.575,-40.635,-3.516,-22.662,1.172,-20.708,-7.814,10.940,-5.079,-5.079,0.391,5.079,16.410,4.298,-7.814
'[14:23:39.434 02/09/2075]',-25.397,-20.708,-1.172,35.165,-3.126,-7.424,-2.735,1.172,39.853,-41.807,-4.298,-16.801,-4.689,-25.397,-9.377,15.629,-6.642,-3.516,1.954,7.814,21.880,0.000,-9.377
'[14:23:39.438 02/09/2075]',-29.304,-18.364,-3.907,36.337,-3.126,-11.331,-0.781,-0.391,27.741,-41.807,-2.735,-17.582,-7.424,-29.304,-10.159,12.894,-8.596,-2.344,4.689,4.689,22.271,5.079,-10.159
'[14:23:39.441 02/09/2075]',-26.960,-18.364,-3.907,33.993,-4.298,-9.377,0.000,-1.563,17.192,-43.370,-0.391,-14.457,-12.503,-29.695,-9.768,11.331,-11.331,-5.079,4.689,7.814,19.927,4.298,-9.768
'[14:23:39.445 02/09/2075]',-23.443,-20.317,-5.079,33.602,-5.079,-7.424,-6.642,2.735,7.033,-45.324,-3.126,-7.033,-18.364,-31.258,-10.549,11.331,-12.503,-10.549,5.861,13.284,21.099,-3.516,-10.549
'[14:23:39.449 02/09/2075]',-21.490,-17.973,-7.033,26.569,1.563,-10.940,-11.722,0.781,0.781,-46.105,-5.861,-3.907,-19.536,-33.993,-11.722,9.377,-12.503,-17.973,7.814,10.549,17.582,-1.954,-11.722
'[14:23:39.453 02/09/2075]',-19.927,-12.112,-4.689,16.801,9.377,-13.284,-16.020,-0.781,-0.391,-45.324,-5.861,-5.470,-17.582,-35.556,-10.159,5.861,-13.675,-24.615,5.470,7.424,13.284,0.000,-10.159
'[14:23:39.457 02/09/2075]',-19.536,-12.503,-4.298,12.894,13.675,-13.675,-27.741,3.126,-0.781,-41.026,-9.768,-3.126,-16.410,-35.946,-8.205,4.298,-12.894,-33.993,5.079,10.940,14.457,-8.596,-8.205
'[14:23:39.461 02/09/2075]',-18.755,-12.503,-2.735,7.814,19.927,-15.238,-37.509,5.470,0.391,-36.337,-15.238,-1.954,-13.675,-35.165,-6.642,2.344,-11.331,-41.807,3.516,10.159,16.410,-10.549,-6.642
'[14:23:39.465 02/09/2075]',-15.238,-10.159,-4.689,3.907,30.867,-16.410,-42.198,0.391,4.298,-28.132,-17.973,-5.470,-7.424,-32.430,-4.689,-1.563,-9.768,-48.449,5.470,5.861,14.457,-5.470,-4.689
'[14:23:39.469 02/09/2075]',-5.470,-12.503,-3.126,0.781,44.933,-15.238,-48.840,-2.735,12.894,-19.145,-19.927,-8.596,-1.563,-28.913,0.391,-5.079,-6.642,-56.264,3.907,6.252,11.331,-4.689,0.391
'[14:23:39.473 02/09/2075]',0.391,-12.503,0.000,-3.126,58.217,-9.768,-57.436,-5.861,22.271,-10.159,-26.569,-8.987,1.954,-22.662,1.954,-5.470,0.391,-61.734,0.781,1.954,11.722,-3.126,1.954
'[14:23:39.477 02/09/2075]',2.344,-5.470,1.954,-7.424,72.674,-5.079,-62.906,-13.284,36.337,-1.563,-31.648,-13.675,7.424,-16.801,5.079,-8.205,6.252,-66.813,-1.172,-10.940,9.377,7.814,5.079
'[14:23:39.480 02/09/2075]',5.861,-1.954,4.689,-11.722,85.568,1.563,-66.422,-23.834,54.701,3.907,-35.556,-21.490,15.629,-11.331,7.814,-11.331,12.894,-72.674,-3.907,-15.629,5.861,12.503,7.814
'[14:23:39.484 02/09/2075]',5.079,-3.516,5.470,-11.722,91.038,8.205,-73.455,-30.085,71.502,7.033,-41.026,-28.132,19.927,-7.814,6.642,-9.768,19.145,-79.316,-4.689,-15.238,6.642,10.159,6.642
'[14:23:39.488 02/09/2075]',1.954,-2.344,5.861,-13.675,98.071,8.596,-76.581,-39.463,86.349,5.861,-47.668,-35.946,21.880,-6.642,7.424,-14.457,23.053,-84.005,-5.079,-23.834,4.689,19.145,7.424
'[14:23:39.492 02/09/2075]',0.391,-2.735,2.735,-14.847,103.932,8.987,-75.800,-52.357,98.852,3.516,-53.138,-47.668,22.271,-6.642,3.907,-18.755,24.225,-89.866,-1.954,-30.476,2.735,26.569,3.907
'[14:23:39.496 02/09/2075]',0.391,-8.596,2.344,-13.284,106.667,10.159,-79.316,-57.827,106.276,0.391,-58.999,-53.529,18.755,-8.596,2.735,-19.145,25.006,-95.336,-1.563,-28.523,4.298,22.662,2.735
'[14:23:39.500 02/09/2075]',-3.907,-12.503,8.596,-19.536,110.183,7.424,-82.442,-64.078,109.402,-5.079,-65.641,-56.264,12.894,-13.675,0.391,-17.973,23.443,-95.726,-7.814,-31.648,5.861,22.662,0.391
'[14:23:39.504 02/09/2075]',-12.894,-13.284,5.861,-18.755,111.355,2.344,-78.926,-75.018,114.090,-10.159,-69.158,-64.860,10.159,-19.536,-3.516,-18.755,19.927,-95.726,-5.079,-36.728,4.689,30.476,-3.516
'[14:23:39.508 02/09/2075]',-17.973,-15.629,5.079,-17.192,106.667,1.954,-75.018,-80.488,116.435,-17.192,-69.939,-70.720,3.907,-23.834,-6.642,-14.847,16.801,-95.336,-4.298,-35.556,3.516,28.523,-6.642
'[14:23:39.512 02/09/2075]',-26.569,-19.927,8.596,-13.284,98.462,1.954,-73.455,-78.926,116.044,-26.960,-72.674,-67.595,-4.689,-29.304,-8.205,-8.596,14.847,-92.991,-7.814,-32.039,6.642,24.615,-8.205
'[14:23:39.516 02/09/2075]',-37.900,-19.145,4.298,-4.298,91.429,0.000,-67.204,-82.051,113.700,-38.291,-71.502,-67.985,-12.894,-34.383,-12.112,-4.689,13.675,-89.866,-3.516,-36.337,8.987,28.523,-12.112
'[14:23:39.520 02/09/2075]',-41.807,-21.099,3.516,3.516,89.866,0.000,-57.827,-87.131,110.965,-44.933,-67.985,-69.158,-17.192,-39.853,-12.503,-0.781,15.629,-85.568,-2.735,-33.993,11.722,29.304,-12.503
'[14:23:39.523 02/09/2075]',-44.933,-24.225,8.205,11.331,84.786,2.735,-54.701,-82.833,104.713,-48.449,-65.250,-64.078,-22.662,-42.589,-10.159,2.735,18.364,-78.926,-7.424,-26.178,19.536,19.927,-10.159
'[14:23:39.527 02/09/2075]',-48.840,-23.834,10.549,19.927,80.098,5.079,-49.231,-78.535,97.680,-44.151,-64.078,-57.827,-26.178,-41.416,-8.205,6.642,18.755,-66.032,-9.768,-24.225,23.834,20.708,-8.205
'[14:23:39.531 02/09/2075]',-45.324,-17.973,14.066,22.271,82.442,7.033,-37.509,-79.316,92.210,-32.821,-57.436,-60.562,-21.099,-37.900,-6.252,7.424,23.053,-52.747,-13.284,-23.443,24.225,22.271,-6.252
'[14:23:39.535 02/09/2075]',-38.681,-13.284,20.708,27.350,83.223,12.503,-28.132,-71.502,84.005,-17.582,-48.449,-58.608,-16.410,-32.821,-2.735,10.940,29.695,-40.635,-19.927,-19.145,23.443,19.145,-2.735
'[14:23:39.539 02/09/2075]',-34.774,-9.768,21.880,34.383,82.051,15.629,-23.053,-62.906,75.018,-5.470,-44.151,-51.966,-14.457,-26.569,-0.391,14.847,40.244,-31.258,-21.099,-20.317,25.788,18.755,-0.391
'[14:23:39.543 02/09/2075]',-32.821,-3.516,24.615,35.165,81.661,17.973,-12.503,-64.860,67.985,3.516,-35.946,-51.184,-10.549,-24.615,3.126,16.410,55.482,-25.397,-23.834,-25.397,22.662,24.225,3.126
'[14:23:39.547 02/09/2075]',-31.258,-1.563,30.085,40.635,76.581,26.178,-2.735,-62.515,63.297,9.768,-23.443,-51.184,-7.814,-21.880,12.112,16.410,73.846,-23.053,-29.304,-23.053,24.225,19.536,12.112
'[14:23:39.551 02/09/2075]',-28.913,-1.563,37.900,44.933,69.548,39.072,1.954,-59.780,59.389,11.722,-10.549,-43.761,-6.252,-20.708,23.443,19.536,91.038,-16.801,-37.118,-18.755,25.788,12.112,23.443
'[14:23:39.555 02/09/2075]',-27.741,5.470,49.621,41.416,61.734,52.357,13.675,-60.171,51.966,14.457,2.344,-34.383,-3.907,-18.364,33.602,23.834,103.150,-2.344,-48.840,-24.615,25.006,14.847,33.602
'[14:23:39.559 02/09/2075]',-23.053,14.066,61.343,35.556,50.794,70.720,25.397,-58.999,42.589,16.410,18.755,-27.350,-0.391,-15.238,42.589,24.615,110.183,11.331,-60.562,-27.741,22.662,14.847,42.589
'[14:23:39.563 02/09/2075]',-16.020,17.582,71.502,34.383,37.509,85.568,31.648,-48.059,28.523,16.410,29.695,-12.112,0.781,-12.503,48.059,27.741,109.011,26.569,-70.720,-22.662,23.443,5.861,48.059
'[14:23:39.566 02/09/2075]',-12.894,24.225,78.535,29.695,25.397,91.429,40.635,-37.900,14.066,15.629,36.728,3.907,5.470,-14.066,51.184,28.913,105.104,42.198,-77.753,-22.271,23.443,2.735,51.184
'[14:23:39.570 02/09/2075]',-8.596,33.602,83.614,25.788,17.973,92.210,54.310,-30.085,5.470,15.629,48.449,10.549,15.238,-12.503,52.357,25.397,98.852,54.701,-82.833,-22.271,21.490,3.907,52.357
'[14:23:39.574 02/09/2075]',-5.079,37.900,86.740,28.523,7.814,91.429,63.687,-14.847,1.563,16.020,55.092,18.364,23.053,-6.252,49.621,25.006,90.256,62.515,-85.958,-13.284,25.397,-0.781,49.621
'[14:23:39.578 02/09/2075]',-1.954,41.416,85.568,29.695,0.391,87.131,67.204,0.000,0.391,14.847,55.873,28.523,28.523,-0.781,44.933,27.350,80.879,68.767,-84.786,-7.033,30.867,-6.642,44.933
'[14:23:39.582 02/09/2075]',-0.781,42.979,76.190,27.741,-4.689,75.018,71.111,5.079,1.563,13.675,54.310,30.867,33.211,3.516,37.900,25.006,66.813,69.548,-75.409,-5.861,28.132,-3.516,37.900
'[14:23:39.586 02/09/2075]',3.126,35.165,62.515,24.615,-7.424,57.045,67.595,8.987,1.954,12.112,47.277,30.476,32.821,5.861,27.741,24.615,48.840,62.906,-61.734,0.391,17.582,-1.954,27.741
'[14:23:39.590 02/09/2075]',7.033,22.271,45.324,20.708,-10.159,38.291,53.919,13.675,2.344,7.033,33.993,30.476,26.178,6.252,20.317,20.708,30.085,54.310,-44.542,4.298,8.205,-5.861,20.317
'[14:23:39.594 02/09/2075]',7.814,14.457,25.788,14.457,-6.252,19.536,39.853,11.722,4.689,1.172,21.099,26.960,18.364,6.642,14.066,14.457,12.894,42.589,-25.006,-0.391,-3.126,-1.172,14.066
'[14:23:39.598 02/09/2075]',14.066,7.424,10.549,8.987,3.516,2.344,30.476,5.470,10.549,-0.391,14.066,15.629,15.629,8.596,6.252,7.814,0.391,29.695,-9.768,-3.907,-14.847,5.470,6.252
'[14:23:39.602 02/09/2075]',19.145,0.781,0.781,7.033,12.894,-7.424,20.708,1.954,15.629,-2.735,10.940,6.252,11.331,10.940,3.516,2.735,-6.642,18.755,0.000,-5.470,-19.536,4.689,3.516
'[14:23:39.605 02/09/2075]',19.536,-1.954,-7.033,7.814,18.755,-13.284,11.331,0.781,19.927,-4.298,5.861,5.079,7.033,12.112,3.126,3.126,-8.987,10.549,7.814,-10.940,-22.271,7.424,3.126
'[14:23:39.609 02/09/2075]',17.582,-1.954,-2.344,1.954,21.490,-15.238,11.722,-1.954,26.178,-1.563,5.470,1.954,8.596,13.675,3.516,5.079,-8.987,8.596,3.126,-18.364,-25.397,15.629,3.516
'[14:23:39.613 02/09/2075]',17.973,-6.642,0.391,1.563,18.755,-11.722,8.596,-2.344,28.913,-0.391,4.689,-0.391,7.424,12.112,3.126,8.596,-7.814,4.298,0.391,-13.675,-26.569,11.331,3.126
'[14:23:39.617 02/09/2075]',15.629,-9.768,1.172,1.563,14.847,-7.033,1.954,0.391,28.913,-3.907,0.000,0.000,2.735,8.205,1.172,11.331,-7.033,1.172,-0.391,-10.549,-25.788,6.642,1.172
'[14:23:39.621 02/09/2075]',10.940,-5.861,-2.344,1.172,12.112,-5.470,1.954,-4.689,28.913,-4.689,0.000,-5.861,1.954,4.689,-1.563,11.331,-6.642,0.391,3.126,-15.629,-24.615,13.284,-1.563
'[14:23:39.625 02/09/2075]',6.642,-1.563,-9.377,2.735,7.033,-1.954,2.344,-8.987,27.741,-7.424,0.391,-12.112,-0.391,2.344,-5.470,10.549,-6.642,-5.079,10.159,-14.847,-21.880,14.066,-5.470
'[14:23:39.629 02/09/2075]',4.689,1.954,-8.596,3.126,3.907,3.516,0.781,-6.252,25.006,-8.596,0.391,-11.722,-4.298,2.735,-5.470,10.940,-4.298,-9.377,9.377,-12.503,-16.801,8.987,-5.470
'[14:23:39.633 02/09/2075]',2.735,11.722,-6.252,6.642,5.470,5.079,5.470,-1.563,26.178,-4.298,3.126,-8.596,-0.391,5.079,-3.516,14.457,0.781,-5.861,7.033,-16.020,-10.159,11.331,-3.516
'[14:23:39.637 02/09/2075]',0.391,21.880,-1.954,8.205,7.814,6.642,16.020,-1.172,27.741,1.563,8.987,-10.159,7.814,8.987,-1.563,12.894,8.987,-4.689,2.735,-16.020,-4.298,13.675,-1.563
'[14:23:39.641 02/09/2075]',2.344,28.913,2.344,8.987,7.033,12.503,20.317,3.516,27.350,8.596,10.549,-6.252,13.675,14.066,0.391,11.722,14.066,-1.172,-1.563,-10.940,-0.391,8.596,0.391
'[14:23:39.645 02/09/2075]',4.298,34.383,3.126,12.112,6.252,16.020,21.490,10.549,24.225,14.066,11.722,0.000,17.582,18.755,0.391,12.503,17.192,2.735,-2.344,-7.033,0.781,5.470,0.391
'[14:23:39.648 02/09/2075]',4.298,39.853,1.954,9.768,8.987,12.112,25.397,8.596,21.880,19.536,13.675,0.000,26.178,19.927,0.000,9.377,16.410,6.252,-1.172,-7.033,1.172,9.768,0.000
'[14:23:39.652 02/09/2075]',9.377,38.291,-0.781,8.205,14.066,8.596,23.834,7.424,22.271,23.443,12.894,0.391,33.211,20.708,-2.735,7.424,11.722,6.642,1.563,-4.689,-0.781,9.377,-2.735
'[14:23:39.656 02/09/2075]',11.722,34.383,-3.126,10.159,17.973,4.689,17.192,12.503,21.880,24.225,9.768,4.298,35.165,21.490,-4.689,8.596,5.079,6.642,3.907,-3.126,0.781,5.470,-4.689
'[14:23:39.660 02/09/2075]',10.159,32.821,-7.424,8.596,22.271,-2.735,10.549,13.284,20.708,21.880,4.689,5.861,36.337,19.536,-8.596,7.033,-2.735,7.814,8.205,-8.596,2.344,8.596,-8.596
'[14:23:39.664 02/09/2075]',8.596,28.132,-15.238,5.861,25.397,-9.768,4.298,8.205,19.927,17.973,3.126,2.344,34.774,17.582,-12.503,4.298,-15.629,4.689,16.020,-8.596,-1.172,9.768,-12.503
'[14:23:39.668 02/09/2075]',6.642,21.490,-19.145,3.516,25.788,-14.457,-4.298,7.033,18.364,12.503,1.954,1.563,30.476,15.238,-11.331,1.172,-27.741,0.391,19.927,-5.861,-3.516,5.079,-11.331
'[14:23:39.672 02/09/2075]',1.563,18.755,-17.192,-4.689,30.476,-23.053,-13.675,5.079,19.145,3.126,-3.126,3.516,24.225,11.331,-13.675,0.781,-38.291,-3.516,17.973,-9.768,-2.735,5.470,-13.675
'[14:23:39.676 02/09/2075]',-1.172,15.238,-22.271,-8.596,33.993,-32.039,-15.629,-2.735,25.006,-3.516,-7.424,-1.172,20.317,10.159,-16.410,-1.954,-47.277,-11.331,23.053,-13.675,-5.861,12.112,-16.410
'[14:23:39.680 02/09/2075]',-1.172,8.987,-22.271,-11.331,35.946,-34.383,-22.271,-6.252,32.039,-11.722,-12.112,-5.079,15.629,8.987,-17.973,-5.079,-52.747,-19.536,23.053,-12.503,-4.298,6.252,-17.973
'[14:23:39.684 02/09/2075]',-1.954,0.781,-23.443,-13.284,37.118,-38.681,-30.085,-7.424,36.728,-19.536,-21.880,-6.642,9.768,5.079,-21.490,-7.033,-56.654,-25.788,24.225,-10.940,-2.735,3.126,-21.490
'[14:23:39.688 02/09/2075]',-3.907,-4.298,-29.695,-17.973,36.337,-46.105,-31.258,-16.410,37.509,-26.178,-28.132,-14.847,5.079,2.735,-28.913,-11.331,-60.171,-32.039,30.476,-14.457,-5.470,10.159,-28.913
'[14:23:39.691 02/09/2075]',-6.252,-10.549,-30.867,-25.397,28.523,-46.496,-32.821,-23.834,36.337,-27.741,-28.913,-25.006,3.126,0.391,-26.178,-25.006,-64.078,-36.337,31.648,-13.284,-5.470,10.940,-26.178
'[14:23:39.695 02/09/2075]',-7.424,-18.364,-29.304,-30.867,20.317,-47.277,-37.509,-23.443,31.258,-28.523,-34.383,-27.350,0.391,-2.735,-28.913,-28.913,-67.595,-37.509,30.085,-8.596,-3.126,6.252,-28.913
'[14:23:39.699 02/09/2075]',-12.503,-21.099,-31.258,-36.728,13.675,-52.747,-36.337,-26.960,26.178,-29.304,-37.118,-33.211,0.000,-7.424,-32.039,-33.993,-68.376,-35.946,32.039,-10.549,-2.735,9.377,-32.039
'[14:23:39.703 02/09/2075]',-14.066,-19.927,-30.085,-40.635,10.549,-54.310,-30.867,-31.648,25.397,-26.178,-34.383,-45.324,4.298,-10.159,-32.430,-42.198,-68.376,-31.258,30.867,-12.112,-2.735,13.675,-32.430
'[14:23:39.707 02/09/2075]',-15.238,-19.145,-26.960,-40.244,1.172,-50.794,-26.960,-26.178,18.755,-20.708,-32.039,-49.231,3.907,-10.940,-32.039,-43.761,-67.595,-23.443,27.741,-8.205,1.954,9.377,-32.039
'[14:23:39.711 02/09/2075]',-17.192,-15.629,-26.178,-34.383,-7.424,-45.324,-22.662,-19.536,12.503,-19.145,-27.350,-46.886,0.781,-8.596,-30.867,-41.416,-66.422,-10.159,26.960,-10.549,6.642,10.549,-30.867
'[14:23:39.715 02/09/2075]',-17.973,-7.033,-27.741,-30.867,-16.020,-38.291,-11.722,-17.582,4.689,-10.940,-15.629,-45.714,3.907,-3.907,-26.178,-40.635,-64.469,3.516,28.523,-14.066,8.596,16.410,-26.178
'[14:23:39.719 02/09/2075]',-10.549,-2.344,-27.350,-26.569,-25.397,-28.523,-2.735,-11.331,-10.940,-1.563,-1.954,-36.728,4.689,-0.391,-18.364,-37.509,-64.469,19.536,28.132,-11.722,9.377,13.675,-18.364
'[14:23:39.723 02/09/2075]',-7.033,0.391,-30.867,-21.099,-38.291,-21.099,0.391,0.000,-27.350,2.735,7.033,-19.145,2.735,5.470,-14.457,-30.476,-64.469,35.165,31.648,-10.159,11.722,9.377,-14.457
'[14:23:39.727 02/09/2075]',-5.470,6.642,-30.476,-26.178,-54.310,-13.284,4.298,6.252,-44.542,9.377,16.020,-4.298,5.079,8.987,-8.205,-28.523,-63.297,48.059,31.258,-10.549,10.549,7.033,-8.205
'[14:23:39.730 02/09/2075]',3.126,12.112,-27.350,-35.165,-60.952,-7.424,12.503,8.596,-57.045,18.755,25.788,1.563,13.284,11.722,-3.516,-31.648,-62.125,58.217,28.132,-5.079,5.861,3.516,-3.516
'[14:23:39.734 02/09/2075]',13.284,13.675,-27.741,-37.509,-70.330,0.781,13.284,16.410,-67.985,24.225,31.258,10.940,21.099,13.284,-1.954,-32.039,-58.217,66.422,28.523,2.735,7.033,-7.814,-1.954
'[14:23:39.738 02/09/2075]',16.801,17.973,-29.695,-39.463,-76.972,5.861,15.629,19.536,-76.972,26.960,33.211,18.755,28.132,10.940,-1.172,-33.602,-55.092,72.674,30.476,1.954,6.252,-11.331,-1.172
'[14:23:39.742 02/09/2075]',23.443,22.271,-34.383,-40.635,-79.707,9.768,19.927,19.536,-82.442,32.039,37.118,21.490,35.165,10.159,-0.781,-35.165,-51.966,77.363,35.165,2.735,0.781,-10.549,-0.781
'[14:23:39.746 02/09/2075]',30.476,20.317,-35.165,-35.165,-82.833,17.192,18.364,25.788,-87.131,35.165,38.291,28.913,38.291,10.159,-0.391,-30.867,-44.542,81.270,35.946,9.768,1.172,-21.490,-0.391
'[14:23:39.750 02/09/2075]',29.695,16.410,-34.774,-30.085,-85.568,19.927,13.675,31.648,-89.866,36.337,37.900,37.900,39.463,7.424,0.391,-24.225,-38.681,84.005,35.556,12.503,2.344,-29.304,0.391
'[14:23:39.754 02/09/2075]',31.258,15.238,-32.821,-29.304,-78.926,17.973,16.410,28.132,-86.740,42.589,39.463,37.118,44.542,8.205,2.344,-22.271,-30.476,85.568,33.602,11.722,-1.172,-22.662,2.344
'[14:23:39.758 02/09/2075]',35.946,12.112,-30.476,-25.006,-76.190,22.662,19.536,25.397,-82.051,49.621,41.026,32.821,48.059,12.503,3.516,-22.271,-23.834,87.912,31.258,17.192,0.391,-23.443,3.516
'[14:23:39.762 02/09/2075]',38.681,5.861,-27.350,-20.317,-74.628,26.569,17.582,26.960,-82.442,53.919,38.291,33.602,46.496,13.675,3.516,-20.708,-17.973,89.084,28.132,21.880,6.642,-27.741,3.516
'[14:23:39.766 02/09/2075]',39.463,4.689,-26.960,-16.801,-67.204,22.662,21.490,22.271,-80.879,58.999,38.291,27.741,48.059,16.410,2.735,-22.662,-14.457,92.210,27.741,18.755,10.159,-20.317,2.735
'[14:23:39.770 02/09/2075]',39.463,2.735,-23.443,-13.675,-62.515,21.880,26.569,16.801,-81.270,64.469,40.244,19.536,48.059,17.192,3.907,-26.178,-8.596,94.945,24.225,20.708,10.940,-16.020,3.907
'[14:23:39.773 02/09/2075]',36.337,-2.735,-19.927,-7.424,-62.515,21.490,24.615,19.927,-84.005,67.595,37.509,18.364,44.542,16.020,3.907,-25.006,-3.516,97.680,20.708,27.350,17.192,-23.053,3.907
'[14:23:39.777 02/09/2075]',28.913,-7.033,-18.755,-1.563,-62.906,16.020,23.053,23.053,-84.396,64.469,35.556,17.582,39.463,14.457,1.954,-22.662,-1.954,96.899,19.536,27.741,21.880,-23.053,1.954
'[14:23:39.781 02/09/2075]',21.880,-9.377,-17.973,0.391,-62.125,8.987,25.788,19.536,-85.958,61.734,35.165,12.503,34.774,12.112,0.391,-22.662,-3.907,93.382,18.755,27.350,21.099,-17.192,0.391
'[14:23:39.785 02/09/2075]',15.629,-14.847,-18.755,4.689,-65.250,3.907,24.225,21.880,-89.866,56.654,35.946,9.768,28.913,9.768,-3.907,-21.880,-10.549,88.303,19.536,33.211,25.006,-20.317,-3.907
'[14:23:39.789 02/09/2075]',6.252,-19.536,-18.364,5.079,-71.111,-2.344,19.927,26.569,-98.071,46.105,33.211,14.066,16.801,7.814,-11.722,-16.410,-18.755,83.223,19.145,33.211,30.085,-21.880,-11.722
'[14:23:39.793 02/09/2075]',-3.516,-19.145,-13.675,-0.781,-78.144,-8.205,21.490,25.006,-107.057,40.635,33.993,14.847,8.987,4.689,-10.159,-20.317,-26.178,79.316,14.457,28.132,32.039,-16.801,-10.159
'[14:23:39.797 02/09/2075]',-10.159,-21.490,-12.894,-2.735,-88.303,-8.987,23.834,23.834,-114.481,38.291,36.337,11.331,5.470,2.344,-11.722,-23.053,-32.430,79.707,13.675,35.556,32.821,-21.880,-11.722
'[14:23:39.801 02/09/2075]',-15.238,-23.834,-11.722,-3.516,-97.680,-9.768,23.443,27.741,-121.123,35.165,37.118,15.629,1.954,0.391,-11.722,-21.490,-37.509,80.098,12.503,42.198,37.509,-31.648,-11.722
'[14:23:39.805 02/09/2075]',-21.490,-20.317,-12.112,-2.344,-100.806,-14.457,28.132,27.741,-124.249,33.602,36.728,18.364,2.735,-2.735,-12.894,-19.927,-42.198,80.879,12.894,39.463,38.291,-29.695,-12.894
'[14:23:39.809 02/09/2075]',-26.569,-16.801,-15.629,-1.954,-105.885,-15.629,33.993,24.615,-124.640,31.648,38.681,16.801,2.735,-1.563,-16.020,-19.927,-47.277,79.316,16.410,39.853,36.337,-28.523,-16.020
'[14:23:39.813 02/09/2075]',-25.788,-17.582,-14.847,0.000,-109.011,-13.675,32.039,30.085,-123.077,27.741,37.118,24.615,1.563,-1.954,-15.629,-14.457,-49.231,76.190,15.629,44.933,35.946,-36.728,-15.629
'[14:23:39.816 02/09/2075]',-23.443,-17.582,-13.284,1.172,-105.495,-15.238,31.258,33.993,-119.951,22.662,35.165,33.211,0.000,-1.954,-14.847,-7.424,-47.668,71.502,14.066,44.151,32.821,-37.900,-14.847
'[14:23:39.820 02/09/2075]',-21.880,-13.284,-13.675,0.391,-100.024,-17.582,35.946,30.867,-111.746,20.708,40.244,32.821,3.516,-3.516,-10.159,-4.298,-46.105,69.548,14.457,41.416,25.397,-34.383,-10.159
'[14:23:39.824 02/09/2075]',-14.847,-13.675,-12.503,3.907,-94.554,-13.284,36.728,32.430,-103.150,20.708,42.979,33.211,4.689,-1.563,-4.298,-1.954,-44.151,67.985,13.284,44.151,21.880,-37.118,-4.298
'[14:23:39.828 02/09/2075]',-11.331,-12.503,-7.814,7.814,-87.912,-9.377,35.165,35.165,-96.117,19.145,42.589,38.291,3.907,-1.563,0.000,3.516,-40.244,67.204,8.596,43.370,23.053,-40.244,0.000
'[14:23:39.832 02/09/2075]',-12.503,-7.424,-5.861,10.940,-78.535,-10.159,39.072,32.039,-86.349,19.536,44.151,37.118,5.470,0.000,2.344,7.033,-35.165,64.860,6.642,36.728,23.053,-34.383,2.344
'[14:23:39.836 02/09/2075]',-7.424,-7.424,-3.126,12.894,-67.595,-8.205,41.416,26.960,-76.190,20.708,45.324,32.039,9.768,1.172,5.861,6.252,-28.132,62.125,3.907,35.556,23.053,-32.039,5.861
'[14:23:39.840 02/09/2075]',-5.470,-9.768,1.954,15.629,-60.952,-6.642,39.463,28.132,-70.330,19.145,43.370,33.993,7.814,2.344,7.424,9.377,-21.880,59.780,-1.172,38.681,23.053,-35.556,7.424
'[14:23:39.844 02/09/2075]',-6.252,-10.159,0.000,22.271,-56.264,-6.252,37.900,28.523,-64.469,20.317,44.151,34.774,7.424,5.079,10.549,11.722,-16.410,58.608,0.781,34.774,21.099,-30.867,10.549
'[14:23:39.848 02/09/2075]',-0.781,-12.503,-1.563,25.397,-49.231,-5.861,41.807,21.880,-59.389,23.443,48.840,26.569,8.987,6.252,14.066,9.768,-9.768,59.780,2.344,35.946,13.284,-26.178,14.066
'[14:23:39.852 02/09/2075]',3.516,-14.847,-0.781,30.476,-43.761,-3.126,45.324,19.145,-56.654,27.350,52.747,22.662,9.768,7.814,18.755,8.987,-4.298,61.734,1.563,38.681,5.470,-22.662,18.755
'[14:23:39.855 02/09/2075]',3.516,-17.973,0.000,36.728,-47.668,0.391,43.370,24.225,-54.701,29.304,50.012,27.741,7.033,8.987,23.834,11.722,0.781,64.860,0.781,41.026,2.344,-22.662,23.834
'[14:23:39.859 02/09/2075]',4.689,-16.410,6.642,33.211,-46.496,0.781,48.840,23.443,-53.138,33.211,48.449,26.569,5.861,8.596,26.960,12.894,5.470,67.595,-5.861,38.681,-4.298,-15.238,26.960
'[14:23:39.863 02/09/2075]',5.861,-18.364,14.066,30.867,-50.012,4.689,51.575,26.178,-51.184,35.946,48.059,27.741,8.205,8.987,31.258,11.722,8.205,68.767,-13.284,45.714,-8.596,-17.973,31.258
'[14:23:39.867 02/09/2075]',2.735,-23.443,19.927,32.821,-58.217,5.079,48.449,35.165,-53.529,37.509,45.324,34.774,7.424,8.205,34.383,13.284,9.768,69.548,-19.145,51.966,-6.642,-23.443,34.383
'[14:23:39.871 02/09/2075]',-1.563,-21.880,20.708,33.602,-60.171,2.344,51.966,36.337,-55.482,39.463,46.105,34.383,8.596,6.252,37.118,11.722,10.549,68.767,-19.927,46.886,-5.079,-16.020,37.118
'[14:23:39.875 02/09/2075]',-4.298,-20.708,20.708,33.993,-63.687,2.344,53.919,34.774,-55.482,42.198,48.059,31.648,10.549,8.205,39.463,7.033,10.940,65.641,-19.927,46.105,-3.516,-11.722,39.463
'[14:23:39.879 02/09/2075]',-5.470,-23.443,21.490,35.946,-69.548,5.470,48.840,41.416,-57.827,43.761,44.151,37.118,7.424,9.377,40.244,8.987,10.940,60.562,-20.708,50.794,1.172,-17.973,40.244
'[14:23:39.883 02/09/2075]',-7.424,-24.225,21.880,34.774,-69.548,2.735,46.105,44.542,-59.780,43.761,39.853,41.416,3.907,9.377,40.635,10.549,10.549,56.654,-21.099,48.059,4.298,-17.192,40.635
'[14:23:39.887 02/09/2075]',-7.033,-20.708,21.880,32.430,-65.641,2.344,46.496,41.416,-57.827,44.933,39.463,37.509,3.907,9.377,40.635,8.987,11.331,51.184,-21.099,45.714,2.344,-13.284,40.635
'[14:23:39.891 02/09/2075]',-7.814,-19.536,25.397,32.430,-66.032,7.033,43.370,43.761,-56.654,46.886,36.337,37.509,1.172,12.503,40.635,9.377,14.457,44.933,-24.615,48.449,5.470,-17.973,40.635
'[14:23:39.895 02/09/2075]',-11.722,-17.973,28.523,34.774,-66.422,12.894,38.681,46.496,-54.310,46.886,33.602,38.681,-0.781,15.238,44.151,5.861,18.364,40.635,-27.741,47.277,11.722,-18.364,44.151
'[14:23:39.898 02/09/2075]',-14.457,-8.987,30.476,35.165,-57.827,16.410,39.072,42.589,-48.059,46.496,33.602,35.165,1.172,16.020,43.370,6.252,22.662,36.337,-29.695,39.463,11.331,-10.549,43.370
'[14:23:39.902 02/09/2075]',-11.331,-4.298,34.774,33.211,-46.496,20.708,39.072,37.118,-42.589,47.277,33.993,32.821,1.563,18.755,44.542,6.252,28.132,30.867,-33.993,37.900,12.112,-10.549,44.542
'[14:23:39.906 02/09/2075]',-8.596,-2.735,36.728,32.430,-37.900,23.053,32.821,38.291,-40.244,46.105,30.867,37.900,-0.781,20.708,46.105,8.596,32.039,27.350,-35.946,36.337,14.066,-15.238,46.105
'[14:23:39.910 02/09/2075]',-7.814,0.000,31.648,32.821,-28.523,19.927,29.304,34.383,-38.681,42.979,27.741,39.853,-3.907,21.490,44.933,9.377,31.648,24.615,-30.867,28.913,12.503,-11.722,44.933
'[14:23:39.914 02/09/2075]',-1.954,3.126,30.476,28.913,-17.582,19.927,30.476,26.960,-35.946,45.324,30.867,34.774,-3.126,23.834,47.668,5.470,35.556,22.271,-29.695,26.569,6.642,-9.768,47.668
'[14:23:39.918 02/09/2075]',2.344,1.954,28.523,27.350,-14.066,20.708,29.304,24.225,-34.774,45.324,32.039,33.211,-1.563,25.788,50.403,0.781,39.072,21.490,-27.741,27.741,5.861,-13.284,50.403
'[14:23:39.922 02/09/2075]',4.689,2.735,25.788,26.178,-9.768,20.317,25.397,23.053,-32.039,43.761,28.523,36.337,0.781,25.006,49.621,0.391,40.244,19.536,-25.006,22.662,4.689,-10.159,49.621
'[14:23:39.926 02/09/2075]',7.424,7.424,31.648,12.503,-4.298,17.973,27.741,17.582,-26.960,42.198,28.132,35.165,7.814,24.225,47.277,-1.563,40.635,17.192,-30.867,16.020,1.954,-5.861,47.277
'[14:23:39.930 02/09/2075]',11.722,3.907,32.430,4.689,-5.079,17.973,21.880,17.973,-24.615,39.853,25.788,34.774,11.331,22.662,45.324,-4.298,36.337,11.722,-31.648,18.364,1.563,-13.284,45.324
'[14:23:39.934 02/09/2075]',12.112,-0.391,29.695,0.000,-5.470,12.112,10.549,23.053,-23.053,33.993,16.801,40.244,12.112,18.755,40.635,-2.735,29.695,4.689,-28.913,18.755,1.563,-19.536,40.635
'[14:23:39.938 02/09/2075]',12.503,-0.781,23.443,-7.424,-3.516,1.954,7.424,19.927,-20.317,29.695,11.722,37.509,14.457,14.066,35.946,-6.252,21.490,-0.781,-22.662,15.238,-5.079,-14.066,35.946
'[14:23:39.941 02/09/2075]',14.066,-1.954,17.582,-10.940,-3.907,-3.516,5.861,19.536,-17.582,26.960,7.814,32.821,15.629,11.331,32.430,-9.768,12.112,-5.079,-16.801,14.847,-7.814,-13.675,32.430
'[14:23:39.945 02/09/2075]',13.284,-6.642,14.457,-12.894,-10.159,-7.814,0.781,25.006,-16.801,21.099,-1.172,37.509,12.503,8.205,26.960,-7.814,3.126,-9.377,-13.675,17.973,-6.642,-19.145,26.960
'[14:23:39.949 02/09/2075]',10.549,-5.079,12.894,-14.457,-12.894,-13.675,2.344,27.741,-16.801,15.629,-8.205,40.635,11.722,1.563,20.317,-3.907,-4.298,-10.159,-12.112,14.847,-7.424,-17.582,20.317
'[14:23:39.953 02/09/2075]',6.252,-1.172,12.112,-16.410,-14.847,-19.145,7.814,26.569,-15.629,12.112,-10.549,37.900,13.284,-3.126,14.847,-0.781,-12.894,-10.549,-11.331,11.722,-7.424,-14.066,14.847
'[14:23:39.957 02/09/2075]',1.172,-1.954,11.722,-16.020,-23.053,-17.582,4.689,29.304,-14.066,7.424,-16.801,40.244,8.987,-5.861,11.331,1.563,-16.801,-14.847,-10.940,14.457,-4.689,-19.145,11.331
'[14:23:39.961 02/09/2075]',-3.126,-1.954,8.987,-12.112,-26.960,-15.629,0.391,32.821,-13.284,1.954,-24.615,43.370,4.689,-11.722,7.033,6.642,-17.582,-18.755,-8.205,13.284,-2.735,-19.536,7.033
'[14:23:39.965 02/09/2075]',-5.861,0.781,7.424,-11.331,-25.006,-13.675,1.954,25.788,-10.159,0.000,-26.178,38.681,1.954,-13.284,1.954,10.159,-16.410,-22.271,-6.642,9.768,-4.298,-12.112,1.954
'[14:23:39.969 02/09/2075]',-6.642,1.563,10.159,-10.940,-21.490,-7.814,2.344,20.317,-8.205,-1.563,-25.397,32.821,-0.391,-13.675,0.781,8.987,-11.722,-25.397,-9.377,10.940,1.563,-13.675,0.781
'[14:23:39.973 02/09/2075]',-9.768,2.344,12.894,-6.252,-22.662,-0.391,0.391,21.880,-11.722,-3.126,-25.397,33.993,-5.861,-14.847,-1.563,15.238,-6.252,-23.834,-12.112,10.940,5.861,-16.020,-1.563
'[14:23:39.977 02/09/2075]',-16.020,7.814,12.503,-1.172,-23.053,5.079,1.563,18.755,-13.675,-4.689,-21.490,32.039,-12.503,-12.112,-3.907,19.536,0.391,-23.053,-11.722,7.814,8.596,-12.503,-3.907
'[14:23:39.980 02/09/2075]',-16.410,12.112,13.284,0.391,-16.020,7.424,6.642,10.159,-14.066,-2.344,-15.238,23.834,-9.377,-12.503,-5.470,19.536,5.861,-21.880,-12.503,7.814,8.987,-8.987,-5.470
'[14:23:39.984 02/09/2075]',-15.238,9.377,14.847,6.642,-14.066,12.894,5.470,10.549,-17.582,-1.563,-10.549,22.271,-10.549,-13.675,-5.861,22.662,14.457,-21.099,-14.066,11.722,12.112,-14.847,-5.861
'[14:23:39.988 02/09/2075]',-15.238,7.814,10.549,14.847,-7.424,10.940,4.298,8.987,-19.145,-1.172,-10.940,23.443,-11.331,-14.457,-8.987,27.350,20.317,-21.490,-9.768,8.596,15.238,-11.331,-8.987
'[14:23:39.992 02/09/2075]',-13.675,9.768,17.973,9.377,3.126,7.424,7.814,2.735,-17.582,0.781,-8.596,19.145,-8.596,-15.629,-11.331,30.085,26.178,-23.834,-17.192,4.689,14.457,-6.642,-11.331
'[14:23:39.996 02/09/2075]',-10.549,5.079,21.099,12.112,8.205,7.814,3.907,7.033,-16.410,3.126,-10.159,19.536,-10.549,-14.457,-5.470,27.350,31.258,-26.569,-20.317,7.814,16.410,-14.066,-5.470
'[14:23:40.000 02/09/2075]',-9.768,1.172,21.099,13.675,11.331,3.907,-1.172,10.549,-13.675,0.000,-11.722,23.834,-13.284,-15.629,-4.298,32.039,33.211,-28.913,-20.317,7.424,13.284,-16.020,-4.298
'[14:23:40.004 02/09/2075]',-10.159,2.735,19.536,12.503,19.536,-1.954,-1.563,7.814,-5.861,-1.563,-10.159,21.490,-9.768,-16.020,-1.954,31.648,30.867,-31.648,-18.755,0.391,7.424,-8.205,-1.954
'[14:23:40.008 02/09/2075]',-8.596,1.563,17.192,13.675,21.099,-5.079,-1.954,8.987,0.000,-4.298,-7.033,19.536,-7.424,-14.457,1.563,28.132,25.788,-34.383,-16.410,1.172,3.907,-8.205,1.563
'[14:23:40.012 02/09/2075]',-8.205,-2.735,16.020,17.192,19.536,-8.596,-6.642,17.192,3.126,-7.814,-6.642,25.788,-6.642,-14.066,1.954,33.993,19.536,-35.165,-15.238,3.126,5.470,-10.549,1.954
'[14:23:40.016 02/09/2075]',-13.675,-3.126,14.066,18.755,22.662,-18.755,-7.814,19.145,7.814,-10.549,-7.033,28.523,-2.735,-16.020,-0.781,38.681,12.503,-35.165,-13.284,0.391,4.298,-7.033,-0.781
'[14:23:40.020 02/09/2075]',-12.503,-6.252,12.112,19.536,27.350,-28.913,-5.470,19.536,12.894,-13.284,-5.861,25.397,0.781,-17.973,-0.781,37.118,6.642,-34.383,-11.331,0.781,1.172,-3.516,-0.781
'[14:23:40.023 02/09/2075]',-11.722,-12.112,12.112,21.880,24.615,-31.258,-9.377,25.788,16.410,-16.410,-6.642,25.788,-0.781,-19.536,0.000,39.853,1.563,-33.211,-11.331,5.079,1.172,-9.768,0.000
'[14:23:40.027 02/09/2075]',-12.503,-14.457,10.159,22.662,21.880,-33.602,-12.894,29.304,19.927,-21.880,-11.331,25.788,-5.470,-19.536,-2.344,40.244,-5.470,-30.476,-9.377,1.954,0.391,-8.596,-2.344
'[14:23:40.031 02/09/2075]',-11.722,-12.894,5.861,22.662,23.834,-35.556,-8.205,24.615,27.741,-24.225,-10.159,16.801,-4.298,-18.755,-1.563,35.165,-11.722,-27.741,-5.079,-2.735,-2.344,0.000,-1.563
'[14:23:40.035 02/09/2075]',-8.987,-11.722,7.424,24.225,24.225,-31.648,-5.079,22.662,33.602,-22.662,-8.596,10.940,-5.079,-15.629,-0.391,34.774,-12.894,-25.788,-6.642,-3.126,-1.563,0.391,-0.391
'[14:23:40.039 02/09/2075]',-12.503,-8.987,11.722,23.443,21.490,-27.741,-3.907,22.662,35.946,-21.099,-12.112,10.940,-7.424,-12.894,-1.954,36.728,-10.159,-22.662,-10.940,-7.814,1.563,2.735,-1.954
'[14:23:40.043 02/09/2075]',-16.410,-3.516,10.159,25.397,21.490,-24.225,0.391,17.192,37.118,-17.582,-11.722,7.424,-6.642,-11.331,-1.172,34.383,-5.470,-17.582,-9.377,-14.457,2.344,10.549,-1.172
'[14:23:40.047 02/09/2075]',-15.238,-0.781,10.940,28.523,20.317,-15.238,3.907,13.284,36.728,-11.722,-8.987,2.735,-4.298,-8.596,0.781,31.648,1.563,-14.457,-10.159,-11.722,4.689,8.987,0.781
'[14:23:40.051 02/09/2075]',-12.503,-0.781,14.457,28.132,17.973,-6.252,2.344,14.457,31.648,-8.987,-8.205,3.907,-5.079,-8.205,0.391,31.258,6.252,-10.549,-13.675,-6.642,6.642,3.907,0.391
'[14:23:40.055 02/09/2075]',-14.847,2.735,8.596,32.039,17.582,-6.252,4.298,12.503,26.569,-8.987,-6.642,2.344,-5.470,-7.033,-0.781,26.569,5.470,-6.252,-7.814,-9.768,8.987,10.549,-0.781
'[14:23:40.059 02/09/2075]',-14.847,5.861,4.298,32.821,16.801,-7.814,8.987,8.987,19.536,-7.814,-1.954,-1.172,-5.079,-4.689,-2.735,21.490,1.172,-3.126,-3.516,-10.159,10.159,16.020,-2.735
'[14:23:40.063 02/09/2075]',-11.722,5.470,10.159,25.397,14.457,-5.861,5.861,13.675,10.159,-9.768,0.391,2.344,-10.159,-3.907,-3.907,21.880,-2.344,-2.735,-9.377,-4.689,11.722,10.159,-3.907
'[14:23:40.066 02/09/2075]',-12.503,3.907,6.252,24.225,13.675,-12.112,2.344,16.410,-0.391,-13.675,0.000,9.377,-14.457,-4.689,-5.470,19.927,-5.470,-3.907,-5.470,-3.907,15.629,7.424,-5.470
'[14:23:40.070 02/09/2075]',-15.238,5.079,1.563,18.755,12.894,-16.801,1.954,12.112,-7.814,-17.192,2.344,9.377,-13.675,-5.861,-6.252,13.675,-9.377,-7.424,-0.781,-4.689,15.629,8.205,-6.252
'[14:23:40.074 02/09/2075]',-10.549,3.516,1.172,14.066,9.377,-13.284,-0.781,12.503,-12.112,-21.880,3.126,12.112,-13.675,-5.470,-8.205,9.768,-12.503,-10.940,-0.391,0.000,16.410,2.344,-8.205
'[14:23:40.078 02/09/2075]',-9.768,0.391,-0.781,11.722,5.861,-15.238,-4.689,16.410,-16.410,-28.523,0.391,17.582,-14.066,-7.424,-13.284,8.987,-18.364,-12.503,1.563,1.954,19.927,-3.907,-13.284
'[14:23:40.082 02/09/2075]',-9.377,0.781,-4.689,9.768,5.079,-21.880,-2.344,14.457,-18.755,-32.430,1.172,16.801,-11.722,-10.549,-16.801,7.814,-27.350,-9.768,5.470,-0.391,17.582,-2.344,-16.801
'[14:23:40.086 02/09/2075]',-4.298,0.781,-6.252,8.205,7.424,-25.397,0.391,14.457,-18.364,-31.258,5.861,15.238,-6.642,-13.284,-15.629,8.205,-32.821,-3.907,7.033,-0.391,12.112,-1.172,-15.629
'[14:23:40.090 02/09/2075]',-2.344,-2.344,-5.861,8.987,4.689,-25.397,-1.172,19.145,-18.755,-25.397,5.079,18.755,-4.689,-12.112,-16.410,14.066,-33.211,-1.172,6.642,3.516,11.722,-7.033,-16.410
'[14:23:40.094 02/09/2075]',-5.079,-3.516,-8.205,10.549,2.735,-25.788,-3.516,19.145,-17.582,-19.145,2.344,18.364,-4.689,-10.940,-11.331,11.331,-28.132,-2.735,8.987,1.954,9.377,-5.079,-11.331
'[14:23:40.098 02/09/2075]',-4.689,-3.516,-9.377,9.377,3.516,-21.880,-2.344,12.112,-10.549,-11.722,2.735,8.596,0.781,-9.377,-8.987,6.252,-18.364,-7.033,10.159,0.391,5.470,-0.391,-8.987
'[14:23:40.102 02/09/2075]',-0.781,-5.079,-6.642,8.987,6.642,-16.020,-1.563,6.252,-3.907,-6.642,1.563,0.391,1.954,-5.470,-8.596,3.126,-9.377,-9.377,7.424,1.563,3.516,1.172,-8.596
'[14:23:40.105 02/09/2075]',-1.954,-7.033,-4.689,7.814,5.470,-11.331,-8.205,6.252,0.391,-5.861,-3.516,0.781,0.391,-4.689,-7.814,2.735,-1.954,-9.768,5.470,-0.391,5.470,-0.781,-7.814
'[14:23:40.109 02/09/2075]',-0.391,-4.298,-10.159,7.033,8.596,-8.987,-9.377,0.000,3.126,-4.298,-3.907,-1.954,3.907,-5.861,-6.252,1.563,1.563,-7.033,10.940,-6.642,0.391,4.689,-6.252
'[14:23:40.113 02/09/2075]',2.735,-5.861,-12.112,6.252,8.987,-5.079,-11.331,-2.344,3.516,-1.954,-0.391,-4.298,5.470,-3.516,-4.689,0.391,2.735,-3.126,12.894,-1.563,0.391,1.172,-4.689
'[14:23:40.117 02/09/2075]',4.689,-10.549,-14.847,4.689,3.126,-2.344,-19.536,1.563,1.954,-1.954,-1.954,0.781,7.033,-4.298,-4.298,0.391,3.126,-1.172,15.629,2.735,3.126,-5.470,-4.298
'[14:23:40.121 02/09/2075]',5.861,-10.159,-22.662,3.126,2.735,-5.470,-19.145,-1.172,0.391,-3.126,-0.781,-1.954,10.549,-3.907,-5.470,-6.252,2.344,-1.954,23.443,0.781,3.907,0.391,-5.470
'[14:23:40.125 02/09/2075]',8.205,-10.940,-20.708,-4.689,-1.563,-4.689,-16.410,-5.470,-2.735,-3.516,1.954,-5.470,11.331,-0.781,-7.424,-13.675,-0.391,-2.344,21.490,2.344,4.298,5.861,-7.424
'[14:23:40.129 02/09/2075]',6.642,-11.331,-13.675,-10.940,-12.503,0.000,-18.364,0.391,-8.987,-5.470,1.563,0.391,8.987,0.391,-8.987,-13.284,-2.735,-1.954,14.457,7.424,7.424,0.391,-8.987
'[14:23:40.133 02/09/2075]',4.298,-10.549,-12.503,-12.894,-18.755,0.391,-18.364,3.126,-15.629,-7.814,1.563,5.470,7.033,-0.781,-10.940,-10.549,-3.126,-1.563,13.284,6.642,7.033,0.391,-10.940
'[14:23:40.137 02/09/2075]',3.516,-5.470,-12.503,-15.629,-21.490,1.563,-12.894,1.954,-22.271,-9.377,7.033,5.470,4.689,-2.344,-10.159,-9.768,-4.298,0.391,13.284,2.735,2.344,2.735,-10.159
'[14:23:40.141 02/09/2075]',4.298,-1.954,-10.159,-16.801,-26.178,7.033,-13.284,5.079,-27.350,-10.940,7.424,7.424,0.391,-3.907,-8.987,-8.987,-4.689,0.391,10.940,4.689,1.563,-5.861,-8.987
'[14:23:40.145 02/09/2075]',5.470,0.391,-10.940,-17.192,-30.867,12.112,-14.847,9.377,-30.867,-15.238,5.079,13.675,-3.907,-6.252,-7.814,-7.814,-4.689,-0.391,11.722,2.735,1.563,-12.894,-7.814
'[14:23:40.148 02/09/2075]',8.205,5.470,-14.847,-16.020,-27.350,11.722,-9.377,7.033,-31.648,-19.145,9.377,13.675,-3.516,-8.205,-5.470,-8.205,-4.689,0.391,15.629,-1.172,-2.735,-9.377,-5.470
'[14:23:40.152 02/09/2075]',11.331,8.596,-12.503,-18.364,-23.834,12.112,-4.689,5.079,-31.258,-21.490,12.894,15.629,-1.954,-11.331,-1.954,-7.814,-5.861,2.344,13.284,-0.781,-8.205,-10.159,-1.954
'[14:23:40.156 02/09/2075]',9.768,8.205,-9.768,-16.801,-25.788,12.503,-5.861,9.768,-31.648,-23.834,14.066,21.880,-2.344,-12.894,-0.391,-1.954,-5.470,5.079,10.549,0.781,-10.549,-16.020,-0.391
'[14:23:40.160 02/09/2075]',9.768,8.596,-12.112,-14.066,-23.053,7.814,-5.470,12.503,-28.913,-23.834,13.675,23.443,-2.735,-13.284,-0.391,1.954,-6.252,8.205,12.894,-1.954,-16.020,-13.284,-0.391
'[14:23:40.164 02/09/2075]',12.503,12.503,-13.675,-14.457,-18.364,7.424,-1.172,8.596,-25.788,-18.364,15.238,16.410,0.000,-12.112,0.000,0.391,-6.252,9.377,14.457,-2.735,-19.536,-14.066,0.000
'[14:23:40.168 02/09/2075]',16.801,12.112,-12.894,-15.238,-16.801,10.159,-3.126,9.768,-24.225,-12.112,14.457,13.675,0.391,-9.768,1.563,-0.391,-1.954,10.549,13.675,-1.172,-19.145,-20.317,1.563
'[14:23:40.172 02/09/2075]',20.708,12.894,-15.238,-15.238,-15.238,12.112,-5.079,10.159,-21.099,-9.377,11.722,15.629,2.735,-8.987,3.907,-0.781,-0.781,12.112,16.020,-3.126,-21.880,-18.364,3.907
'[14:23:40.176 02/09/2075]',24.615,14.847,-19.927,-15.629,-10.549,11.331,-3.126,4.689,-17.973,-8.205,12.503,13.284,7.424,-8.205,4.689,-3.516,0.391,13.675,20.708,-6.642,-25.788,-10.549,4.689
'[14:23:40.180 02/09/2075]',28.132,11.722,-13.284,-23.834,-8.987,13.284,-5.470,3.907,-15.629,-8.205,12.112,13.675,10.159,-8.596,5.470,-4.298,-0.781,14.847,14.066,-1.172,-27.350,-14.457,5.470
'[14:23:40.184 02/09/2075]',30.867,6.252,-8.987,-25.788,-4.298,10.940,-10.159,5.079,-12.503,-12.503,10.549,16.410,12.894,-10.940,2.735,-3.516,-3.907,15.629,9.768,1.954,-25.788,-18.364,2.735
'[14:23:40.188 02/09/2075]',26.960,5.470,-10.159,-26.178,-3.126,5.079,-7.814,1.954,-10.549,-15.629,10.159,14.457,15.629,-11.331,-0.391,-3.907,-7.814,16.801,10.940,-1.172,-24.225,-13.284,-0.391
'[14:23:40.191 02/09/2075]',26.178,4.298,-9.768,-29.304,-3.907,4.689,-6.252,-2.344,-8.205,-16.801,10.549,9.768,17.192,-10.549,-2.344,-8.205,-10.159,15.629,10.549,-3.126,-21.099,-12.503,-2.344
'[14:23:40.195 02/09/2075]',28.132,0.781,-9.377,-26.960,-5.861,7.424,-10.159,0.391,-10.549,-18.755,10.549,12.894,15.629,-10.159,0.781,-11.722,-12.894,15.238,10.159,-0.391,-17.582,-16.801,0.781
'[14:23:40.199 02/09/2075]',27.350,-1.172,-15.238,-23.443,-5.079,2.735,-10.940,0.000,-13.675,-23.053,8.205,18.364,15.238,-14.457,0.391,-9.768,-14.847,13.675,16.020,-2.344,-19.145,-12.112,0.391
'[14:23:40.203 02/09/2075]',27.741,-1.954,-18.364,-25.788,-3.516,-0.391,-8.205,-5.470,-17.582,-26.178,9.377,16.801,12.894,-16.020,0.391,-12.112,-17.582,9.377,19.145,-1.954,-23.443,-6.642,0.391
'[14:23:40.207 02/09/2075]',30.476,-5.861,-16.020,-28.523,-3.907,-0.781,-12.503,-2.735,-20.708,-32.039,5.470,23.053,8.987,-18.755,-0.391,-12.112,-21.880,5.861,16.801,3.907,-22.662,-13.284,-0.391
'[14:23:40.211 02/09/2075]',25.006,-10.159,-15.238,-29.304,-11.331,-3.907,-15.238,0.391,-25.397,-38.681,0.000,29.304,3.516,-23.053,-5.470,-8.596,-27.350,2.344,16.020,4.689,-20.317,-16.410,-5.470
'[14:23:40.215 02/09/2075]',19.145,-9.768,-17.973,-28.913,-17.192,-6.642,-11.331,-1.954,-27.741,-41.807,-2.344,25.397,1.172,-25.788,-9.377,-10.940,-33.211,1.563,18.755,2.344,-19.536,-14.066,-9.377
'[14:23:40.219 02/09/2075]',19.145,-9.377,-15.629,-29.695,-19.145,-6.252,-8.596,-1.172,-28.523,-40.635,-2.735,20.317,0.391,-26.569,-10.549,-14.847,-35.556,1.954,16.410,3.516,-14.847,-16.801,-10.549
'[14:23:40.223 02/09/2075]',17.582,-8.596,-13.284,-25.006,-23.053,-3.907,-7.814,4.298,-30.867,-38.291,-4.689,19.927,-1.954,-26.960,-11.331,-12.112,-34.774,3.126,14.066,3.907,-11.331,-19.145,-11.331
'[14:23:40.227 02/09/2075]',13.675,-1.954,-13.284,-19.927,-23.053,-1.954,-4.689,8.205,-31.258,-33.602,-6.642,18.364,-7.424,-23.834,-9.377,-10.549,-32.430,3.907,14.066,0.391,-7.424,-14.457,-9.377
'[14:23:40.230 02/09/2075]',16.020,5.079,-4.298,-23.834,-15.238,0.000,2.344,4.689,-25.788,-25.006,-3.907,10.940,-4.689,-21.490,-6.252,-9.377,-27.741,4.689,5.079,-3.516,-8.205,-8.205,-6.252
'[14:23:40.234 02/09/2075]',17.192,6.642,2.735,-20.708,-13.675,8.205,2.735,8.205,-20.317,-16.801,-2.735,8.596,-4.689,-18.755,-3.907,-2.735,-20.708,5.861,-1.954,-1.954,-9.377,-9.377,-3.907
'[14:23:40.238 02/09/2075]',14.457,10.940,5.079,-13.284,-9.377,12.112,4.689,9.377,-13.284,-7.033,-3.126,4.298,-2.735,-16.020,-3.126,2.735,-12.894,8.205,-4.298,-9.768,-9.768,-1.172,-3.126
'[14:23:40.242 02/09/2075]',12.894,17.192,5.470,-6.252,-3.516,17.973,9.377,5.861,-2.735,4.298,-0.391,-5.079,5.470,-10.940,-3.126,3.907,-3.516,10.940,-4.689,-17.192,-8.596,8.205,-3.126
'[14:23:40.246 02/09/2075]',14.847,17.192,10.549,-0.781,-4.298,30.085,8.205,8.596,5.079,14.457,0.000,-8.987,10.549,-4.689,-1.954,6.642,5.470,11.331,-9.768,-13.675,-6.642,6.642,-1.954
'[14:23:40.250 02/09/2075]',16.801,17.582,13.284,4.298,0.781,33.211,5.079,12.503,12.894,21.490,-3.907,-8.205,13.284,-0.391,-1.172,10.940,16.020,10.159,-12.503,-14.457,-3.907,6.252,-1.172
'[14:23:40.254 02/09/2075]',19.536,23.053,13.284,3.126,10.940,34.383,5.861,7.033,21.880,28.132,-5.079,-12.503,19.536,3.516,1.563,7.424,22.271,7.814,-12.503,-21.490,-4.689,15.238,1.563
'[14:23:40.258 02/09/2075]',21.099,25.006,15.238,-1.172,14.457,38.681,4.298,2.344,30.085,31.258,-7.814,-17.582,21.099,7.424,5.861,1.172,25.788,2.344,-14.457,-20.708,-6.252,17.192,5.861
'[14:23:40.262 02/09/2075]',23.053,24.225,16.801,-3.516,17.192,41.416,-1.172,2.735,34.774,32.430,-14.066,-16.020,18.755,12.112,6.642,-1.172,30.476,-4.298,-16.020,-21.490,-2.735,14.457,6.642
'[14:23:40.266 02/09/2075]',22.271,26.178,10.159,-2.735,24.615,36.337,-4.298,-1.172,40.635,32.039,-18.755,-18.364,22.271,13.284,5.861,-7.033,31.258,-8.596,-9.377,-26.178,-1.954,21.099,5.861
'[14:23:40.270 02/09/2075]',18.755,25.788,6.252,-4.298,26.960,31.258,-4.298,-7.033,46.105,31.258,-20.708,-23.834,25.006,14.066,5.470,-12.894,32.039,-15.629,-5.470,-25.397,-2.735,25.788,5.470
'[14:23:40.273 02/09/2075]',19.145,18.755,13.284,-9.768,25.006,28.913,-7.814,-3.907,47.668,29.304,-25.788,-22.271,22.271,14.457,3.516,-12.112,32.430,-19.536,-12.503,-17.973,1.563,17.973,3.516
'[14:23:40.277 02/09/2075]',14.847,15.238,10.159,-7.033,20.708,25.397,-12.894,0.391,47.277,26.569,-31.258,-17.582,19.145,11.722,0.391,-6.642,30.867,-20.708,-9.377,-16.410,2.344,16.801,0.391
'[14:23:40.281 02/09/2075]',10.940,14.847,8.987,-9.768,18.755,20.708,-10.940,-3.126,46.886,23.834,-32.430,-19.927,17.582,8.596,-2.735,-4.689,27.741,-23.443,-8.205,-17.192,0.391,20.317,-2.735
'[14:23:40.285 02/09/2075]',10.549,12.112,9.377,-8.596,17.973,19.536,-8.596,-5.079,46.886,18.755,-31.648,-20.708,15.629,5.861,-6.252,-1.954,26.178,-24.225,-8.596,-14.066,0.000,16.410,-6.252
'[14:23:40.289 02/09/2075]',6.642,11.722,5.861,-1.954,16.410,19.927,-11.331,-2.344,44.151,10.159,-33.602,-12.112,10.159,1.954,-9.768,6.252,28.132,-25.788,-5.079,-15.238,-0.781,13.675,-9.768
'[14:23:40.293 02/09/2075]',4.298,13.675,3.907,-0.781,20.708,17.582,-10.159,-6.252,43.370,1.563,-33.602,-8.987,6.642,-1.563,-7.424,3.907,30.867,-31.258,-3.126,-21.490,-2.344,17.192,-7.424
'[14:23:40.297 02/09/2075]',4.298,14.066,6.252,-0.391,25.006,17.973,-6.252,-11.331,44.151,-6.642,-28.132,-8.596,4.298,-4.298,-3.126,3.126,37.900,-37.900,-5.470,-17.973,-3.907,11.722,-3.126
'[14:23:40.301 02/09/2075]',3.516,10.159,6.642,1.172,24.615,17.582,-9.768,-8.987,42.979,-15.238,-27.741,-2.735,0.000,-7.424,-0.391,3.907,43.761,-44.933,-5.861,-12.112,-1.172,2.735,-0.391
'[14:23:40.305 02/09/2075]',-0.781,10.159,10.940,-8.596,24.225,10.940,-9.377,-13.675,41.807,-21.490,-29.695,-0.781,-1.172,-10.940,0.000,1.563,45.714,-51.966,-10.159,-15.238,-0.781,5.079,0.000
'[14:23:40.309 02/09/2075]',-6.642,12.503,8.596,-12.894,21.490,5.470,-4.298,-20.317,42.198,-23.834,-28.132,-5.861,-1.563,-11.331,-1.172,-0.781,44.542,-56.654,-7.814,-16.801,-0.391,10.549,-1.172
'[14:23:40.313 02/09/2075]',-6.642,10.549,9.377,-14.457,17.973,5.861,-5.861,-18.755,39.463,-21.880,-30.085,-6.642,-4.689,-8.596,-3.516,-1.954,42.979,-55.482,-8.596,-10.549,0.781,7.814,-3.516
'[14:23:40.316 02/09/2075]',-9.377,12.503,10.940,-13.675,15.629,7.033,-4.689,-16.801,34.774,-17.973,-29.304,-8.596,-4.689,-7.424,-5.079,-1.954,41.807,-48.840,-10.159,-10.940,5.079,9.377,-5.079
'[14:23:40.320 02/09/2075]',-8.987,19.927,9.768,-11.331,17.973,10.159,3.126,-22.662,32.039,-8.596,-21.490,-17.973,-2.735,-2.344,-4.298,-6.642,43.761,-37.118,-8.987,-15.238,4.689,18.364,-4.298
'[14:23:40.324 02/09/2075]',-4.298,26.569,11.331,-8.205,17.582,22.271,8.987,-23.834,28.523,0.781,-9.768,-25.788,1.954,3.126,-0.781,-11.331,45.714,-22.662,-10.549,-16.801,7.814,19.145,-0.781
'[14:23:40.328 02/09/2075]',-2.735,30.867,16.020,-3.516,13.675,35.556,11.722,-20.317,24.225,9.768,-1.954,-24.225,5.470,9.377,1.954,-9.377,48.840,-7.033,-15.238,-19.927,12.503,16.801,1.954
'[14:23:40.332 02/09/2075]',-0.781,37.118,18.364,-1.172,16.020,43.370,16.801,-23.443,21.880,18.364,7.424,-25.397,11.331,12.503,5.470,-7.424,52.747,7.424,-17.582,-28.913,11.331,23.834,5.470
'[14:23:40.336 02/09/2075]',6.252,42.589,21.099,2.344,22.271,53.529,21.880,-24.225,22.271,26.569,17.582,-26.569,17.973,16.020,10.159,-3.516,57.045,19.536,-20.317,-34.383,7.424,27.741,10.159
'[14:23:40.340 02/09/2075]',11.331,42.589,26.569,8.987,26.569,63.297,19.927,-18.755,27.350,32.821,20.317,-24.225,21.099,20.317,12.894,0.781,64.860,25.006,-25.788,-33.993,9.768,23.834,12.894
'[14:23:40.344 02/09/2075]',12.503,44.542,26.960,15.629,32.430,66.813,20.317,-17.582,33.211,37.509,19.536,-23.834,22.662,24.225,13.675,3.907,74.237,24.225,-26.178,-38.291,7.814,30.085,13.675
'[14:23:40.348 02/09/2075]',18.364,48.449,27.350,21.099,44.542,69.158,25.397,-22.271,43.761,42.198,23.443,-32.821,28.913,28.523,16.410,1.563,85.958,19.536,-26.569,-41.026,5.861,37.118,16.410
'[14:23:40.352 02/09/2075]',21.490,48.449,28.913,27.741,53.529,67.595,28.913,-21.099,53.138,45.324,26.960,-38.681,34.774,33.602,19.145,-1.563,97.680,9.377,-28.132,-39.463,6.642,41.416,19.145
'[14:23:40.355 02/09/2075]',17.973,46.105,28.523,34.774,53.138,65.250,25.788,-14.847,55.092,45.324,23.834,-33.211,33.211,35.946,20.317,0.781,106.667,0.391,-27.741,-38.681,10.549,40.635,20.317
'[14:23:40.359 02/09/2075]',16.410,50.403,35.556,30.867,57.436,61.343,28.913,-12.503,56.654,44.151,25.006,-29.695,33.602,37.118,21.490,2.344,111.746,-6.642,-34.774,-44.933,11.722,46.886,21.490
'[14:23:40.363 02/09/2075]',18.364,49.621,41.026,30.085,60.562,59.780,28.913,-8.596,56.654,42.198,26.178,-26.178,33.993,36.728,22.662,4.298,112.137,-14.847,-40.244,-40.244,11.331,42.979,22.662
'[14:23:40.367 02/09/2075]',18.755,48.449,44.542,27.741,62.125,59.780,23.834,-5.079,55.482,39.072,22.662,-19.536,30.085,35.165,22.662,7.814,110.965,-21.099,-43.761,-36.728,12.112,36.337,22.662
'[14:23:40.371 02/09/2075]',17.582,51.966,42.979,25.397,67.204,57.045,23.053,-7.814,53.919,34.774,20.708,-19.927,26.960,32.821,21.880,6.642,104.322,-21.490,-42.198,-42.979,9.377,41.807,21.880
'[14:23:40.375 02/09/2075]',17.582,53.138,37.118,23.053,68.767,56.264,21.490,-14.066,54.310,31.258,21.490,-24.615,26.569,30.476,21.099,2.735,97.680,-24.615,-36.337,-44.151,5.861,44.542,21.099
'[14:23:40.379 02/09/2075]',14.847,46.886,33.993,19.536,62.125,53.919,13.675,-12.112,51.575,27.350,16.410,-22.271,21.099,27.741,19.145,3.516,90.647,-28.132,-33.211,-39.072,7.424,35.556,19.145
'[14:23:40.383 02/09/2075]',11.722,42.198,32.430,17.192,56.654,47.668,8.987,-8.987,46.105,23.053,13.675,-17.973,16.801,21.880,18.364,6.252,82.051,-27.350,-31.648,-39.072,7.424,32.821,18.364
'[14:23:40.387 02/09/2075]',9.768,39.072,28.913,14.457,56.654,37.900,10.940,-11.331,42.979,21.099,14.066,-17.192,17.192,18.364,15.238,8.596,75.018,-26.178,-28.132,-39.072,5.470,35.556,15.238
'[14:23:40.391 02/09/2075]',12.112,33.993,30.476,12.503,55.873,32.430,10.940,-8.205,41.026,21.099,13.284,-16.020,14.847,18.364,17.582,7.033,68.767,-28.132,-29.695,-30.867,5.861,28.132,17.582
'[14:23:40.395 02/09/2075]',11.331,30.867,30.867,13.284,50.403,28.523,11.331,-2.735,35.946,19.927,10.549,-10.549,11.722,17.973,19.145,5.079,61.734,-25.788,-30.085,-26.178,9.377,23.834,19.145
'[14:23:40.398 02/09/2075]',8.987,30.085,26.569,13.284,47.277,19.927,16.410,-3.126,30.867,16.801,12.112,-7.814,11.722,16.801,16.801,3.907,52.747,-21.490,-25.788,-24.615,7.814,27.350,16.801
'[14:23:40.402 02/09/2075]',10.549,27.741,25.397,8.987,43.761,14.066,21.880,-5.079,23.834,13.284,16.020,-7.814,12.112,14.457,16.801,0.781,40.244,-17.973,-24.615,-17.973,6.252,24.225,16.801
'[14:23:40.406 02/09/2075]',8.596,23.443,24.615,7.814,33.602,8.596,21.099,2.344,16.020,8.205,16.801,-1.172,8.596,12.112,14.847,2.344,26.569,-12.112,-23.834,-11.722,7.814,15.629,14.847
'[14:23:40.410 02/09/2075]',5.079,22.662,21.490,6.642,24.615,2.344,23.053,6.252,9.377,1.563,18.364,5.861,4.689,12.503,12.894,5.079,10.940,-2.735,-20.708,-12.503,5.861,15.629,12.894
'[14:23:40.414 02/09/2075]',7.033,23.834,20.708,1.172,20.708,-0.391,28.523,5.470,6.642,0.000,25.397,3.907,5.470,15.629,13.284,0.781,-1.563,3.516,-19.927,-10.159,1.172,13.675,13.284
'[14:23:40.418 02/09/2075]',8.596,22.271,23.834,-0.391,15.238,-0.781,30.085,9.768,3.126,-0.391,28.132,6.252,4.298,17.973,16.020,-1.563,-10.159,8.987,-23.053,-5.079,0.391,6.642,16.020
'[14:23:40.422 02/09/2075]',8.205,19.536,22.662,0.391,9.377,-4.298,29.304,17.192,2.344,-5.861,28.913,17.582,3.907,17.973,16.801,2.735,-20.708,16.410,-21.880,-5.079,-0.391,4.298,16.801
'[14:23:40.426 02/09/2075]',8.987,19.145,19.145,-0.391,5.861,-6.642,33.993,15.629,3.516,-8.987,30.476,19.145,5.861,16.410,16.801,3.126,-30.476,22.271,-18.364,-6.642,-7.424,9.768,16.801
'[14:23:40.430 02/09/2075]',12.503,16.020,17.582,1.563,3.907,-8.596,33.211,20.708,5.079,-11.722,29.695,22.271,7.033,14.847,17.973,4.298,-39.463,25.397,-16.801,-1.954,-7.814,3.126,17.973
'[14:23:40.434 02/09/2075]',15.629,11.331,14.066,4.689,3.907,-12.894,28.913,26.960,10.549,-19.536,27.350,28.913,7.424,11.331,17.973,8.596,-46.886,28.523,-13.284,0.391,-7.814,-1.563,17.973
'[14:23:40.438 02/09/2075]',13.675,14.066,8.596,4.298,6.252,-17.582,30.476,22.662,16.801,-23.834,26.178,28.132,9.768,11.331,18.364,6.642,-51.184,29.304,-7.814,-5.079,-12.503,5.861,18.364
'[14:23:40.441 02/09/2075]',14.457,18.364,14.066,-2.735,10.940,-15.238,30.476,18.364,21.490,-22.662,26.960,24.615,9.768,14.457,19.927,4.689,-52.357,27.741,-13.284,-9.377,-15.629,8.596,19.927
'[14:23:40.445 02/09/2075]',17.973,17.192,15.238,-2.735,13.675,-8.987,22.662,21.099,24.225,-24.225,25.397,28.132,7.033,16.020,21.880,6.252,-50.012,25.397,-14.457,-10.159,-16.020,6.252,21.880
'[14:23:40.449 02/09/2075]',20.317,20.317,11.722,-3.516,19.927,-5.079,17.973,16.801,25.788,-23.443,23.053,29.304,6.252,16.410,21.880,8.205,-46.496,26.569,-10.940,-16.020,-19.145,9.377,21.880
'[14:23:40.453 02/09/2075]',26.178,22.271,9.377,-5.861,26.178,1.172,16.020,8.987,26.960,-19.536,24.225,21.880,8.596,14.066,22.662,6.642,-41.026,26.569,-8.596,-21.880,-23.053,13.284,22.662
'[14:23:40.457 02/09/2075]',32.430,19.927,5.079,-4.689,27.350,6.642,9.377,8.987,27.741,-18.755,21.490,18.755,7.424,13.675,22.662,3.516,-35.556,25.788,-4.298,-20.317,-19.927,7.424,22.662
'[14:23:40.461 02/09/2075]',35.556,17.973,1.172,-6.252,28.913,8.596,2.735,8.987,27.741,-19.145,17.582,19.536,6.642,10.549,23.443,3.907,-31.648,25.788,-0.391,-21.880,-19.536,5.079,23.443
'[14:23:40.465 02/09/2075]',33.993,18.364,-1.172,-10.159,29.695,7.424,0.391,3.907,26.569,-17.192,16.410,13.675,7.033,5.861,22.662,1.954,-30.476,23.834,1.954,-23.834,-25.788,8.987,22.662
'[14:23:40.469 02/09/2075]',36.728,16.410,-4.298,-13.284,32.430,5.861,-3.516,1.172,25.006,-14.066,14.847,8.205,7.033,3.907,21.490,-0.391,-28.523,20.708,5.079,-23.834,-28.132,8.205,21.490
'[14:23:40.473 02/09/2075]',37.900,13.284,-7.814,-16.020,32.039,5.079,-13.675,4.298,20.317,-13.675,9.768,10.549,2.735,1.954,19.536,1.172,-28.132,19.145,8.596,-21.490,-30.867,2.735,19.536
'[14:23:40.477 02/09/2075]',37.118,12.112,-13.284,-19.536,30.476,3.907,-21.880,3.126,13.284,-13.675,5.470,12.112,-1.954,-0.781,15.629,3.126,-29.304,17.582,14.066,-24.615,-32.821,1.172,15.629
'[14:23:40.480 02/09/2075]',39.853,11.722,-18.755,-24.225,34.383,2.344,-23.834,-4.298,10.159,-14.066,4.298,6.642,-3.126,-1.954,12.894,0.000,-29.695,12.894,19.536,-25.006,-35.556,1.172,12.894
'[14:23:40.484 02/09/2075]',42.198,5.470,-21.099,-26.569,33.993,1.954,-31.648,-4.689,5.861,-15.629,1.563,7.033,-6.642,-4.298,11.331,-0.391,-30.476,8.596,21.880,-17.973,-35.946,-7.033,11.331
'[14:23:40.488 02/09/2075]',35.946,1.563,-25.006,-28.132,31.258,-1.172,-38.291,-6.252,0.781,-19.536,-3.126,10.159,-10.940,-9.768,7.424,1.954,-29.695,2.735,25.788,-21.099,-36.337,-6.252,7.424
'[14:23:40.492 02/09/2075]',29.695,0.391,-28.132,-30.476,28.132,-4.689,-37.509,-13.284,0.391,-19.927,-5.079,3.516,-10.549,-12.503,7.424,-5.079,-29.304,-2.735,28.913,-21.880,-37.900,-2.735,7.424
'[14:23:40.496 02/09/2075]',26.569,-7.033,-28.913,-29.695,22.662,-6.642,-41.807,-12.112,-0.391,-20.708,-8.596,2.344,-12.894,-14.847,5.470,-5.470,-25.788,-9.768,29.695,-14.066,-35.165,-11.331,5.470
'[14:23:40.500 02/09/2075]',21.490,-12.894,-31.648,-27.741,16.801,-9.377,-47.277,-10.159,-3.516,-23.053,-10.940,5.861,-18.364,-15.238,3.907,-3.126,-21.490,-16.020,32.430,-8.596,-34.383,-14.847,3.907
'[14:23:40.504 02/09/2075]',17.582,-12.112,-34.774,-29.304,17.192,-14.457,-45.324,-15.629,-4.689,-23.834,-10.159,3.516,-18.755,-15.629,1.172,-2.735,-17.582,-21.099,35.556,-10.549,-36.337,-10.549,1.172
'[14:23:40.508 02/09/2075]',15.238,-13.284,-36.337,-28.913,16.801,-16.020,-44.933,-18.364,-6.252,-23.834,-8.596,1.563,-19.536,-15.238,0.391,-2.735,-16.410,-27.350,37.118,-8.205,-35.556,-12.112,0.391
'[14:23:40.512 02/09/2075]',12.894,-16.801,-33.993,-26.569,14.066,-15.629,-49.231,-13.675,-8.987,-23.834,-10.159,6.642,-22.271,-14.066,0.000,0.391,-14.457,-32.821,34.774,-3.126,-31.258,-17.973,0.000
'[14:23:40.516 02/09/2075]',9.377,-14.457,-26.569,-33.993,18.364,-18.755,-49.231,-15.629,-8.205,-24.615,-9.377,5.861,-17.973,-19.145,-1.954,2.344,-11.722,-35.165,27.350,-9.768,-29.695,-15.629,-1.954
'[14:23:40.520 02/09/2075]',8.987,-12.503,-21.490,-33.602,28.523,-20.708,-45.714,-19.927,-5.079,-22.271,-5.861,0.391,-14.066,-21.099,0.000,1.172,-7.424,-37.900,22.271,-11.722,-28.523,-12.112,0.000
'[14:23:40.523 02/09/2075]',9.377,-14.066,-14.066,-31.648,33.211,-18.364,-47.277,-17.973,-0.391,-18.755,-5.079,-3.126,-14.066,-18.364,0.781,1.954,-2.735,-39.463,14.847,-6.252,-22.662,-16.410,0.781
'[14:23:40.527 02/09/2075]',4.689,-10.549,-8.596,-32.039,34.774,-16.801,-46.886,-17.973,4.689,-18.364,-7.424,-7.424,-16.410,-16.410,-0.781,4.298,1.563,-40.635,9.377,-10.159,-17.582,-15.238,-0.781
'[14:23:40.531 02/09/2075]',1.172,-3.907,-8.205,-30.476,41.416,-18.755,-39.463,-24.615,10.549,-15.629,-7.814,-19.536,-16.020,-15.629,-2.344,1.172,4.689,-40.635,8.987,-14.847,-17.582,-7.033,-2.344
'[14:23:40.535 02/09/2075]',0.391,-2.735,-5.861,-28.913,41.416,-19.145,-33.602,-26.960,16.410,-13.284,-9.768,-29.695,-15.238,-14.457,-4.298,-1.954,5.079,-39.853,6.642,-11.331,-14.457,-5.861,-4.298
'[14:23:40.539 02/09/2075]',-4.689,-1.172,-3.907,-29.304,35.556,-21.880,-30.085,-23.443,17.973,-14.457,-15.238,-30.867,-17.973,-14.066,-7.033,-2.735,6.642,-37.118,4.689,-11.331,-12.503,-4.298,-7.033
'[14:23:40.543 02/09/2075]',-6.252,-0.391,-3.516,-31.258,35.165,-26.960,-25.788,-23.443,18.364,-16.020,-17.192,-32.039,-18.755,-15.238,-7.814,-4.689,3.907,-32.821,4.298,-15.629,-15.238,2.344,-7.814
'[14:23:40.547 02/09/2075]',-3.126,-1.954,-3.126,-31.648,32.821,-30.085,-19.927,-23.834,16.801,-16.410,-15.238,-32.039,-17.192,-15.238,-5.861,-8.205,1.563,-28.132,3.907,-9.377,-17.582,0.391,-5.861
'[14:23:40.551 02/09/2075]',-1.954,-5.861,-3.516,-31.258,24.615,-30.085,-20.317,-17.192,11.722,-16.801,-15.238,-26.178,-17.973,-15.238,-5.861,-6.642,-2.344,-23.053,4.298,-3.516,-15.629,-8.987,-5.861
'[14:23:40.555 02/09/2075]',-2.735,-6.252,-8.205,-31.258,18.755,-33.993,-20.317,-14.066,7.033,-19.927,-17.192,-19.536,-17.582,-17.192,-9.377,-4.298,-8.205,-18.364,8.987,-6.252,-17.192,-6.252,-9.377
'[14:23:40.559 02/09/2075]',-3.907,-4.689,-14.457,-32.039,12.503,-35.556,-18.364,-14.457,3.907,-20.708,-17.582,-19.145,-14.457,-19.145,-12.112,-7.424,-15.238,-15.238,15.238,-7.424,-19.536,-4.298,-12.112
'[14:23:40.563 02/09/2075]',-4.689,-7.814,-14.457,-32.039,3.126,-35.556,-19.145,-7.033,0.391,-23.443,-17.582,-12.503,-15.238,-19.536,-12.894,-4.689,-21.490,-11.331,15.238,-1.172,-16.410,-12.112,-12.894
'[14:23:40.566 02/09/2075]',-5.861,-10.159,-12.894,-30.476,-2.344,-37.900,-19.927,0.391,-3.126,-27.741,-19.536,-2.344,-15.629,-23.053,-12.112,-1.172,-28.913,-6.252,13.675,1.563,-15.629,-14.457,-12.112
'[14:23:40.570 02/09/2075]',-3.907,-10.159,-15.629,-26.960,-1.954,-42.979,-14.066,1.563,-4.689,-29.695,-16.801,0.781,-12.894,-24.615,-10.940,-2.344,-35.165,-3.516,16.410,2.344,-15.629,-10.159,-10.940
'[14:23:40.574 02/09/2075]',-1.172,-11.331,-16.410,-22.271,-6.642,-41.416,-8.987,5.470,-7.424,-30.085,-13.675,4.689,-11.331,-24.615,-8.205,-1.563,-41.416,-0.391,17.192,8.987,-13.284,-14.066,-8.205
'[14:23:40.578 02/09/2075]',-0.781,-15.629,-16.801,-16.801,-18.364,-38.681,-9.768,14.847,-12.894,-31.258,-14.457,12.112,-12.894,-25.006,-9.377,1.172,-48.449,2.344,17.582,14.847,-12.112,-18.755,-9.377
'[14:23:40.582 02/09/2075]',-1.954,-16.410,-24.225,-12.112,-24.615,-39.853,-7.033,15.238,-16.410,-30.867,-14.066,14.066,-11.722,-24.225,-12.503,1.563,-52.747,3.907,25.006,13.675,-14.066,-13.284,-12.503
'[14:23:40.586 02/09/2075]',-1.563,-16.801,-26.960,-9.768,-28.523,-38.681,-3.126,14.847,-17.973,-28.913,-10.159,12.112,-8.205,-25.006,-15.238,4.298,-54.701,6.642,27.741,14.847,-18.364,-11.722,-15.238
'[14:23:40.590 02/09/2075]',-2.344,-19.145,-17.973,-14.066,-38.681,-31.258,-4.298,18.364,-17.973,-26.569,-8.596,14.457,-10.159,-21.880,-9.768,3.126,-54.310,11.331,18.755,17.582,-18.364,-15.629,-9.768
'[14:23:40.594 02/09/2075]',-3.516,-18.755,-18.364,-14.066,-43.761,-26.178,-4.689,18.364,-17.582,-24.225,-7.814,18.755,-12.503,-16.020,-8.596,6.642,-52.357,14.457,19.145,15.238,-19.145,-12.112,-8.596
'[14:23:40.598 02/09/2075]',-0.781,-16.801,-17.973,-13.284,-41.807,-22.662,0.000,14.066,-12.894,-17.973,-3.907,12.503,-8.205,-11.331,-6.252,3.907,-49.621,16.801,18.755,14.847,-20.317,-7.424,-6.252
'[14:23:40.602 02/09/2075]',0.391,-17.582,-17.192,-15.238,-41.416,-18.755,0.781,8.596,-11.331,-10.159,-2.344,5.079,-5.470,-6.252,-5.861,-0.391,-46.886,16.410,17.973,15.629,-18.755,-4.689,-5.861
'[14:23:40.605 02/09/2075]',-1.172,-18.755,-17.973,-12.894,-45.324,-14.457,-3.516,10.940,-13.284,-4.689,-6.642,5.861,-9.377,-1.563,-9.768,1.954,-42.979,16.410,18.755,16.410,-15.629,-5.470,-9.768
'[14:23:40.609 02/09/2075]',-5.079,-16.410,-19.927,-9.768,-42.198,-15.238,-3.126,8.205,-9.768,1.563,-9.377,0.391,-5.861,-0.391,-12.894,2.344,-37.900,15.629,20.708,11.722,-14.457,1.954,-12.894
'[14:23:40.613 02/09/2075]',-2.344,-16.410,-17.192,-8.596,-38.291,-12.503,-1.563,6.642,-7.033,7.424,-8.205,-4.689,-4.298,0.000,-12.112,3.907,-32.821,16.801,17.973,15.238,-15.238,-0.391,-12.112
'[14:23:40.617 02/09/2075]',-2.735,-17.973,-15.629,-6.252,-38.291,-8.596,-6.252,9.768,-5.079,9.377,-8.596,-2.344,-7.033,1.172,-11.331,10.549,-28.132,18.364,16.410,18.364,-14.457,-5.470,-11.331
'[14:23:40.621 02/09/2075]',-1.563,-16.020,-17.582,-3.126,-30.867,-9.768,-4.689,5.861,-0.391,12.112,-7.033,-6.252,-5.079,0.781,-11.331,13.675,-24.225,19.536,18.364,11.722,-15.629,0.781,-11.331
'[14:23:40.625 02/09/2075]',-1.563,-13.675,-19.145,-3.516,-26.960,-8.596,-1.563,-1.954,3.516,13.675,-5.470,-15.238,-1.954,1.563,-11.722,9.377,-20.317,17.582,19.927,7.424,-16.801,7.033,-11.722
'[14:23:40.629 02/09/2075]',-3.907,-15.629,-16.020,-3.126,-27.741,-4.689,-5.861,-1.954,6.642,12.112,-9.377,-16.410,-4.298,3.126,-13.284,7.814,-15.629,14.847,16.801,8.596,-11.722,1.563,-13.284
'[14:23:40.633 02/09/2075]',-6.252,-15.629,-14.066,-0.391,-22.662,-5.861,-7.033,-1.563,10.940,8.205,-13.284,-14.847,-3.126,0.391,-14.457,9.377,-10.940,10.549,14.847,5.079,-6.642,2.735,-14.457
'[14:23:40.637 02/09/2075]',-8.596,-10.940,-14.066,1.172,-16.410,-9.768,-1.954,-5.079,17.582,6.642,-12.112,-20.317,-0.391,-1.172,-14.066,7.033,-6.252,10.549,14.847,0.391,-7.033,7.814,-14.066
'[14:23:40.641 02/09/2075]',-5.470,-8.596,-10.549,4.689,-14.066,-5.470,-0.391,-0.391,20.708,5.079,-11.331,-19.536,-1.563,0.781,-12.112,8.205,-3.126,10.159,11.331,2.344,-5.079,5.470,-12.112
'[14:23:40.645 02/09/2075]',-4.689,-6.252,-7.814,6.642,-12.894,-3.907,-0.781,4.298,23.834,1.172,-11.722,-14.457,-3.907,1.172,-10.159,11.722,-2.735,11.722,8.596,3.516,-2.344,3.126,-10.159
'[14:23:40.648 02/09/2075]',-5.861,-1.954,-8.205,8.205,-8.596,-5.470,3.126,1.954,25.397,0.391,-10.159,-17.582,-3.907,1.954,-11.331,11.331,-3.126,12.112,8.987,-0.781,-5.861,12.503,-11.331
'[14:23:40.652 02/09/2075]',-8.205,-0.391,-6.642,9.377,-9.377,-6.252,6.252,1.563,24.225,-1.954,-7.033,-19.145,-5.079,1.563,-11.722,9.768,-5.470,11.722,7.424,1.172,-7.033,13.675,-11.722
'[14:23:40.656 02/09/2075]',-11.331,-2.344,-8.205,11.722,-11.722,-5.861,1.563,3.907,19.536,-7.814,-10.549,-12.503,-9.768,-0.391,-13.284,12.112,-8.596,8.205,8.987,4.689,-4.689,7.814,-13.284
'[14:23:40.660 02/09/2075]',-16.020,-0.781,-12.894,10.940,-15.629,-5.861,-0.781,3.126,12.894,-10.549,-10.940,-10.940,-14.457,-3.126,-16.020,14.457,-10.159,5.470,13.675,0.781,-6.252,9.377,-16.020
'[14:23:40.664 02/09/2075]',-17.192,0.391,-16.410,8.596,-17.973,-3.126,-1.172,-1.954,6.252,-10.549,-5.079,-15.238,-16.020,-3.126,-16.020,10.549,-11.331,3.907,17.192,-0.391,-8.987,10.549,-16.020
'[14:23:40.668 02/09/2075]',-15.238,-1.563,-19.145,9.768,-20.708,0.781,-3.516,-1.563,3.907,-9.768,-0.391,-16.410,-16.410,0.000,-12.112,7.033,-10.940,1.954,19.927,3.907,-10.159,6.642,-12.112
'[14:23:40.672 02/09/2075]',-16.020,-3.126,-16.410,5.470,-24.615,0.000,-5.861,1.172,0.391,-9.768,1.563,-11.722,-18.364,1.172,-8.987,7.033,-12.894,3.907,17.192,2.735,-10.159,7.033,-8.987
'[14:23:40.676 02/09/2075]',-17.192,-1.172,-17.973,2.344,-26.960,-3.126,-3.516,0.391,-1.172,-9.768,6.252,-11.331,-16.801,3.126,-7.814,4.298,-15.238,7.424,18.755,0.781,-14.457,12.894,-7.814
'[14:23:40.680 02/09/2075]',-12.112,-4.298,-17.973,0.391,-31.648,-3.907,-1.954,2.735,-6.642,-10.940,10.159,-5.470,-18.755,6.252,-2.735,1.954,-18.755,10.940,18.755,9.377,-15.238,5.861,-2.735
'[14:23:40.684 02/09/2075]',-8.596,-8.205,-19.145,-4.298,-38.681,-3.907,-5.861,6.642,-15.629,-12.112,10.940,1.172,-22.271,5.861,-3.126,2.735,-22.271,14.847,19.927,16.020,-15.629,-1.172,-3.126
'[14:23:40.688 02/09/2075]',-7.033,-8.205,-24.225,-9.377,-43.761,-7.424,-1.954,2.344,-23.443,-13.284,12.503,4.298,-23.053,5.470,-5.861,3.516,-24.615,17.973,25.006,13.284,-21.099,1.954,-5.861
'[14:23:40.691 02/09/2075]',-5.470,-7.424,-26.960,-12.503,-50.794,-3.126,0.781,-1.172,-30.085,-10.549,19.145,1.563,-23.443,8.596,0.000,-5.079,-24.225,19.145,27.741,14.847,-25.397,3.126,0.000
'[14:23:40.695 02/09/2075]',-3.516,-10.940,-26.569,-14.457,-57.045,-0.391,-2.344,2.344,-37.118,-9.377,21.099,6.252,-23.834,8.596,1.172,-5.079,-24.615,20.708,27.350,19.145,-25.006,-4.689,1.172
'[14:23:40.699 02/09/2075]',-1.954,-9.377,-30.476,-17.973,-57.827,-1.954,-3.516,1.563,-43.370,-8.205,23.053,11.331,-22.271,7.424,2.344,-4.689,-22.662,21.490,31.258,17.192,-28.523,-5.079,2.344
'[14:23:40.703 02/09/2075]',0.391,-4.689,-33.602,-21.490,-55.482,-1.563,-0.781,-1.954,-47.668,-3.907,29.304,10.159,-16.801,7.814,7.033,-9.377,-21.490,21.880,34.383,14.457,-33.211,-2.344,7.033
'[14:23:40.707 02/09/2075]',5.470,-5.079,-31.258,-25.006,-55.873,0.391,-2.344,0.781,-54.310,1.563,32.430,13.675,-15.629,11.722,9.377,-11.722,-21.490,22.662,32.039,17.973,-32.039,-7.814,9.377
'[14:23:40.711 02/09/2075]',5.470,-1.172,-30.085,-26.960,-57.436,2.344,-3.516,5.079,-60.562,5.861,30.867,21.099,-17.192,14.847,10.940,-10.159,-19.145,23.053,30.867,17.192,-31.648,-9.377,10.940
'[14:23:40.715 02/09/2075]',6.252,3.907,-28.913,-30.085,-54.701,1.954,1.954,0.781,-59.389,6.642,34.774,21.099,-12.503,17.192,12.894,-12.503,-17.192,24.225,29.695,11.331,-34.774,-3.907,12.894
'[14:23:40.719 02/09/2075]',8.205,6.642,-25.788,-32.821,-51.575,2.344,5.861,-1.563,-59.780,6.642,37.118,20.317,-9.768,15.629,14.847,-14.457,-15.238,22.271,26.569,10.940,-35.946,-6.252,14.847
'[14:23:40.723 02/09/2075]',8.596,7.033,-22.662,-32.821,-48.059,3.516,3.907,0.391,-59.780,5.470,35.165,25.397,-12.112,14.066,16.801,-11.331,-12.503,20.708,23.443,10.549,-34.774,-11.722,16.801
'[14:23:40.727 02/09/2075]',8.205,8.205,-17.973,-34.383,-44.542,2.344,5.861,-0.781,-53.529,0.781,33.602,26.569,-12.894,12.894,18.364,-10.549,-8.596,17.973,18.755,5.861,-31.648,-11.331,18.364
'[14:23:40.730 02/09/2075]',9.768,11.331,-12.503,-34.383,-34.774,1.172,13.284,-6.252,-57.827,11.722,35.946,20.708,-10.549,13.284,20.317,-11.722,-5.861,16.020,13.284,3.516,-30.867,-7.033,20.317
'[14:23:40.734 02/09/2075]',12.503,8.596,-5.470,-28.523,-27.350,3.126,13.284,-3.126,-52.357,15.629,34.383,21.880,-9.377,13.675,23.053,-7.424,-1.172,14.066,6.252,7.814,-28.523,-11.722,23.053
'[14:23:40.738 02/09/2075]',5.861,8.205,-0.781,-24.225,-24.225,1.954,14.457,-3.516,-49.231,18.364,30.476,22.662,-9.377,14.066,22.271,-3.907,1.563,13.284,1.563,3.907,-25.788,-7.424,22.271
'[14:23:40.742 02/09/2075]',3.907,12.112,1.172,-24.225,-19.145,1.954,20.317,-10.940,-46.105,23.443,29.695,18.364,-5.470,14.847,21.490,-3.126,4.689,13.284,-0.391,-0.391,-27.741,0.000,21.490
'[14:23:40.746 02/09/2075]',5.470,9.768,5.861,-22.271,-16.410,6.642,19.145,-10.549,-40.244,23.834,27.741,17.582,-6.642,16.801,21.099,-0.391,8.596,11.722,-5.079,3.516,-28.523,-3.907,21.099
'[14:23:40.750 02/09/2075]',4.689,7.033,7.814,-17.582,-13.284,5.079,18.364,-6.642,-40.244,26.569,24.615,17.582,-10.159,19.927,17.582,1.563,14.847,11.722,-7.033,5.861,-25.006,-5.079,17.582
'[14:23:40.754 02/09/2075]',3.907,10.159,6.642,-14.066,-8.205,1.172,24.615,-10.159,-36.728,32.430,27.350,9.768,-5.861,22.662,15.238,1.954,18.364,13.284,-5.861,1.172,-23.053,3.126,15.238
'[14:23:40.758 02/09/2075]',4.298,9.768,7.033,-6.642,-6.642,0.781,29.695,-8.205,-35.165,37.509,32.821,2.344,-4.689,26.178,13.675,3.126,21.880,14.457,-6.252,1.954,-19.536,6.252,13.675
'[14:23:40.762 02/09/2075]',0.391,6.252,8.205,2.735,-11.331,0.781,27.350,0.781,-31.258,35.165,33.602,3.516,-4.298,26.178,12.894,5.861,21.099,16.020,-7.424,4.298,-8.596,1.172,12.894
'[14:23:40.766 02/09/2075]',-4.689,6.252,12.503,5.470,-12.894,-2.735,30.867,3.907,-36.337,37.509,34.383,3.907,-1.954,23.443,10.940,7.814,16.801,19.536,-11.722,1.563,-1.563,3.907,10.940
'[14:23:40.770 02/09/2075]',-5.861,4.689,15.238,6.642,-13.675,-5.861,34.774,5.861,-38.291,35.165,38.681,0.391,0.391,21.099,8.987,4.689,13.284,18.755,-14.457,3.516,2.344,6.642,8.987
'[14:23:40.773 02/09/2075]',-6.252,-0.391,16.410,10.549,-18.755,-6.642,31.258,14.066,-41.026,30.867,35.556,3.126,-0.391,19.536,5.470,3.516,8.596,17.192,-15.629,14.066,8.205,-1.563,5.470
'[14:23:40.777 02/09/2075]',-8.596,-4.689,15.238,14.457,-25.006,-8.987,28.913,21.490,-43.761,27.741,32.430,4.689,-0.391,17.582,1.172,3.126,4.298,16.020,-14.457,19.536,15.629,-4.298,1.172
'[14:23:40.781 02/09/2075]',-10.940,-6.642,10.549,18.364,-28.132,-13.675,32.821,20.708,-43.370,24.225,34.383,1.172,0.781,16.410,-0.781,0.781,0.391,14.066,-9.768,22.271,17.192,-1.172,-0.781
'[14:23:40.785 02/09/2075]',-9.768,-8.596,8.987,22.662,-28.132,-15.629,33.993,22.662,-41.807,22.271,35.165,0.391,1.954,15.238,-2.735,1.172,-2.735,13.284,-8.205,28.132,20.317,-3.126,-2.735
'[14:23:40.789 02/09/2075]',-9.377,-10.549,10.159,26.178,-30.867,-16.020,33.602,28.913,-42.198,20.708,33.211,5.079,0.391,15.238,0.391,1.172,-6.642,15.238,-9.377,32.430,21.099,-5.861,0.391
'[14:23:40.793 02/09/2075]',-12.112,-9.377,9.768,27.350,-33.211,-18.364,36.728,30.476,-41.416,18.755,33.211,8.205,-0.391,15.238,0.391,3.907,-11.331,17.582,-8.987,31.648,16.410,-0.781,0.391
'[14:23:40.797 02/09/2075]',-10.159,-9.377,8.987,27.350,-33.602,-19.536,39.853,30.085,-39.853,18.364,35.946,7.033,0.391,16.410,0.391,4.689,-14.066,19.927,-8.205,36.337,11.722,-1.954,0.391
'[14:23:40.801 02/09/2075]',-9.377,-12.894,12.894,29.695,-36.337,-16.801,38.681,34.383,-37.118,16.410,35.165,11.722,0.000,14.457,1.954,9.377,-14.847,21.490,-12.112,42.979,12.112,-8.987,1.954
'[14:23:40.805 02/09/2075]',-14.066,-12.894,10.940,31.258,-38.681,-17.973,38.291,33.602,-37.118,14.066,32.821,15.629,1.172,12.112,0.000,12.503,-17.192,23.443,-10.159,38.681,14.847,-4.689,0.000
'[14:23:40.809 02/09/2075]',-16.020,-10.940,11.722,31.258,-37.509,-16.410,40.635,28.913,-35.556,14.457,32.039,13.284,3.907,12.894,-3.126,10.549,-17.973,25.006,-10.940,33.993,23.053,-1.172,-3.126
'[14:23:40.813 02/09/2075]',-12.894,-11.722,15.629,30.085,-37.900,-7.814,36.728,30.085,-33.993,16.410,27.741,12.503,5.470,13.284,-3.907,8.596,-14.847,24.225,-14.847,37.900,27.350,-6.642,-3.907
'[14:23:40.816 02/09/2075]',-11.722,-11.722,17.582,28.132,-36.337,-4.298,30.476,32.039,-33.602,16.410,21.880,13.284,3.516,12.894,-5.470,7.424,-13.284,25.788,-16.801,37.900,29.695,-6.642,-5.470
'[14:23:40.820 02/09/2075]',-14.457,-10.549,13.284,27.350,-35.165,-7.424,32.821,25.788,-32.430,18.364,19.145,6.252,3.907,12.112,-8.205,3.907,-11.331,26.178,-12.503,34.383,28.132,0.391,-8.205
'[14:23:40.824 02/09/2075]',-16.020,-12.894,10.549,28.523,-35.946,-7.424,30.867,22.271,-28.913,21.490,16.801,0.391,2.344,14.847,-8.596,0.781,-10.549,24.615,-9.768,38.291,27.350,1.563,-8.596
'[14:23:40.828 02/09/2075]',-17.582,-17.582,10.159,29.695,-37.118,-7.814,25.397,24.615,-29.304,22.271,10.940,1.954,0.391,14.457,-8.987,0.781,-7.814,20.317,-9.377,40.635,31.648,0.000,-8.987
'[14:23:40.832 02/09/2075]',-18.755,-18.364,4.689,33.602,-32.039,-12.894,25.397,20.708,-29.695,25.788,9.377,0.391,1.563,14.457,-10.549,0.781,-5.079,17.973,-3.907,38.291,34.383,3.126,-10.549
'[14:23:40.836 02/09/2075]',-16.410,-19.536,5.079,33.211,-25.788,-12.894,26.569,14.457,-27.350,31.258,11.331,-5.079,6.252,16.410,-9.377,-1.954,1.172,15.238,-4.298,39.463,37.509,5.470,-9.377
'[14:23:40.840 02/09/2075]',-13.284,-21.099,15.238,28.913,-23.443,-7.033,23.443,17.582,-29.304,35.946,11.331,-4.298,5.861,17.582,-5.079,-3.516,8.596,14.457,-14.457,42.979,41.026,0.781,-5.079
'[14:23:40.844 02/09/2075]',-14.847,-21.880,17.582,30.867,-23.443,-5.861,21.880,19.145,-29.304,37.900,9.768,-3.126,5.861,17.973,-3.907,-2.735,15.238,14.066,-16.801,41.807,43.761,1.954,-3.907
'[14:23:40.848 02/09/2075]',-19.145,-20.708,18.364,29.304,-23.443,-6.642,25.006,12.503,-26.960,39.072,10.159,-8.205,7.033,18.755,-2.344,-8.205,17.582,13.284,-17.582,40.244,41.416,8.987,-2.344
'[14:23:40.852 02/09/2075]',-19.927,-19.927,19.536,28.132,-23.053,-4.689,25.788,10.159,-25.006,38.291,11.331,-11.331,6.642,20.317,-0.391,-12.112,17.973,8.987,-18.755,40.635,39.072,11.722,-0.391
'[14:23:40.855 02/09/2075]',-20.317,-22.271,18.755,30.867,-22.662,-6.642,21.880,14.457,-23.443,33.993,5.079,-5.470,1.954,19.927,-0.781,-10.159,20.317,5.079,-17.973,41.807,37.509,8.987,-0.781
'[14:23:40.859 02/09/2075]',-21.880,-16.801,12.503,27.741,-21.880,-8.987,21.490,10.549,-16.801,25.397,3.907,-5.861,0.000,21.099,-0.781,-12.894,18.364,1.954,-11.722,34.774,30.476,14.847,-0.781
'[14:23:40.863 02/09/2075]',-16.410,-15.238,12.894,23.053,-17.192,-7.033,20.317,7.033,-10.549,21.099,4.689,-8.596,-0.781,21.880,1.172,-15.629,19.145,-1.563,-12.112,35.946,26.569,10.159,1.172
'[14:23:40.867 02/09/2075]',-12.503,-16.410,13.675,21.099,-12.894,-5.470,12.503,10.940,-6.642,15.629,0.391,-5.861,-3.516,19.145,1.563,-13.675,20.708,-5.079,-12.894,37.118,25.397,1.954,1.563
'[14:23:40.871 02/09/2075]',-16.410,-12.894,7.424,18.364,-8.987,-10.549,10.159,5.470,0.391,6.642,-3.516,-7.424,-5.079,15.238,0.000,-13.284,17.582,-8.987,-6.642,29.304,20.317,5.470,0.000
'[14:23:40.875 02/09/2075]',-14.847,-11.331,6.252,11.722,-2.344,-11.722,8.987,-3.126,-1.172,10.549,-6.642,-15.629,-5.470,12.894,-3.516,-15.238,15.238,-14.066,-5.470,25.006,14.847,8.205,-3.516
'[14:23:40.879 02/09/2075]',-15.629,-12.894,10.940,8.596,-2.735,-8.596,4.689,-1.172,-1.954,11.331,-10.549,-16.020,-9.768,9.377,-3.907,-12.503,14.847,-16.801,-10.159,27.350,12.894,0.391,-3.907
'[14:23:40.883 02/09/2075]',-19.145,-13.675,11.331,9.377,-2.735,-8.596,1.954,-0.781,-3.126,10.940,-12.503,-16.410,-12.503,5.470,-4.689,-8.596,16.801,-16.020,-10.549,25.006,10.159,-0.391,-4.689
'[14:23:40.887 02/09/2075]',-17.582,-10.159,9.377,8.987,0.391,-6.642,3.907,-7.033,-0.391,14.066,-10.159,-23.053,-10.159,4.689,-4.298,-8.987,17.973,-13.675,-8.596,19.536,6.252,3.516,-4.298
'[14:23:40.891 02/09/2075]',-13.284,-7.033,14.066,9.377,0.391,3.907,3.907,-5.470,1.172,17.582,-5.470,-26.569,-10.549,7.033,3.907,-13.284,20.317,-9.768,-13.284,20.317,5.861,0.391,3.907
'[14:23:40.895 02/09/2075]',-10.940,-5.861,14.847,15.238,0.000,9.377,3.126,0.391,4.298,17.582,-5.861,-21.880,-12.112,8.987,6.252,-8.596,23.053,-7.033,-14.066,18.755,7.033,-0.781,6.252
'[14:23:40.898 02/09/2075]',-7.814,-2.344,11.331,19.145,5.861,7.033,8.205,-2.344,7.033,18.755,-4.689,-23.443,-7.814,7.424,5.861,-7.424,22.271,-3.907,-10.549,12.894,3.516,5.079,5.861
'[14:23:40.902 02/09/2075]',-4.298,0.391,20.708,14.457,11.722,8.205,14.457,-3.516,9.377,19.536,-2.735,-25.006,-5.079,5.470,5.861,-4.689,23.834,-2.344,-19.927,12.112,0.391,5.079,5.861
'[14:23:40.906 02/09/2075]',-4.298,-0.781,23.053,21.490,12.112,7.424,14.066,4.298,12.112,16.410,-5.470,-17.582,-5.861,4.298,2.735,3.907,25.788,-0.781,-22.271,14.847,2.344,0.000,2.735
'[14:23:40.910 02/09/2075]',-9.377,0.000,22.271,25.788,10.159,7.033,12.894,7.814,14.457,13.284,-8.596,-12.112,-6.252,1.954,0.391,10.159,26.569,0.000,-21.490,10.549,3.516,0.391,0.391
'[14:23:40.914 02/09/2075]',-9.377,2.735,23.443,25.788,12.503,8.987,15.238,4.689,17.582,12.112,-5.861,-14.066,-3.907,1.954,0.391,11.331,27.741,0.391,-22.662,10.940,1.954,2.344,0.391
'[14:23:40.918 02/09/2075]',-6.642,1.563,22.662,28.523,12.503,10.940,13.284,7.424,16.801,9.377,-5.079,-9.768,-6.252,2.344,1.954,13.675,26.569,0.391,-21.880,14.847,1.563,-2.344,1.954
'[14:23:40.922 02/09/2075]',-6.252,0.781,19.536,28.913,12.112,8.596,10.549,9.768,12.894,7.424,-6.642,-3.907,-8.596,0.391,1.954,15.629,23.834,1.172,-18.755,12.112,0.781,-2.735,1.954
'[14:23:40.926 02/09/2075]',-5.470,1.954,14.066,26.960,12.112,6.642,12.112,5.861,10.159,3.516,-4.298,-5.079,-7.814,-1.954,0.391,14.847,21.490,2.344,-13.284,7.424,-3.907,3.516,0.391
'[14:23:40.930 02/09/2075]',-1.954,0.391,12.503,27.350,11.331,7.814,8.987,7.814,7.424,-0.391,-1.563,-2.344,-8.987,-2.735,0.391,15.629,17.192,2.735,-11.722,10.940,-4.298,-1.563,0.391
'[14:23:40.934 02/09/2075]',0.000,-2.344,10.940,26.178,9.377,7.424,3.907,11.331,4.689,-4.298,-2.344,2.735,-10.159,-4.298,-0.781,17.973,17.582,2.344,-10.159,12.503,-4.298,-7.033,-0.781
'[14:23:40.938 02/09/2075]',-2.735,-1.563,4.689,24.615,7.424,5.079,4.298,7.033,5.079,-9.377,-0.781,3.516,-8.205,-5.470,-4.689,17.973,15.629,1.954,-3.907,6.252,-5.470,-0.391,-4.689
'[14:23:40.941 02/09/2075]',-1.563,0.000,2.735,20.317,7.814,3.907,4.689,3.516,7.033,-13.284,-0.781,3.516,-8.596,-3.907,-5.079,16.020,11.331,0.391,-1.954,6.252,-7.033,0.391,-5.079
'[14:23:40.945 02/09/2075]',0.000,-2.344,4.689,14.457,3.907,3.516,2.344,5.861,6.252,-16.020,-5.470,7.033,-10.549,-3.907,-7.814,15.238,5.470,0.781,-3.907,7.424,-4.298,-5.470,-7.814
'[14:23:40.949 02/09/2075]',0.391,-3.126,0.391,14.457,1.563,0.781,1.563,7.424,5.079,-17.582,-7.424,8.205,-10.159,-3.516,-10.549,14.847,0.781,3.907,0.391,6.252,-3.516,-3.516,-10.549
'[14:23:40.953 02/09/2075]',0.781,-0.781,-5.470,16.801,1.954,-1.954,4.689,5.861,5.470,-16.410,-5.861,4.689,-8.987,-2.344,-10.549,11.331,-3.907,7.424,6.252,4.689,-6.252,1.954,-10.549
'[14:23:40.957 02/09/2075]',2.344,-3.126,-3.907,16.801,-1.954,-0.781,4.298,9.377,2.344,-14.066,-4.298,2.735,-10.940,0.391,-10.159,8.987,-8.987,10.549,4.689,8.596,-4.298,-1.563,-10.159
'[14:23:40.961 02/09/2075]',0.000,-3.907,-7.033,19.927,-6.252,-1.563,1.954,13.284,-0.391,-13.675,-3.516,5.079,-15.629,2.735,-10.159,10.940,-12.503,13.675,7.814,10.159,-3.907,-3.516,-10.159
'[14:23:40.965 02/09/2075]',-3.516,-2.735,-10.159,21.880,-7.424,-3.907,3.126,11.331,-0.391,-11.331,0.391,3.126,-15.238,3.907,-6.252,9.768,-16.410,15.238,10.940,5.079,-7.424,3.126,-6.252
'[14:23:40.969 02/09/2075]',-4.298,-3.126,-1.563,13.284,-6.642,-5.079,4.689,8.596,-1.563,-9.377,3.907,2.344,-14.066,5.079,-4.298,8.596,-17.973,14.847,2.344,5.079,-6.252,2.735,-4.298
'[14:23:40.973 02/09/2075]',-6.642,-4.689,-0.781,12.503,-10.159,-3.516,0.391,12.112,-3.907,-9.768,3.126,6.252,-17.192,4.689,-1.954,10.159,-18.755,14.847,1.563,5.470,-3.907,-0.781,-1.954
'[14:23:40.977 02/09/2075]',-7.424,-3.907,-1.954,10.940,-13.284,-2.344,-2.344,13.675,-5.470,-8.205,1.563,12.112,-18.755,5.470,0.391,10.549,-18.755,14.457,2.735,1.563,-3.126,1.563,0.391
'[14:23:40.980 02/09/2075]',-5.079,-1.172,-3.516,5.470,-9.768,-2.735,-0.391,7.033,-3.907,-5.861,2.344,7.424,-13.675,6.252,0.391,6.642,-17.582,13.675,4.298,0.000,-5.470,5.079,0.391
'[14:23:40.984 02/09/2075]',-1.172,-2.344,-3.516,4.298,-7.814,0.391,-3.516,8.205,-3.907,-3.907,0.781,4.689,-14.066,6.252,0.000,5.470,-16.801,11.331,4.298,3.126,-6.642,0.391,0.000
'[14:23:40.988 02/09/2075]',0.391,-1.172,-5.470,3.126,-4.689,0.391,-5.079,5.861,-3.126,-1.954,-4.298,6.252,-12.894,5.470,-3.126,6.252,-13.284,10.159,6.252,-1.954,-7.814,2.344,-3.126
'[14:23:40.992 02/09/2075]',0.781,2.344,-7.814,1.563,0.391,-0.391,-2.344,0.391,-1.954,0.781,-3.126,-1.172,-9.377,8.205,-3.907,0.000,-10.549,8.596,8.596,-7.814,-7.424,10.549,-3.907
'[14:23:40.996 02/09/2075]',3.126,0.000,-5.079,2.735,-2.344,3.516,-2.344,1.563,-4.298,4.298,-1.563,-2.344,-10.940,10.549,-2.735,0.391,-7.424,9.377,5.861,-5.079,-3.516,5.861,-2.735
'[14:23:41.000 02/09/2075]',1.954,-3.516,-1.954,6.252,-2.344,3.126,-3.907,5.079,-6.252,5.079,-2.735,2.344,-12.503,10.549,-2.344,3.126,-4.689,10.549,2.735,-4.298,0.000,4.689,-2.344
'[14:23:41.004 02/09/2075]',1.172,-0.781,-1.954,5.079,0.391,0.391,-0.781,3.126,-4.689,8.596,0.391,0.000,-8.596,10.549,0.391,1.563,-5.079,14.066,2.735,-10.549,-2.344,12.894,0.391
'[14:23:41.008 02/09/2075]',3.516,-2.344,0.000,6.252,1.172,2.735,0.781,1.563,-1.954,12.112,3.516,-2.735,-6.252,12.503,2.344,2.735,-5.861,16.801,0.781,-8.987,-5.079,15.238,2.344
'[14:23:41.012 02/09/2075]',5.470,-4.689,0.391,8.987,2.344,5.470,-2.344,5.079,0.000,12.503,1.563,1.172,-6.642,11.331,1.954,8.205,-5.861,16.020,0.391,-8.205,-5.079,10.940,1.954
'[14:23:41.016 02/09/2075]',8.205,-3.126,-3.516,9.377,9.768,1.172,-4.298,3.126,2.344,12.112,0.391,2.344,-3.907,9.377,0.781,10.940,-5.470,14.847,4.298,-13.284,-7.033,13.675,0.781
'[14:23:41.020 02/09/2075]',10.549,-2.735,-7.814,8.596,16.020,-1.172,-5.079,-1.563,4.298,10.940,0.391,-2.735,-2.735,8.987,-1.954,8.596,-6.252,11.331,8.596,-15.238,-8.205,18.364,-1.954
'[14:23:41.023 02/09/2075]',8.987,-4.689,-10.159,7.814,14.066,-0.391,-10.159,-1.563,4.298,9.768,-3.126,-5.470,-4.689,8.205,-4.689,6.252,-6.252,5.079,10.940,-10.940,-7.033,12.894,-4.689
'[14:23:41.027 02/09/2075]',5.079,-3.907,-3.516,-3.907,9.377,-1.563,-13.284,-2.735,3.126,8.596,-8.987,-5.861,-8.596,8.205,-7.033,4.689,-8.205,0.781,4.298,-12.894,-5.079,12.894,-7.033
'[14:23:41.031 02/09/2075]',1.563,-1.172,-5.079,-8.596,7.424,-1.563,-10.159,-9.768,3.907,10.940,-7.814,-14.847,-7.033,9.377,-7.424,-1.563,-10.159,0.391,5.861,-17.192,-6.642,21.490,-7.424
'[14:23:41.035 02/09/2075]',1.172,-1.954,-1.563,-11.331,5.470,0.000,-6.642,-12.112,6.252,13.675,-5.861,-19.927,-5.861,10.940,-5.470,-4.298,-9.377,-0.781,2.344,-16.410,-4.689,21.099,-5.470
'[14:23:41.039 02/09/2075]',0.000,-0.781,0.000,-9.768,2.344,0.391,-6.642,-7.424,5.470,13.675,-5.079,-14.847,-6.252,10.940,-2.735,-2.344,-10.940,2.344,0.781,-17.582,-0.391,19.536,-2.735
'[14:23:41.043 02/09/2075]',-2.344,1.563,-2.344,-8.205,1.954,-2.344,-5.861,-5.079,5.470,10.940,-5.861,-13.284,-6.252,10.940,-1.954,-3.126,-13.675,5.861,3.126,-23.443,2.344,23.834,-1.954
'[14:23:41.047 02/09/2075]',-1.172,2.735,-2.735,-11.331,1.563,-5.470,-3.516,-5.079,5.861,8.205,-4.689,-16.020,-4.298,8.205,-2.344,-7.424,-17.973,6.642,3.516,-19.927,1.563,20.317,-2.344
'[14:23:41.051 02/09/2075]',1.563,2.344,-1.954,-14.457,-0.391,-5.079,-5.470,-1.172,3.907,5.470,-4.298,-14.847,-3.907,5.470,0.391,-10.159,-22.662,7.424,2.735,-14.066,-1.172,13.675,0.391
'[14:23:41.055 02/09/2075]',3.126,1.954,-4.298,-16.410,-0.781,-10.159,-3.907,0.000,2.735,2.735,-5.079,-13.675,-4.298,4.298,-0.391,-11.331,-26.960,10.159,5.079,-18.364,-1.563,17.192,-0.391
'[14:23:41.059 02/09/2075]',2.735,3.126,-7.033,-18.755,-3.907,-11.331,0.391,-4.298,2.735,4.689,-1.563,-17.973,-2.344,5.079,0.391,-14.457,-28.132,12.112,7.814,-21.880,-6.252,24.615,0.391
'[14:23:41.063 02/09/2075]',5.861,0.391,-3.907,-19.145,-7.033,-8.987,0.391,-1.563,2.735,6.642,0.000,-16.801,-3.126,7.033,1.172,-12.503,-25.788,13.284,4.689,-17.192,-5.861,19.536,1.172
'[14:23:41.066 02/09/2075]',7.033,-5.470,-3.907,-16.410,-8.205,-10.159,-0.391,0.391,1.954,5.079,-1.563,-12.503,-4.689,6.252,1.172,-9.377,-25.006,15.629,4.689,-16.801,-0.781,16.020,1.172
'[14:23:41.070 02/09/2075]',3.126,-5.079,-7.814,-13.675,-9.768,-12.894,3.516,-5.079,1.954,5.861,-0.391,-16.410,-3.907,5.861,1.563,-11.331,-25.006,18.755,8.596,-19.927,-1.563,21.099,1.563
'[14:23:41.074 02/09/2075]',5.861,-5.861,-8.596,-13.675,-9.377,-11.722,6.252,-7.424,3.516,6.252,0.391,-17.973,-2.735,5.861,3.126,-13.675,-26.960,19.927,9.377,-16.410,-4.689,19.145,3.126
'[14:23:41.078 02/09/2075]',8.596,-7.814,-9.377,-8.205,-11.331,-8.987,5.470,-3.126,2.735,3.907,-0.391,-9.768,-4.298,6.252,4.689,-10.159,-29.304,23.053,10.159,-15.238,-3.516,14.066,4.689
'[14:23:41.082 02/09/2075]',8.596,-5.470,-14.457,-4.298,-9.768,-10.940,7.424,-2.344,0.000,3.907,0.781,-6.642,-2.344,4.298,4.298,-7.424,-30.867,27.350,15.238,-19.145,-4.689,18.755,4.298
'[14:23:41.086 02/09/2075]',10.940,-2.344,-6.252,-10.940,-8.205,-8.987,12.894,-4.689,-3.126,7.033,6.642,-8.596,0.000,5.079,4.298,-7.033,-28.132,31.258,7.033,-20.708,-9.768,24.225,4.298
'[14:23:41.090 02/09/2075]',11.331,-4.689,-2.735,-8.205,-11.331,-4.298,10.159,0.391,-7.424,7.814,8.596,-2.735,-1.563,6.642,3.907,-3.126,-26.178,34.774,3.516,-16.801,-5.861,18.755,3.907
'[14:23:41.094 02/09/2075]',7.424,-5.861,-2.735,-4.689,-14.066,-3.907,7.033,2.735,-10.159,9.768,9.768,-4.298,-1.563,8.596,3.907,-5.861,-23.443,35.165,3.516,-19.536,0.781,19.927,3.907
'[14:23:41.098 02/09/2075]',6.252,-3.907,-5.861,-1.563,-9.768,-5.861,9.768,-0.391,-10.159,13.284,14.847,-8.987,-0.391,12.112,4.689,-7.033,-20.708,35.946,6.642,-20.708,-1.954,26.569,4.689
'[14:23:41.102 02/09/2075]',7.814,-5.470,-8.987,3.907,-8.205,-7.424,12.112,0.391,-8.987,16.410,18.364,-10.549,0.391,14.457,8.205,-8.205,-18.755,35.556,9.768,-17.973,-2.735,26.178,8.205
'[14:23:41.105 02/09/2075]',8.205,-7.033,-10.940,11.331,-9.377,-5.079,8.205,7.033,-9.377,16.020,16.410,-3.907,-2.344,15.629,8.987,-3.126,-14.457,35.556,11.722,-16.410,-0.391,21.880,8.987
'[14:23:41.109 02/09/2075]',10.159,-3.516,-13.284,12.894,-7.814,-3.126,10.549,6.252,-9.768,17.192,16.801,-1.954,-3.516,15.238,9.768,0.391,-8.987,37.900,14.066,-20.317,-7.424,28.132,9.768
'[14:23:41.113 02/09/2075]',12.894,-2.735,-11.722,13.675,-8.987,3.907,10.940,5.470,-7.033,19.145,19.145,-2.735,-0.781,16.020,11.331,1.172,-3.516,38.291,12.503,-15.238,-10.159,25.397,11.331
'[14:23:41.117 02/09/2075]',16.020,-4.298,-6.252,11.722,-10.549,12.503,6.252,8.596,-4.298,17.192,17.582,1.172,-0.781,15.238,13.284,3.126,1.172,36.728,7.033,-10.549,-9.377,15.629,13.284
'[14:23:41.121 02/09/2075]',16.410,-1.172,-6.252,10.940,-6.252,13.284,6.252,5.470,-1.954,16.410,17.192,2.344,1.172,15.238,12.503,4.689,4.298,35.556,7.033,-15.238,-11.331,19.927,12.503
'[14:23:41.125 02/09/2075]',14.457,1.172,-7.033,12.112,-7.033,16.410,8.205,2.344,-1.172,18.364,19.927,0.391,2.344,14.847,13.675,3.907,5.079,35.165,7.814,-16.020,-13.675,21.880,13.675
'[14:23:41.129 02/09/2075]',16.410,0.391,-3.126,11.331,-12.112,24.225,6.642,5.470,-5.861,19.145,20.708,5.079,-0.781,15.238,16.801,7.424,7.814,35.946,3.907,-9.377,-15.629,10.940,16.801
'[14:23:41.133 02/09/2075]',18.364,1.563,-3.516,14.847,-13.284,29.695,5.861,8.987,-9.768,20.317,23.053,11.722,-0.391,12.503,17.973,14.457,11.722,41.026,4.298,-9.768,-17.192,8.596,17.973
'[14:23:41.137 02/09/2075]',19.145,5.470,-8.596,18.364,-13.675,35.556,7.814,5.079,-10.940,23.053,26.569,10.940,1.954,10.159,18.364,17.582,16.801,42.979,9.377,-12.112,-24.225,11.722,18.364
'[14:23:41.141 02/09/2075]',22.662,7.033,1.172,8.596,-15.629,46.496,7.033,1.954,-10.159,23.053,29.304,10.940,1.954,12.112,20.708,17.192,25.397,40.635,-0.391,-8.987,-28.132,7.033,20.708
'[14:23:41.145 02/09/2075]',24.225,7.424,3.516,5.079,-15.238,53.529,1.172,1.954,-8.596,21.099,25.397,16.020,1.563,12.503,19.536,20.708,31.648,35.556,-2.735,-9.768,-26.178,0.781,19.536
'[14:23:41.148 02/09/2075]',21.880,10.940,3.516,1.954,-8.596,51.966,1.563,-4.298,-8.596,21.099,24.615,12.894,1.563,12.112,15.238,20.317,36.728,29.304,-2.735,-14.847,-26.569,5.079,15.238
'[14:23:41.152 02/09/2075]',20.708,12.894,5.470,-0.781,-4.298,52.747,1.563,-10.940,-7.033,23.053,25.397,9.377,4.298,11.722,14.847,18.364,41.026,25.397,-4.689,-16.410,-25.788,5.470,14.847
'[14:23:41.156 02/09/2075]',20.317,11.331,7.424,-0.781,-4.298,54.701,-0.391,-10.549,-9.377,22.662,23.443,12.112,1.954,12.112,13.284,21.099,45.714,20.708,-6.642,-14.847,-21.490,0.000,13.284
'[14:23:41.160 02/09/2075]',15.629,12.503,7.033,1.954,-3.516,54.310,-1.172,-9.377,-9.377,21.880,22.271,13.284,0.391,10.159,12.503,23.443,48.449,19.927,-6.252,-20.317,-18.755,1.563,12.503
'[14:23:41.164 02/09/2075]',14.847,11.722,8.596,0.781,0.391,52.747,0.391,-15.629,-5.079,17.192,23.053,8.987,2.344,8.205,11.722,21.099,50.794,15.238,-7.814,-20.317,-19.927,4.689,11.722
'[14:23:41.168 02/09/2075]',17.192,8.205,10.549,0.000,4.689,52.357,-1.954,-17.582,-0.781,11.722,19.927,3.907,2.344,5.470,11.331,14.847,52.747,6.642,-9.768,-16.801,-17.973,2.735,11.331
'[14:23:41.172 02/09/2075]',14.457,4.689,12.503,0.000,7.814,47.277,-5.079,-16.410,0.781,5.470,12.894,4.298,0.000,1.954,8.596,13.675,50.794,1.563,-11.722,-16.410,-10.940,1.172,8.596
'[14:23:41.176 02/09/2075]',11.722,6.252,9.377,0.000,9.768,42.979,-2.735,-21.099,5.079,2.344,9.377,-1.563,2.735,-0.781,4.689,7.814,48.840,-0.391,-8.596,-19.536,-8.596,9.768,4.689
'[14:23:41.180 02/09/2075]',11.331,4.298,8.205,2.344,9.768,43.370,-2.735,-22.662,7.424,1.563,8.987,-6.642,4.298,-0.391,3.907,3.516,50.403,-3.126,-7.424,-14.066,-5.861,8.596,3.907
'[14:23:41.184 02/09/2075]',7.424,1.563,12.112,2.735,4.689,42.589,-2.344,-20.317,5.470,0.781,8.596,-5.079,1.172,0.391,4.298,3.907,52.747,-1.954,-11.331,-10.159,-1.954,6.252,4.298
'[14:23:41.188 02/09/2075]',3.907,3.126,7.814,6.252,3.126,42.589,0.391,-23.834,7.814,0.391,8.987,-8.987,2.344,1.172,1.954,1.563,54.701,-0.391,-7.033,-14.847,-1.172,13.284,1.954
'[14:23:41.191 02/09/2075]',2.735,3.516,5.079,8.205,2.735,43.761,2.735,-29.304,8.987,0.781,8.596,-16.410,1.172,2.735,0.781,-2.735,55.092,-2.735,-4.298,-15.238,-1.954,19.536,0.781
'[14:23:41.195 02/09/2075]',4.298,0.000,13.675,2.735,5.079,40.244,2.735,-26.178,10.549,2.735,3.516,-19.927,-1.172,4.298,1.954,-7.424,54.310,-3.907,-12.894,-12.112,1.172,14.457,1.954
'[14:23:41.199 02/09/2075]',4.689,-1.954,12.503,4.298,7.424,35.946,0.781,-23.443,13.284,1.563,-2.344,-20.708,-1.563,0.781,-0.391,-6.252,52.357,-4.298,-11.722,-13.284,3.126,14.847,-0.391
'[14:23:41.203 02/09/2075]',1.172,-2.735,10.940,3.907,8.987,28.523,2.735,-26.178,17.582,1.563,-5.470,-27.741,0.391,-1.563,-1.563,-9.768,49.231,-3.907,-10.159,-14.457,1.954,19.927,-1.563
'[14:23:41.207 02/09/2075]',1.172,-6.642,13.284,1.172,14.457,17.973,-0.391,-23.834,21.099,0.391,-10.940,-28.913,2.735,-4.689,-3.907,-11.722,46.105,-6.642,-12.503,-7.424,4.689,13.284,-3.907
'[14:23:41.211 02/09/2075]',-1.563,-8.987,9.377,1.954,5.470,21.880,-6.252,-19.927,23.053,-3.126,-18.364,-26.960,1.563,-7.033,-7.033,-11.722,42.589,-10.159,-8.596,-5.079,7.424,8.596,-7.033
'[14:23:41.215 02/09/2075]',-3.126,-5.861,3.907,2.344,3.907,21.099,-4.689,-23.443,27.741,-8.205,-21.490,-28.913,2.735,-8.987,-10.549,-13.675,33.993,-10.159,-3.126,-8.596,6.252,13.675,-10.549
'[14:23:41.219 02/09/2075]',1.563,-5.470,2.735,0.000,15.629,10.159,-3.907,-24.225,33.602,-10.940,-24.615,-32.430,5.470,-9.377,-12.894,-17.582,28.132,-13.284,-1.954,-6.642,3.126,14.066,-12.894
'[14:23:41.223 02/09/2075]',1.172,-4.689,1.954,-1.172,16.410,7.033,-8.596,-16.410,35.556,-16.410,-30.476,-28.913,1.954,-10.159,-14.457,-16.801,22.662,-14.847,-1.172,-6.642,5.079,8.596,-14.457
'[14:23:41.227 02/09/2075]',-0.781,-3.516,0.000,-1.954,16.410,0.781,-10.940,-14.457,38.681,-23.053,-35.165,-26.178,-1.954,-9.768,-16.020,-16.801,15.629,-16.410,0.781,-11.331,7.424,8.596,-16.020
'[14:23:41.230 02/09/2075]',0.391,-1.563,-4.689,-3.907,25.788,-7.814,-8.987,-19.536,42.198,-24.615,-34.774,-32.039,0.391,-10.940,-16.410,-21.099,11.331,-19.927,5.470,-13.284,3.516,12.112,-16.410
'[14:23:41.234 02/09/2075]',1.172,-2.735,-3.126,-5.079,28.523,-8.987,-12.112,-17.192,43.370,-25.788,-34.383,-29.304,-0.781,-11.331,-13.284,-19.536,7.814,-23.834,3.907,-10.940,2.344,7.033,-13.284
'[14:23:41.238 02/09/2075]',0.391,-0.781,-5.861,-2.344,30.867,-9.377,-13.675,-16.020,45.714,-30.085,-35.165,-23.053,-3.126,-10.159,-12.112,-16.020,1.172,-25.397,6.642,-16.801,0.391,10.940,-12.112
'[14:23:41.242 02/09/2075]',-1.563,2.344,-8.987,0.391,37.509,-15.629,-10.940,-17.973,48.059,-30.476,-33.211,-20.708,-1.172,-8.596,-11.722,-13.675,-3.516,-26.569,9.768,-22.662,-3.516,18.755,-11.722
'[14:23:41.246 02/09/2075]',-1.172,2.735,0.781,-4.298,40.635,-17.192,-11.722,-12.112,49.621,-33.602,-31.648,-14.066,-2.735,-5.861,-9.768,-9.768,-8.596,-28.913,0.000,-20.317,-3.516,13.284,-9.768
'[14:23:41.250 02/09/2075]',-0.781,0.391,3.907,-3.516,42.979,-19.536,-16.020,-5.861,49.621,-37.509,-33.211,-5.470,-2.344,-6.252,-12.503,-3.516,-14.457,-29.695,-3.126,-17.192,-0.391,7.814,-12.503
'[14:23:41.254 02/09/2075]',-3.126,3.516,2.344,-5.470,45.714,-26.178,-13.284,-8.987,48.449,-38.291,-32.430,-3.907,-0.391,-7.814,-14.457,-1.954,-16.801,-31.258,-1.563,-21.099,-2.344,12.112,-14.457
'[14:23:41.258 02/09/2075]',-0.781,3.516,3.126,-7.033,48.059,-26.569,-12.894,-8.596,48.449,-37.900,-31.258,-3.516,0.391,-7.424,-14.847,-0.391,-20.708,-33.211,-2.344,-20.317,-3.516,12.894,-14.847
'[14:23:41.262 02/09/2075]',0.000,1.563,3.126,-3.907,47.668,-26.960,-17.582,-2.344,48.449,-39.072,-34.774,2.344,-0.781,-8.987,-16.801,4.298,-25.006,-35.165,-2.344,-16.801,-2.344,8.987,-16.801
'[14:23:41.266 02/09/2075]',-3.126,2.344,-1.563,0.781,50.794,-31.648,-19.536,-0.391,48.840,-41.416,-36.728,4.689,-1.563,-10.159,-20.317,9.377,-28.132,-35.165,2.344,-19.145,-3.516,12.503,-20.317
'[14:23:41.270 02/09/2075]',-3.907,2.344,-1.563,1.954,53.138,-35.165,-17.192,-0.391,48.840,-42.979,-34.383,3.516,-1.563,-12.112,-20.708,10.940,-30.476,-35.556,2.344,-19.145,-3.126,13.675,-20.708
'[14:23:41.273 02/09/2075]',-3.907,0.391,2.344,2.344,51.184,-33.211,-19.145,3.516,49.621,-46.105,-33.211,5.079,-5.079,-13.284,-19.145,13.675,-32.821,-35.165,-1.563,-12.503,-6.252,8.205,-19.145
'[14:23:41.277 02/09/2075]',-6.642,1.563,3.907,4.689,46.496,-30.476,-17.973,6.642,47.277,-48.059,-29.695,7.424,-8.596,-13.284,-17.192,18.364,-32.039,-31.648,-3.126,-13.675,-5.470,5.470,-17.192
'[14:23:41.281 02/09/2075]',-7.033,3.126,1.172,7.424,44.933,-31.258,-12.503,5.079,44.933,-45.714,-22.662,6.252,-7.424,-14.066,-14.847,20.708,-32.039,-27.350,-0.391,-16.410,-8.987,9.377,-14.847
'[14:23:41.285 02/09/2075]',-5.470,1.563,-1.172,11.331,42.979,-32.039,-10.549,5.079,42.589,-43.761,-18.364,4.298,-6.642,-13.284,-14.847,20.708,-32.821,-26.178,1.954,-14.457,-10.940,9.377,-14.847
'[14:23:41.289 02/09/2075]',-6.642,-1.563,-4.298,13.675,38.291,-33.602,-11.722,7.424,35.946,-41.416,-19.536,7.033,-8.987,-13.675,-16.410,22.662,-32.821,-24.225,5.079,-14.457,-7.424,6.252,-16.410
'[14:23:41.293 02/09/2075]',-8.205,-4.298,-10.549,16.801,34.383,-33.993,-13.284,6.252,31.648,-41.807,-20.708,8.205,-10.549,-13.675,-16.801,19.927,-32.430,-22.271,11.331,-17.973,-4.298,8.205,-16.801
'[14:23:41.297 02/09/2075]',-7.814,-7.033,-9.768,11.722,30.867,-32.821,-11.722,0.391,28.523,-40.244,-18.755,1.954,-11.331,-12.894,-13.675,10.159,-30.867,-22.271,10.549,-14.847,-3.907,6.252,-13.675
'[14:23:41.301 02/09/2075]',-4.298,-9.377,-3.907,5.861,27.741,-25.397,-13.284,-0.781,25.397,-40.244,-15.629,2.344,-13.675,-13.284,-9.768,9.768,-27.350,-23.053,4.689,-10.159,-4.689,-1.563,-9.768
'[14:23:41.305 02/09/2075]',-5.861,-7.814,-3.907,3.907,24.225,-20.317,-14.457,-3.516,21.099,-39.463,-15.238,5.861,-14.847,-14.066,-8.596,11.722,-23.053,-22.662,4.689,-14.847,-6.252,1.172,-8.596
'[14:23:41.309 02/09/2075]',-7.424,-4.298,-7.033,1.563,24.615,-17.582,-13.675,-9.377,19.145,-36.337,-13.675,2.735,-13.675,-13.284,-8.596,10.159,-17.973,-24.615,7.814,-16.801,-10.940,5.470,-8.596
'[14:23:41.313 02/09/2075]',-2.735,-4.689,-7.033,1.172,25.006,-8.987,-18.755,-10.159,17.582,-31.648,-14.847,3.126,-14.066,-12.112,-10.159,12.112,-11.331,-26.178,7.814,-12.112,-13.284,-0.781,-10.159
'[14:23:41.316 02/09/2075]',-1.172,-7.424,-9.768,1.954,27.741,-7.033,-25.006,-11.722,16.020,-27.350,-17.973,4.298,-13.284,-11.331,-10.940,12.503,-4.298,-26.960,10.549,-12.503,-12.503,-2.735,-10.940
'[14:23:41.320 02/09/2075]',-0.391,-5.861,-12.894,-0.391,31.258,-7.814,-23.443,-20.708,17.582,-21.490,-16.020,-1.563,-7.814,-9.377,-10.159,6.642,2.735,-27.741,13.675,-16.410,-13.284,1.954,-10.159
'[14:23:41.324 02/09/2075]',2.344,-5.470,-10.940,-5.470,28.132,-1.172,-21.880,-25.788,15.629,-16.410,-10.549,-6.642,-6.642,-5.861,-6.642,1.954,7.424,-28.132,11.722,-15.238,-14.847,0.391,-6.642
'[14:23:41.328 02/09/2075]',3.126,-6.642,-9.768,-5.861,22.271,3.907,-24.225,-22.662,10.159,-13.675,-8.987,-1.172,-7.424,-4.298,-4.298,3.907,11.331,-28.523,10.549,-14.457,-12.503,-4.298,-4.298
'[14:23:41.332 02/09/2075]',2.344,-4.298,-14.066,-3.516,20.317,5.470,-23.053,-23.443,5.470,-13.284,-5.470,0.000,-5.861,-5.861,-4.298,3.907,12.112,-26.569,14.847,-16.020,-13.675,-1.563,-4.298
'[14:23:41.336 02/09/2075]',1.172,-2.735,-15.629,-1.172,16.410,7.033,-19.145,-23.834,0.391,-13.284,-1.172,0.000,-7.033,-7.033,-3.126,3.907,10.940,-23.834,16.410,-15.238,-15.629,0.000,-3.126
'[14:23:41.340 02/09/2075]',0.781,-5.470,-14.066,0.391,12.112,10.940,-22.271,-19.927,-3.126,-12.112,-2.344,1.954,-10.159,-6.252,-2.735,4.298,9.768,-20.708,14.847,-8.987,-13.675,-5.470,-2.735
'[14:23:41.344 02/09/2075]',-1.563,-7.424,-15.238,1.172,7.033,13.284,-24.225,-19.536,-5.861,-10.549,-6.642,1.172,-13.284,-3.516,-5.079,1.563,10.940,-20.708,16.020,-10.940,-8.987,-3.516,-5.079
'[14:23:41.348 02/09/2075]',-3.516,-6.252,-8.205,-8.596,3.907,13.675,-19.536,-26.569,-7.033,-8.987,-5.079,-5.470,-14.066,-1.954,-5.079,-4.298,10.940,-21.099,8.987,-12.503,-12.503,2.735,-5.079
'[14:23:41.352 02/09/2075]',-2.735,-6.252,-6.252,-10.549,4.298,15.238,-17.192,-30.085,-11.331,-4.298,-3.516,-10.159,-15.629,0.391,-4.689,-8.596,12.112,-21.880,7.033,-9.768,-14.066,4.298,-4.689
'[14:23:41.355 02/09/2075]',-2.735,-8.596,-3.516,-8.987,3.126,15.238,-21.490,-24.225,-14.457,-3.907,-7.424,-5.861,-18.364,0.781,-5.861,-7.814,15.238,-23.443,4.298,-7.814,-6.642,0.000,-5.861
'[14:23:41.359 02/09/2075]',-6.252,-8.987,-5.470,-8.205,5.079,7.424,-20.708,-22.662,-15.238,-5.470,-9.768,-5.470,-17.973,-2.344,-6.642,-7.814,12.894,-26.569,6.252,-8.205,-7.814,3.126,-6.642
'[14:23:41.363 02/09/2075]',-5.079,-10.549,-5.079,-6.252,5.079,3.516,-18.364,-19.927,-13.284,-5.861,-7.424,-5.470,-16.020,-2.735,-5.079,-7.424,11.331,-28.913,5.861,-0.781,-8.596,-0.391,-5.079
'[14:23:41.367 02/09/2075]',-6.252,-15.629,-1.563,-6.252,3.516,0.391,-22.271,-13.284,-10.159,-6.642,-8.987,-2.735,-13.284,-4.298,-3.516,-7.033,8.596,-30.476,2.344,5.470,-1.172,-9.377,-3.516
'[14:23:41.371 02/09/2075]',-10.159,-16.020,-2.735,-6.642,1.172,-5.079,-19.927,-12.503,-7.814,-8.205,-6.642,-3.516,-10.549,-4.298,-1.563,-8.987,3.516,-28.913,3.516,3.126,-1.954,-2.735,-1.563
'[14:23:41.375 02/09/2075]',-11.722,-14.457,-4.298,-3.907,0.391,-9.377,-14.066,-11.722,-7.814,-5.079,-0.391,-8.596,-7.814,-1.563,1.954,-13.675,-1.172,-25.788,5.079,3.126,-0.391,3.516,1.954
'[14:23:41.379 02/09/2075]',-10.940,-17.192,-2.344,0.781,-0.781,-10.549,-16.410,-2.344,-10.940,-1.954,0.781,-5.079,-9.768,0.391,4.689,-13.284,-6.252,-20.317,3.126,8.596,5.861,-0.391,4.689
'[14:23:41.383 02/09/2075]',-13.675,-19.927,-2.344,4.298,-0.391,-19.927,-17.192,5.079,-15.238,-0.391,-0.391,-1.954,-12.894,0.000,5.079,-10.159,-13.284,-13.675,3.126,9.768,9.768,-0.391,5.079
'[14:23:41.387 02/09/2075]',-17.192,-17.973,-5.079,5.470,0.781,-28.523,-13.675,5.470,-16.410,2.344,0.000,-5.861,-10.940,-1.563,5.470,-12.503,-21.099,-9.768,5.861,8.205,10.159,3.516,5.470
'[14:23:41.391 02/09/2075]',-16.410,-16.410,2.735,-6.642,-0.391,-28.913,-12.894,5.470,-16.410,4.298,-1.563,-7.424,-13.284,0.391,7.424,-16.020,-29.695,-8.596,-1.954,10.159,8.205,1.172,7.424
'[14:23:41.395 02/09/2075]',-18.755,-15.238,4.689,-10.549,-7.033,-26.960,-14.847,8.987,-17.192,3.126,-4.298,-2.344,-16.020,0.781,12.112,-17.582,-37.900,-5.079,-3.907,9.768,6.642,-1.172,12.112
'[14:23:41.398 02/09/2075]',-20.317,-10.549,2.344,-13.284,-7.033,-27.741,-11.722,5.470,-14.847,3.126,-4.298,-2.344,-12.112,-0.781,15.238,-20.317,-44.151,-2.344,-1.563,4.689,2.735,5.079,15.238
'[14:23:41.402 02/09/2075]',-16.020,-8.596,2.735,-14.457,-4.689,-26.960,-8.205,3.516,-13.675,4.298,-3.516,0.391,-8.205,-1.954,18.755,-20.317,-46.886,-0.781,-1.954,3.907,-0.391,5.861,18.755
'[14:23:41.406 02/09/2075]',-16.410,-10.159,2.344,-12.894,-8.987,-25.006,-11.331,7.424,-17.973,5.470,-6.252,5.861,-9.377,-3.126,17.582,-16.410,-48.840,0.781,-1.563,7.424,1.954,-1.563,17.582
'[14:23:41.410 02/09/2075]',-18.364,-10.940,0.781,-12.112,-11.331,-26.178,-11.722,8.205,-21.490,6.252,-9.768,8.205,-10.159,-3.516,12.503,-13.675,-48.449,2.735,0.000,5.079,7.033,-2.344,12.503
'[14:23:41.414 02/09/2075]',-17.192,-8.596,0.391,-12.894,-10.940,-26.178,-7.033,5.470,-23.834,9.377,-7.424,2.344,-7.033,-3.126,8.987,-16.801,-46.496,1.954,0.391,3.907,7.033,-0.781,8.987
'[14:23:41.418 02/09/2075]',-14.457,-9.768,2.344,-13.675,-12.503,-22.662,-6.252,5.079,-24.615,11.331,-5.861,-2.735,-6.642,-1.563,6.252,-19.145,-44.542,2.344,-1.563,8.205,8.205,-5.079,6.252
'[14:23:41.422 02/09/2075]',-16.020,-10.159,2.735,-14.066,-13.284,-22.662,-7.424,6.252,-25.788,8.987,-8.596,-2.735,-8.596,-3.907,1.954,-17.192,-42.198,5.470,-1.954,6.642,7.814,-5.861,1.954
'[14:23:41.426 02/09/2075]',-14.847,-5.861,1.954,-16.020,-11.722,-21.099,-5.470,2.735,-22.271,7.814,-10.159,-7.814,-7.033,-7.424,0.391,-17.582,-40.635,6.642,-1.172,1.954,3.126,-1.563,0.391
'[14:23:41.430 02/09/2075]',-13.284,-7.424,0.391,-16.801,-13.284,-18.755,-6.252,0.781,-19.536,6.252,-12.112,-10.940,-7.814,-9.768,-1.172,-17.192,-38.291,4.298,0.391,7.814,0.391,-8.987,-1.172
'[14:23:41.434 02/09/2075]',-13.675,-9.377,0.781,-17.192,-11.722,-20.708,-9.768,2.344,-19.536,1.172,-15.629,-10.940,-10.940,-13.284,-5.079,-14.457,-36.728,0.781,0.000,10.159,2.344,-16.020,-5.079
'[14:23:41.438 02/09/2075]',-16.801,-4.689,-2.735,-15.629,-8.596,-25.006,-8.596,0.391,-17.582,-0.781,-15.629,-13.284,-10.940,-14.066,-6.642,-15.629,-35.556,-1.563,3.516,2.735,1.563,-8.987,-6.642
'[14:23:41.441 02/09/2075]',-16.801,0.391,-7.814,-11.722,-3.516,-26.960,-3.907,-1.172,-13.675,-3.516,-11.331,-16.410,-8.205,-12.112,-6.252,-18.755,-35.556,-4.298,8.596,1.172,2.344,-6.642,-6.252
'[14:23:41.445 02/09/2075]',-14.457,0.391,-3.126,-12.112,0.391,-27.741,-5.470,2.735,-12.894,-7.424,-10.549,-10.159,-7.814,-11.722,-5.470,-14.847,-37.900,-3.516,3.907,2.735,7.033,-11.722,-5.470
'[14:23:41.449 02/09/2075]',-13.675,3.516,-4.298,-12.894,7.033,-32.430,-8.987,5.470,-11.722,-11.722,-11.331,-4.298,-7.424,-14.847,-5.079,-11.722,-39.463,-2.735,5.079,0.000,3.516,-10.940,-5.079
