'Time and date','FP1-F7','F7-T7','T7-P7','P7-O1','FP1-F3','F3-C3','C3-P3','P3-O1','FP2-F4','F4-C4','C4-P4','P4-O2','FP2-F8','F8-T8','T8-P8','P8-O2','FZ-CZ','CZ-PZ','P7-T7','T7-FT9','FT9-FT10','FT10-T8','T8-P8'
'hh:mm:ss.mmm dd/mm/yyyy','uV','uV','uV','uV','uV','uV','uV','uV','uV','uV','uV','uV','uV','uV','uV','uV','uV','uV','uV','uV','uV','uV','uV'
'[11:42:54.000 06/11/2076]',-145.739,-104.322,-42.589,-32.821,-170.745,-110.574,12.112,-56.264,-139.096,-1.172,64.078,-14.066,-267.643,57.436,44.933,75.018,-105.885,84.786,43.370,-57.045,-264.518,94.945,44.933
'[11:42:54.004 06/11/2076]',0.391,0.391,0.391,0.391,0.391,0.391,0.391,0.391,0.391,0.391,0.391,0.391,0.391,0.391,0.391,0.391,0.391,0.391,0.391,0.391,0.391,0.391,0.391
'[11:42:54.008 06/11/2076]',0.391,0.391,0.391,0.391,0.391,0.391,0.391,0.391,0.391,0.391,0.391,0.391,0.391,0.391,0.391,0.000,0.391,0.391,0.391,0.391,0.781,0.391,0.391
'[11:42:54.012 06/11/2076]',0.391,0.781,0.391,0.781,0.391,0.391,0.391,0.391,0.391,0.391,0.391,-1.172,-0.391,1.563,0.391,-1.954,0.391,0.391,0.391,-0.391,1.954,0.391,0.391
'[11:42:54.016 06/11/2076]',0.391,0.391,0.391,0.000,0.391,0.391,0.391,0.391,0.391,0.391,0.391,0.781,0.000,0.391,0.391,1.172,0.391,0.391,0.391,0.781,-1.954,0.391,0.391
'[11:42:54.020 06/11/2076]',1.172,-1.172,1.563,-1.172,0.391,0.391,0.781,-0.781,1.563,0.391,0.781,7.814,4.689,-5.861,0.781,10.940,0.391,0.391,-0.781,5.079,-6.642,-0.391,0.781
'[11:42:54.023 06/11/2076]',0.781,-3.516,3.126,0.000,-0.391,0.781,0.391,0.000,1.954,-0.391,0.391,7.424,4.689,-3.907,0.000,8.596,-0.391,0.000,-2.344,3.907,-0.781,0.391,0.000
'[11:42:54.027 06/11/2076]',-1.563,-0.781,0.391,1.954,-1.172,0.391,-0.781,1.954,-0.781,0.000,-0.391,-5.861,-5.470,7.814,0.000,-10.159,-0.391,0.000,0.391,-4.298,8.596,2.735,0.000
'[11:42:54.031 06/11/2076]',-1.172,3.126,-3.126,1.172,-0.391,-0.781,0.000,1.563,-1.563,0.391,0.391,-9.377,-7.424,7.033,2.344,-12.503,0.391,0.781,3.907,-5.470,1.563,1.172,2.344
'[11:42:54.035 06/11/2076]',3.126,1.563,-1.172,-1.172,2.344,-0.391,1.172,-1.563,3.126,0.391,1.172,7.814,7.814,-10.159,2.735,12.503,0.391,0.781,1.954,5.861,-11.331,-3.516,2.735
'[11:42:54.039 06/11/2076]',4.298,-5.470,3.907,-5.079,0.781,0.391,0.391,-3.516,2.735,-0.391,1.172,28.523,13.675,-18.364,-0.781,37.900,-1.172,0.000,-3.126,16.801,-23.053,-0.391,-0.781
'[11:42:54.043 06/11/2076]',3.907,-21.880,13.284,-14.457,-10.159,-1.563,1.563,-7.424,3.126,-4.298,2.344,61.343,16.801,-34.383,3.126,77.753,-7.814,1.563,-12.503,35.946,-58.217,1.563,3.126
'[11:42:54.047 06/11/2076]',2.344,-42.198,24.225,-12.894,-16.410,-1.172,-0.391,-9.377,17.582,-9.768,-0.391,80.879,38.291,-52.747,5.079,96.508,-12.112,-1.954,-23.443,46.886,-49.231,-2.735,5.079
'[11:42:54.051 06/11/2076]',-3.907,-51.575,19.536,-6.252,-28.132,-2.735,-8.205,-1.954,15.629,-15.238,-4.298,69.158,20.317,-32.821,4.298,73.455,-18.755,-4.298,-18.755,37.118,-41.807,7.814,4.298
'[11:42:54.055 06/11/2076]',-1.563,-39.463,3.516,-5.861,-22.271,-7.424,-11.331,-1.954,5.470,-14.066,-5.470,55.092,-0.781,-24.225,15.629,48.840,-20.317,-5.861,-2.735,22.271,-48.449,11.722,15.629
'[11:42:54.059 06/11/2076]',3.907,-27.741,-5.470,-9.768,-11.722,-7.814,-14.847,-3.516,1.954,-10.940,-5.861,58.999,4.689,-42.198,23.834,56.654,-18.364,-7.424,6.252,22.662,-64.469,4.689,23.834
'[11:42:54.063 06/11/2076]',9.377,-15.629,-10.549,-16.020,-1.954,-6.252,-18.364,-5.861,-2.735,-8.205,-7.424,62.515,3.907,-39.072,15.238,62.125,-18.364,-10.159,11.331,23.443,-76.972,13.284,15.238
'[11:42:54.066 06/11/2076]',11.331,-12.112,-5.861,-22.271,2.344,-1.563,-19.536,-8.987,-25.397,-0.391,-7.424,62.906,-16.410,-18.364,6.252,57.436,-17.192,-9.377,6.642,22.662,-73.846,30.085,6.252
'[11:42:54.070 06/11/2076]',5.079,-27.741,5.470,-21.490,-7.814,3.126,-20.317,-14.066,-2.735,2.344,-10.549,55.482,13.284,-28.523,9.377,49.231,-15.629,-7.814,-4.689,27.741,-37.509,11.722,9.377
'[11:42:54.074 06/11/2076]',1.172,-38.291,6.252,-12.503,-16.410,8.205,-19.536,-15.238,15.629,0.391,-14.457,44.933,34.774,-16.801,-12.112,41.026,-15.238,-8.987,-5.470,39.463,-12.894,14.847,-12.112
'[11:42:54.078 06/11/2076]',4.689,-25.788,0.391,-13.284,-17.582,16.801,-16.801,-16.020,24.615,1.563,-14.847,44.151,43.370,-18.755,-3.126,35.165,-12.894,-7.033,0.391,28.132,-5.470,13.675,-3.126
'[11:42:54.082 06/11/2076]',11.331,-20.708,-11.331,-13.675,-21.099,20.708,-16.020,-18.364,29.695,-1.172,-17.582,48.059,51.966,-44.542,7.814,42.979,-10.940,-8.987,12.112,37.118,-19.145,-5.079,7.814
'[11:42:54.086 06/11/2076]',12.894,0.391,-9.377,-19.145,-17.582,26.960,-9.768,-13.675,30.085,-1.954,-20.708,36.728,48.840,-31.258,-4.298,30.476,-7.424,-10.549,10.159,21.490,-14.847,8.205,-4.298
'[11:42:54.090 06/11/2076]',16.020,16.020,-11.722,-16.020,-15.629,32.821,-5.470,-6.642,21.099,2.344,-24.615,26.569,33.211,-17.973,-1.172,11.331,-1.954,-12.503,12.503,7.814,-11.722,16.020,-1.172
'[11:42:54.094 06/11/2076]',21.880,1.563,-7.033,-12.894,-13.675,36.728,-8.987,-9.768,17.582,3.126,-31.258,28.523,39.072,-35.556,-1.954,16.410,-1.563,-19.927,7.814,20.708,0.391,0.391,-1.954
'[11:42:54.098 06/11/2076]',22.662,-13.675,11.331,-11.331,-10.159,44.151,-13.284,-10.940,22.662,4.298,-35.556,30.085,51.966,-39.072,-16.801,26.569,-2.344,-26.960,-10.549,33.211,17.582,-0.391,-16.801
'[11:42:54.102 06/11/2076]',19.145,-16.020,10.940,-5.861,-8.205,43.370,-17.582,-8.205,22.271,3.126,-39.463,14.457,42.589,-24.615,-19.927,4.298,-5.079,-33.602,-10.159,35.165,16.801,13.284,-19.927
'[11:42:54.105 06/11/2076]',14.847,-12.503,0.391,-6.252,-13.284,34.774,-18.755,-5.861,17.582,-1.954,-43.370,7.814,30.867,-29.304,-12.894,-8.205,-4.689,-42.979,0.391,29.304,14.847,6.642,-12.894
'[11:42:54.109 06/11/2076]',11.331,-7.424,-1.563,-0.781,-9.377,29.304,-15.629,-2.344,24.615,-5.470,-47.277,14.847,39.072,-32.039,-21.099,1.954,0.391,-48.449,2.344,28.523,22.271,11.722,-21.099
'[11:42:54.113 06/11/2076]',1.954,-2.344,-7.033,1.954,-14.066,16.801,-8.987,1.172,32.430,-8.205,-53.919,4.689,42.589,-18.364,-24.615,-23.443,7.424,-54.310,7.814,14.066,46.105,23.053,-24.615
'[11:42:54.117 06/11/2076]',-5.861,-1.172,-12.503,8.987,-21.880,5.470,-8.205,12.894,28.913,-18.364,-60.562,3.907,28.913,-19.145,-22.662,-32.430,5.470,-58.608,13.284,-5.079,72.283,10.549,-22.662
'[11:42:54.121 06/11/2076]',-0.781,-10.159,-1.563,3.516,-14.847,12.894,-14.457,6.252,31.648,-26.960,-57.045,3.907,35.946,-39.072,-21.880,-23.053,0.391,-57.436,2.344,13.284,57.827,3.907,-21.880
'[11:42:54.125 06/11/2076]',0.391,-21.099,0.391,5.861,-10.940,12.894,-20.708,5.079,33.211,-32.430,-58.217,-1.172,40.635,-39.853,-42.198,-16.410,-5.861,-57.045,0.391,31.648,49.231,9.377,-42.198
'[11:42:54.129 06/11/2076]',-6.642,-36.337,11.331,5.861,-14.847,10.940,-25.006,3.907,25.397,-35.946,-59.780,-9.377,33.602,-37.900,-53.138,-21.490,-12.112,-62.125,-10.549,40.244,62.515,8.987,-53.138
'[11:42:54.133 06/11/2076]',-8.205,-46.496,15.629,4.689,-16.410,11.722,-26.960,-1.563,21.490,-38.291,-62.125,-9.768,28.132,-45.714,-56.654,-14.457,-11.722,-65.250,-14.847,53.138,59.780,4.689,-56.654
'[11:42:54.137 06/11/2076]',-14.066,-46.886,9.377,3.126,-23.053,7.033,-28.913,-2.344,14.066,-39.072,-67.204,-12.503,15.238,-56.264,-45.324,-17.192,-8.205,-70.720,-8.596,52.357,50.794,-2.344,-45.324
'[11:42:54.141 06/11/2076]',-24.615,-55.873,19.536,-0.391,-33.211,-1.172,-27.350,1.172,5.079,-38.681,-71.893,-22.662,2.344,-50.012,-51.184,-28.523,-8.987,-75.409,-18.755,47.668,75.018,-6.252,-51.184
'[11:42:54.145 06/11/2076]',-25.397,-44.933,17.973,-5.079,-31.258,0.391,-25.788,0.391,3.516,-37.900,-69.548,-21.490,0.391,-53.919,-46.105,-25.006,-8.596,-73.455,-17.192,41.807,71.893,-10.940,-46.105
'[11:42:54.148 06/11/2076]',-19.536,-21.490,6.642,-12.112,-23.443,8.205,-27.741,-3.126,5.861,-34.383,-62.515,-20.708,7.814,-43.370,-60.562,-16.020,-8.987,-69.158,-5.861,35.165,50.012,7.033,-60.562
'[11:42:54.152 06/11/2076]',-18.364,-26.569,5.079,-6.252,-23.443,8.205,-30.867,0.000,3.126,-28.132,-60.171,-31.258,7.424,-39.072,-58.217,-25.788,-8.596,-67.595,-4.298,33.211,59.389,1.563,-58.217
'[11:42:54.156 06/11/2076]',-25.006,-31.258,3.907,1.563,-26.569,6.252,-31.648,0.391,0.391,-21.880,-62.125,-35.165,6.642,-40.244,-53.529,-32.039,-6.252,-67.204,-3.126,29.304,82.051,-10.159,-53.529
'[11:42:54.160 06/11/2076]',-24.225,-29.695,-8.987,3.126,-29.304,1.954,-32.039,-0.781,1.172,-17.192,-65.250,-27.350,13.675,-33.211,-68.376,-21.099,-1.954,-66.813,9.768,28.132,73.065,4.689,-68.376
'[11:42:54.164 06/11/2076]',-34.774,-49.621,-11.331,12.112,-40.244,-13.284,-32.430,3.126,-3.907,-15.629,-72.674,-22.662,16.801,-54.701,-47.277,-29.695,-1.172,-67.985,12.112,28.523,92.991,-11.331,-47.277
'[11:42:54.168 06/11/2076]',-44.933,-51.184,-8.987,8.596,-49.621,-21.880,-25.006,0.000,-10.159,-11.722,-71.502,-40.244,6.252,-32.039,-66.032,-44.151,-1.954,-63.687,9.768,17.192,120.342,-3.907,-66.032
'[11:42:54.172 06/11/2076]',-45.324,-37.900,-19.536,2.735,-51.184,-18.755,-21.880,-7.424,-9.377,-12.894,-64.469,-44.933,5.470,-23.053,-72.283,-42.589,-3.516,-53.919,20.317,12.112,108.230,3.907,-72.283
'[11:42:54.176 06/11/2076]',-39.463,-30.867,-19.145,0.781,-45.714,-7.033,-25.397,-9.768,-7.033,-16.801,-56.264,-25.788,17.192,-40.244,-67.595,-16.020,-5.861,-48.449,19.927,19.145,93.382,-3.907,-67.595
'[11:42:54.180 06/11/2076]',-35.946,-32.821,-5.470,-0.391,-38.681,1.563,-28.913,-9.377,-1.954,-16.020,-53.919,-13.675,23.443,-37.118,-75.409,2.344,-1.954,-45.714,6.252,24.225,96.899,-3.516,-75.409
'[11:42:54.184 06/11/2076]',-33.211,-17.192,-12.503,-1.172,-33.993,10.549,-32.821,-8.596,2.344,-19.536,-53.138,-3.516,23.443,-18.755,-86.349,6.252,1.172,-47.277,13.284,14.066,90.256,13.284,-86.349
'[11:42:54.188 06/11/2076]',-30.867,-17.973,-5.861,-7.814,-29.304,9.377,-33.993,-9.768,3.126,-21.880,-53.919,-16.801,19.536,-37.509,-62.125,-9.377,5.079,-51.184,6.642,16.410,75.018,1.563,-62.125
'[11:42:54.191 06/11/2076]',-30.085,-32.039,0.391,-10.159,-27.350,1.563,-33.993,-12.112,6.252,-21.490,-57.436,-28.523,19.927,-47.277,-62.515,-12.894,3.126,-55.873,0.391,23.053,84.396,-12.503,-62.515
'[11:42:54.195 06/11/2076]',-31.258,-37.509,0.781,-13.284,-28.913,-2.735,-32.430,-17.192,2.735,-24.225,-57.436,-38.291,16.801,-46.886,-71.502,-16.801,-2.344,-59.780,0.000,29.695,87.131,-18.364,-71.502
'[11:42:54.199 06/11/2076]',-30.867,-35.556,5.079,-19.927,-29.695,-3.126,-31.648,-16.801,-0.781,-25.006,-57.436,-33.211,14.847,-67.595,-50.403,-14.066,-9.377,-60.562,-4.298,30.867,75.409,-32.039,-50.403
'[11:42:54.203 06/11/2076]',-32.430,-26.178,9.377,-23.443,-30.085,-1.172,-32.039,-8.987,-1.563,-22.662,-59.389,-23.053,16.410,-58.999,-65.250,0.391,-10.940,-59.780,-8.596,25.006,72.674,-25.397,-65.250
'[11:42:54.207 06/11/2076]',-32.430,-9.768,-8.987,-16.410,-33.602,3.516,-33.602,-5.079,-5.079,-17.582,-56.654,-29.695,15.238,-42.589,-60.952,-21.099,-8.596,-58.999,9.768,13.675,67.985,-15.238,-60.952
'[11:42:54.211 06/11/2076]',-23.834,3.126,-15.238,-15.238,-26.178,14.457,-31.648,-8.205,4.298,-8.987,-50.403,-31.648,20.708,-36.728,-37.509,-32.821,-2.735,-55.482,16.020,5.470,54.701,-12.503,-37.509
'[11:42:54.215 06/11/2076]',-6.642,10.940,-12.894,-13.675,-9.377,22.271,-31.648,-4.298,18.755,-3.516,-44.933,-19.145,35.946,-34.774,-30.476,-19.927,5.861,-53.138,13.675,1.563,42.979,-9.768,-30.476
'[11:42:54.219 06/11/2076]',8.205,10.940,-16.020,-11.331,3.516,22.271,-32.430,-1.563,25.788,-0.391,-42.979,-21.099,42.198,-29.304,-27.350,-24.615,13.284,-55.092,16.801,0.781,39.463,-12.112,-27.350
'[11:42:54.223 06/11/2076]',10.549,6.642,-8.987,-8.596,7.033,17.582,-29.695,3.516,27.350,1.954,-43.370,-22.662,47.277,-21.099,-27.350,-35.165,15.629,-55.873,9.768,-2.735,57.436,-12.112,-27.350
'[11:42:54.227 06/11/2076]',9.377,10.159,-5.079,-8.987,7.424,7.424,-26.960,16.801,22.662,3.907,-50.794,6.642,51.966,-26.569,-31.648,-10.159,18.364,-64.469,5.861,-13.284,64.469,-8.987,-31.648
'[11:42:54.230 06/11/2076]',9.768,18.364,-9.377,-11.331,8.205,3.907,-25.006,19.536,22.662,8.596,-51.184,-3.126,49.231,-21.880,-31.258,-17.973,21.099,-69.939,10.159,-19.145,63.297,-9.768,-31.258
'[11:42:54.234 06/11/2076]',7.424,30.476,-14.066,-20.317,7.033,7.814,-25.397,12.894,21.099,5.470,-43.761,-29.304,37.509,-16.020,-27.350,-39.463,19.536,-70.330,14.847,-30.085,65.641,-14.457,-27.350
'[11:42:54.238 06/11/2076]',15.629,48.059,-17.192,-26.960,16.801,17.973,-30.476,13.675,27.350,2.344,-34.774,-27.741,33.602,-16.801,-18.364,-30.476,16.020,-66.813,17.973,-32.430,38.291,-15.629,-18.364
'[11:42:54.242 06/11/2076]',24.225,48.059,-16.801,-26.178,25.397,19.927,-32.430,14.457,37.509,-1.954,-30.085,-22.271,46.496,-19.927,-34.383,-8.987,14.847,-64.078,17.582,-14.847,15.238,-8.987,-34.383
'[11:42:54.246 06/11/2076]',18.755,35.946,-16.801,-25.397,20.317,15.629,-36.337,11.331,39.072,-10.940,-30.476,-21.490,50.794,-42.589,-25.006,-7.424,5.861,-60.952,17.582,-3.516,18.755,-26.960,-25.006
'[11:42:54.250 06/11/2076]',7.033,21.099,-0.391,-26.569,11.722,9.377,-37.118,16.410,36.337,-16.410,-36.728,-10.549,47.277,-38.681,-29.304,-7.424,0.391,-60.171,1.172,1.563,35.165,-23.443,-29.304
'[11:42:54.254 06/11/2076]',7.424,18.364,0.000,-35.946,10.940,1.172,-40.635,17.192,33.211,-19.927,-42.198,-10.159,41.416,-34.774,-42.979,-2.344,0.391,-65.641,0.781,1.172,23.443,-12.894,-42.979
'[11:42:54.258 06/11/2076]',4.689,16.020,-4.298,-38.681,11.722,-3.907,-44.151,13.675,31.648,-19.927,-44.542,-23.834,41.026,-41.026,-39.463,-16.801,0.000,-65.641,5.079,-3.516,34.774,-21.490,-39.463
'[11:42:54.262 06/11/2076]',2.735,14.847,3.907,-45.324,14.847,-5.079,-44.151,11.722,28.913,-19.536,-44.542,-28.523,40.635,-29.695,-55.873,-19.145,1.172,-67.595,-3.126,-6.642,44.542,-11.331,-55.873
'[11:42:54.266 06/11/2076]',7.033,27.350,-12.894,-38.291,21.099,-8.596,-46.105,15.238,29.695,-15.238,-43.761,-23.053,42.979,-29.304,-57.436,-8.205,8.205,-69.158,13.675,-13.284,30.867,-6.252,-57.436
'[11:42:54.270 06/11/2076]',1.172,25.006,-19.536,-28.132,19.927,-10.549,-43.370,12.112,26.178,-12.112,-41.026,-33.211,45.714,-49.231,-38.681,-17.973,12.894,-65.250,20.317,-7.814,33.211,-23.834,-38.681
'[11:42:54.273 06/11/2076]',-4.298,24.225,-21.490,-21.490,13.284,-0.781,-42.979,5.861,22.271,-11.331,-38.291,-36.728,45.714,-66.032,-25.006,-18.364,19.536,-62.515,22.271,-2.735,32.821,-39.072,-25.006
'[11:42:54.277 06/11/2076]',-1.563,24.615,-25.788,-14.457,13.284,1.172,-41.807,6.642,21.880,-11.331,-37.900,-20.317,54.310,-65.641,-34.774,-2.344,23.053,-59.389,26.569,-4.298,31.258,-30.476,-34.774
'[11:42:54.281 06/11/2076]',3.516,24.225,-30.085,-14.066,12.894,3.516,-38.681,4.298,21.099,-11.331,-35.556,-16.801,62.515,-70.330,-35.165,-0.781,24.225,-55.482,30.867,-7.033,33.602,-29.304,-35.165
'[11:42:54.285 06/11/2076]',1.954,26.178,-23.834,-16.801,7.814,4.298,-33.993,6.642,17.192,-10.549,-36.337,-29.695,57.436,-65.641,-35.165,-16.020,25.788,-53.529,24.615,-22.662,52.357,-32.821,-35.165
'[11:42:54.289 06/11/2076]',-1.172,19.927,-14.847,-14.457,2.735,-5.470,-28.523,19.927,12.112,-7.033,-45.714,-29.695,50.012,-41.026,-49.231,-30.476,25.006,-51.575,15.629,-30.867,67.204,-14.066,-49.231
'[11:42:54.293 06/11/2076]',1.563,14.066,-7.033,-19.536,3.516,-6.252,-23.834,14.847,11.722,-1.172,-43.761,-25.006,52.747,-39.463,-44.933,-26.178,27.741,-48.840,7.814,-18.755,61.343,-9.768,-44.933
'[11:42:54.297 06/11/2076]',4.689,12.112,-2.344,-27.350,6.642,0.391,-24.615,4.689,17.973,2.344,-45.324,-25.788,60.952,-57.436,-28.132,-24.615,29.695,-47.668,3.126,-5.861,55.873,-27.741,-28.132
'[11:42:54.301 06/11/2076]',9.377,19.927,-10.940,-25.006,7.033,8.596,-31.258,6.642,13.284,3.126,-42.198,-20.708,53.138,-50.012,-24.225,-25.006,24.225,-44.151,11.722,-5.079,38.291,-21.880,-24.225
'[11:42:54.305 06/11/2076]',14.847,21.490,-13.675,-26.178,8.205,14.066,-32.821,5.470,14.457,3.516,-35.556,-16.801,52.357,-43.761,-16.020,-26.569,24.615,-41.416,14.457,-3.516,33.602,-19.145,-16.020
'[11:42:54.309 06/11/2076]',21.490,25.788,-26.178,-25.788,10.549,17.973,-35.165,0.391,22.271,5.079,-35.946,-19.927,67.204,-57.045,-12.112,-25.788,26.178,-42.589,26.960,-0.781,37.118,-33.993,-12.112
'[11:42:54.313 06/11/2076]',23.834,14.066,-30.867,-17.192,11.722,17.973,-42.589,1.563,23.834,7.033,-37.509,-25.788,71.111,-52.747,-19.145,-30.476,28.523,-48.059,31.648,8.596,37.900,-28.913,-19.145
'[11:42:54.316 06/11/2076]',26.178,5.861,-37.900,-30.085,12.503,12.894,-46.886,-15.629,24.615,3.516,-41.807,-31.258,71.502,-40.244,-35.556,-39.072,29.695,-53.138,38.681,12.112,48.840,-21.490,-35.556
'[11:42:54.320 06/11/2076]',32.821,8.205,-52.357,-31.258,18.755,12.894,-50.012,-24.615,28.523,5.079,-43.370,-33.993,75.018,-46.496,-28.913,-40.635,30.085,-55.092,53.138,14.847,41.026,-26.178,-28.913
'[11:42:54.324 06/11/2076]',33.993,20.708,-42.589,-37.509,21.099,15.629,-44.933,-17.973,23.053,7.424,-42.979,-33.211,69.548,-43.370,-40.244,-29.695,27.350,-53.138,43.370,9.768,32.039,-23.834,-40.244
'[11:42:54.328 06/11/2076]',33.211,32.039,-33.602,-31.648,19.536,20.317,-37.509,-4.298,16.410,7.814,-38.681,-28.132,60.171,-35.946,-33.602,-32.039,24.615,-47.668,34.383,-1.954,35.556,-18.364,-33.602
'[11:42:54.332 06/11/2076]',31.648,39.072,-35.165,-25.788,17.582,25.397,-30.476,-3.516,14.457,8.205,-33.602,-22.271,61.343,-35.946,-34.774,-22.271,24.225,-44.151,35.946,-3.516,30.867,-17.192,-34.774
'[11:42:54.336 06/11/2076]',29.304,36.337,-25.397,-17.192,15.238,33.211,-24.225,-2.344,10.940,7.814,-26.178,-27.350,62.515,-37.509,-38.681,-18.755,25.397,-40.244,26.178,5.470,30.085,-16.801,-38.681
'[11:42:54.340 06/11/2076]',25.006,25.006,-33.602,-5.861,10.549,34.774,-25.788,-10.159,7.814,7.424,-22.662,-27.350,60.562,-24.225,-48.840,-21.880,24.615,-36.337,34.383,15.238,38.681,-9.377,-48.840
'[11:42:54.344 06/11/2076]',22.662,12.503,-34.774,-12.503,3.516,29.304,-21.099,-24.615,4.689,7.814,-20.708,-8.987,66.813,-28.132,-48.449,-5.861,22.271,-33.211,35.556,24.225,43.370,-14.847,-48.449
'[11:42:54.348 06/11/2076]',26.178,20.317,-2.344,1.172,8.205,28.132,-2.344,10.940,9.768,17.582,-17.973,13.675,72.674,-31.648,-28.132,12.112,26.960,-22.271,3.126,12.112,48.059,-19.927,-28.132
'[11:42:54.352 06/11/2076]',22.271,23.053,0.391,19.927,-1.172,23.443,6.252,36.728,3.907,25.006,-23.053,17.192,55.873,-14.847,-18.364,2.735,29.695,-18.364,0.391,-9.768,65.641,-21.490,-18.364
'[11:42:54.355 06/11/2076]',22.662,26.569,2.344,17.582,-3.907,21.099,13.284,37.900,2.735,30.085,-21.490,10.940,51.575,-1.172,-11.722,-14.457,33.211,-17.192,-1.563,-16.801,70.330,-19.927,-11.722
'[11:42:54.359 06/11/2076]',31.258,37.118,7.814,16.020,3.516,29.304,21.099,37.509,13.675,32.039,-11.722,17.192,68.376,-14.066,0.781,-1.954,40.244,-16.020,-7.033,-12.503,57.045,-28.913,0.781
'[11:42:54.363 06/11/2076]',38.291,29.695,6.642,23.053,8.205,39.463,14.847,34.383,19.927,28.132,-4.298,25.397,80.879,-17.582,-6.642,14.457,38.681,-14.457,-5.861,3.907,48.840,-30.867,-6.642
'[11:42:54.367 06/11/2076]',42.979,17.192,7.033,9.377,7.814,42.589,6.642,17.973,19.927,21.880,-1.954,19.927,78.144,-10.549,-12.894,6.642,35.556,-14.457,-6.252,19.927,39.853,-29.695,-12.894
'[11:42:54.371 06/11/2076]',47.668,14.847,21.099,10.159,12.112,46.496,7.424,26.569,21.490,19.145,1.172,26.569,77.363,-11.331,-8.987,13.675,35.946,-8.596,-20.317,23.443,30.085,-29.695,-8.987
'[11:42:54.375 06/11/2076]',51.184,16.020,17.582,14.847,16.410,45.714,5.079,31.648,23.443,19.536,0.000,29.304,83.614,-11.722,-16.801,19.927,36.337,-5.079,-16.801,23.834,33.993,-31.648,-16.801
'[11:42:54.379 06/11/2076]',50.012,18.364,10.159,13.284,17.973,40.244,1.954,31.258,20.708,18.755,-3.907,22.271,82.833,-10.159,-24.225,10.940,35.556,-5.470,-9.377,23.053,33.993,-30.867,-24.225
'[11:42:54.383 06/11/2076]',49.621,20.708,3.126,11.331,23.053,36.337,0.781,24.615,24.615,18.755,-3.907,18.364,88.694,-12.894,-23.053,6.252,33.602,-4.689,-2.344,22.271,40.635,-34.383,-23.053
'[11:42:54.387 06/11/2076]',50.012,26.569,0.781,10.549,32.821,32.821,0.781,21.099,32.039,18.755,-1.563,14.457,97.289,-10.159,-25.788,3.126,31.258,-2.344,0.000,16.020,54.701,-32.039,-25.788
'[11:42:54.391 06/11/2076]',46.496,23.834,-10.940,11.722,34.383,23.443,-1.563,14.066,32.039,16.801,-3.126,4.298,94.554,-5.861,-28.523,-8.205,25.397,-4.298,11.722,16.020,62.125,-30.085,-28.523
'[11:42:54.395 06/11/2076]',41.416,18.755,-2.344,4.689,34.383,23.053,1.563,3.516,35.946,19.145,-3.516,-1.563,92.991,-1.563,-30.085,-10.549,23.053,-1.563,3.126,14.457,72.674,-25.397,-30.085
'[11:42:54.398 06/11/2076]',43.761,24.225,-10.549,15.629,42.198,26.960,2.735,0.781,44.542,19.927,-1.954,1.563,99.243,-1.954,-29.695,-1.172,23.443,1.172,11.331,9.377,76.190,-19.927,-29.695
'[11:42:54.402 06/11/2076]',41.026,34.774,-19.927,10.159,40.635,28.132,2.735,-5.861,44.151,19.145,-4.298,-3.126,93.773,-4.689,-25.006,-6.252,23.834,1.954,20.708,0.000,75.409,-23.053,-25.006
'[11:42:54.406 06/11/2076]',37.900,32.821,0.391,8.987,36.728,30.085,8.987,3.907,44.151,19.927,-7.033,-6.642,85.958,-1.954,-24.615,-7.424,25.788,6.642,0.391,1.563,73.065,-23.834,-24.615
'[11:42:54.410 06/11/2076]',42.979,33.211,0.000,4.298,39.463,28.132,10.549,0.391,46.886,21.099,-8.987,-0.391,89.475,-5.470,-23.834,0.391,29.695,5.470,0.781,7.033,67.595,-27.741,-23.834
'[11:42:54.414 06/11/2076]',38.291,28.132,0.781,-4.689,35.946,17.973,10.549,-3.907,40.635,19.927,-16.801,7.814,85.177,-8.596,-14.847,-8.205,31.648,-1.172,0.000,2.735,78.926,-32.039,-14.847
'[11:42:54.418 06/11/2076]',34.774,28.523,25.788,-7.814,32.039,19.536,20.708,7.033,37.118,21.880,-12.503,-12.894,72.674,12.503,-25.397,-25.006,38.291,-1.954,-25.006,-5.861,88.694,-22.271,-25.397
'[11:42:54.422 06/11/2076]',40.244,34.774,16.801,-1.172,40.635,28.523,17.973,1.954,39.463,22.271,-5.470,-27.350,69.158,23.834,-28.913,-33.602,42.198,-1.172,-16.020,-9.768,83.223,-16.020,-28.913
'[11:42:54.426 06/11/2076]',51.184,28.523,10.159,4.298,53.138,36.728,12.112,-7.424,45.324,20.317,0.391,-12.894,82.442,15.238,-32.039,-11.722,39.853,1.172,-9.377,4.689,69.158,-11.722,-32.039
'[11:42:54.430 06/11/2076]',56.264,19.536,14.847,5.861,57.045,44.542,10.549,-15.238,49.621,20.708,4.689,-13.284,87.131,14.066,-32.430,-5.470,38.681,7.424,-14.066,20.317,57.827,-12.112,-32.430
'[11:42:54.434 06/11/2076]',60.952,23.053,3.907,0.781,59.780,47.668,8.205,-26.960,52.747,21.099,4.689,-13.284,83.223,29.304,-33.211,-12.112,37.118,13.284,-3.126,15.238,53.529,-0.391,-33.211
'[11:42:54.438 06/11/2076]',60.562,26.178,10.159,-10.159,60.171,47.668,10.940,-32.821,56.264,21.490,1.563,-6.642,83.614,14.457,-10.549,-13.284,36.728,16.410,-9.377,12.112,55.092,-15.238,-10.549
'[11:42:54.441 06/11/2076]',57.827,23.834,23.834,-11.331,55.873,48.059,17.973,-28.523,58.608,24.615,-1.172,-8.596,88.303,10.549,-2.344,-21.880,37.118,16.801,-23.053,16.801,66.422,-24.225,-2.344
'[11:42:54.445 06/11/2076]',56.264,42.979,20.708,-11.331,57.045,50.794,23.834,-23.834,62.906,26.569,-1.954,-11.722,90.647,10.159,-1.563,-22.271,34.774,18.755,-19.927,-2.735,77.753,-25.006,-1.563
'[11:42:54.449 06/11/2076]',57.045,39.072,29.695,-7.814,60.952,50.794,25.006,-20.708,67.985,23.443,-5.470,-8.205,95.726,1.954,-2.344,-17.192,27.350,18.755,-28.913,3.126,80.488,-26.569,-2.344
'[11:42:54.453 06/11/2076]',54.701,33.993,27.350,-1.172,60.952,47.668,27.350,-21.490,64.860,20.708,-5.861,-12.112,94.945,0.391,-2.735,-23.443,22.271,19.145,-26.569,5.470,82.442,-22.662,-2.735
'[11:42:54.457 06/11/2076]',55.482,35.946,21.880,1.954,62.125,47.668,27.741,-21.490,60.171,21.099,-1.954,-19.536,87.131,11.331,-12.894,-25.397,22.271,22.271,-21.099,3.907,76.190,-12.112,-12.894
'[11:42:54.461 06/11/2076]',57.827,36.728,31.258,2.735,62.125,52.357,30.867,-16.410,55.482,24.225,2.735,-16.020,82.442,16.020,-16.020,-13.675,26.178,24.615,-30.476,6.642,64.078,-7.814,-16.020
'[11:42:54.465 06/11/2076]',60.952,37.118,31.648,7.814,62.906,55.482,31.258,-10.940,50.403,27.350,8.596,-2.735,86.740,16.020,-13.675,-3.516,31.258,25.788,-30.867,8.205,62.515,-5.079,-13.675
'[11:42:54.469 06/11/2076]',59.780,43.761,29.304,14.066,55.482,57.436,34.383,0.391,42.589,33.211,11.331,-3.907,77.753,23.443,-4.298,-12.503,35.556,28.523,-28.523,1.563,63.687,-4.298,-4.298
'[11:42:54.473 06/11/2076]',56.264,48.449,27.350,18.755,46.105,58.217,36.728,9.377,35.946,35.946,10.940,-4.298,68.767,32.821,0.000,-21.880,37.900,32.430,-26.569,-3.907,68.376,-3.126,0.000
'[11:42:54.477 06/11/2076]',50.403,41.026,25.397,18.755,36.728,53.529,37.118,7.814,34.774,37.509,4.298,15.629,76.581,27.350,8.596,-19.536,40.244,30.867,-24.615,-1.563,80.879,-2.344,8.596
'[11:42:54.480 06/11/2076]',50.012,47.277,15.629,24.225,31.648,54.701,40.635,10.159,34.774,43.370,4.689,14.457,76.972,34.383,7.814,-20.708,46.886,35.556,-14.847,-11.722,82.051,1.954,7.814
'[11:42:54.484 06/11/2076]',48.449,53.138,12.894,11.331,27.741,58.217,42.979,-3.126,33.211,45.714,14.066,-10.940,67.595,45.324,4.298,-34.774,50.794,41.807,-12.112,-13.284,74.628,2.344,4.298
'[11:42:54.488 06/11/2076]',50.012,44.151,0.000,14.457,28.523,62.906,34.774,-17.192,34.383,48.059,20.317,-17.582,66.422,39.853,6.252,-26.960,50.794,43.370,0.781,1.954,56.654,-1.563,6.252
'[11:42:54.492 06/11/2076]',53.529,45.714,-5.079,14.457,33.211,65.641,38.681,-28.913,42.198,53.138,28.132,-17.192,81.270,36.337,6.252,-16.020,53.919,45.324,5.861,6.252,53.919,-1.563,6.252
'[11:42:54.496 06/11/2076]',59.389,43.761,-5.079,23.834,39.853,67.985,38.291,-24.615,50.403,56.264,35.556,-18.755,87.131,34.774,9.377,-7.424,57.045,46.886,5.861,19.536,40.244,-2.344,9.377
'[11:42:54.500 06/11/2076]',61.734,37.118,-3.907,16.801,46.496,64.860,31.258,-31.258,56.654,55.092,32.821,-18.755,86.349,38.291,5.079,-3.907,57.436,43.761,4.689,22.662,41.026,-1.563,5.079
'[11:42:54.504 06/11/2076]',62.125,38.291,-3.516,19.536,54.701,61.734,31.258,-31.648,63.297,53.138,33.211,-18.755,86.740,37.900,14.457,-7.424,58.999,43.761,4.298,15.238,46.496,1.954,14.457
'[11:42:54.508 06/11/2076]',63.687,51.575,-0.781,14.066,59.389,59.389,35.165,-25.006,64.469,47.668,34.383,-22.271,82.442,32.039,11.331,-1.172,55.092,48.059,1.563,3.126,44.151,-4.689,11.331
'[11:42:54.512 06/11/2076]',64.860,48.059,4.689,22.271,64.469,55.482,37.900,-17.192,62.906,42.979,32.039,-25.788,76.190,31.648,1.172,2.344,49.621,49.621,-3.907,3.907,44.542,-2.735,1.172
'[11:42:54.516 06/11/2076]',62.125,41.416,7.424,19.536,65.641,52.357,37.900,-23.834,60.562,41.026,25.006,-21.490,72.283,26.960,2.735,3.516,47.277,44.933,-6.642,2.735,46.886,-0.781,2.735
'[11:42:54.520 06/11/2076]',62.906,50.403,19.145,34.383,68.767,55.873,42.589,0.000,57.436,44.542,22.662,-14.457,67.985,30.476,-1.563,13.284,51.184,43.370,-18.364,-4.689,49.231,-1.172,-1.563
'[11:42:54.523 06/11/2076]',64.860,40.635,30.867,40.635,71.893,58.217,36.337,10.549,57.436,45.714,17.192,-17.582,64.469,43.761,-24.615,20.317,55.092,34.383,-30.085,6.642,41.026,8.205,-24.615
'[11:42:54.527 06/11/2076]',61.734,24.615,30.085,40.244,72.674,52.747,25.006,5.079,57.045,46.105,10.159,-8.596,67.985,34.774,-19.927,21.099,53.919,20.317,-29.304,16.801,45.714,0.781,-19.927
'[11:42:54.531 06/11/2076]',55.873,17.973,37.509,44.542,72.674,48.840,24.615,9.768,57.436,45.714,8.987,11.331,71.893,37.118,-11.331,27.350,55.092,14.066,-36.728,16.801,54.701,5.470,-11.331
'[11:42:54.535 06/11/2076]',48.059,21.880,38.681,39.072,65.250,46.105,27.741,8.987,54.701,41.416,10.940,4.298,64.469,43.761,-7.033,10.940,52.357,11.722,-37.900,8.596,53.529,10.159,-7.033
'[11:42:54.539 06/11/2076]',38.681,19.927,27.350,45.324,56.654,33.602,30.476,11.331,50.794,39.463,2.735,0.781,58.999,41.807,0.391,-6.252,49.621,7.814,-26.569,0.391,65.641,4.298,0.391
'[11:42:54.543 06/11/2076]',38.681,30.867,24.225,34.383,58.608,32.821,37.509,0.781,54.701,38.291,2.344,3.907,62.125,33.211,6.252,0.000,53.138,5.861,-23.443,-5.470,64.469,-1.563,6.252
'[11:42:54.547 06/11/2076]',42.979,45.714,10.549,36.728,59.389,39.853,36.337,1.172,59.780,35.556,5.470,-3.516,66.422,21.490,0.391,10.549,53.138,7.033,-9.768,-7.814,50.403,-10.549,0.391
'[11:42:54.551 06/11/2076]',47.277,41.807,-1.172,42.589,60.952,39.853,23.834,4.689,59.389,29.304,4.298,-12.503,57.436,19.536,-10.549,14.457,45.714,1.954,1.954,-1.563,41.026,-16.020,-10.549
'[11:42:54.555 06/11/2076]',50.794,41.026,1.172,24.615,64.469,40.635,16.020,-3.516,60.952,25.397,6.642,-20.317,51.184,23.834,-11.331,11.331,42.589,0.781,-0.391,-6.252,36.728,-9.377,-11.331
'[11:42:54.559 06/11/2076]',57.436,23.834,12.112,30.867,66.032,43.761,12.894,1.172,67.204,25.788,10.940,-16.801,57.436,23.443,-11.331,19.145,38.681,6.642,-11.331,11.722,29.695,-1.563,-11.331
'[11:42:54.563 06/11/2076]',59.780,17.192,17.582,26.960,66.422,45.714,8.987,0.391,69.939,23.053,10.159,-17.582,59.389,25.006,-18.364,20.317,33.602,8.205,-16.801,19.536,27.350,6.252,-18.364
'[11:42:54.566 06/11/2076]',62.515,20.317,21.099,23.053,70.720,47.277,10.549,0.000,76.190,21.880,5.079,-19.145,60.171,14.847,-7.424,17.582,32.430,9.768,-20.317,10.159,38.681,-4.689,-7.424
'[11:42:54.570 06/11/2076]',63.297,23.834,18.364,27.741,75.018,48.059,11.722,-1.563,78.535,19.927,2.735,-21.490,58.999,7.814,0.781,12.112,28.523,10.940,-17.582,5.470,43.761,-8.596,0.781
'[11:42:54.574 06/11/2076]',61.734,32.821,6.642,29.695,78.144,46.105,8.987,-1.172,76.972,17.582,0.000,-26.960,57.045,3.516,-0.391,7.424,23.053,7.033,-5.861,0.781,38.681,-12.503,-0.391
'[11:42:54.578 06/11/2076]',59.389,39.853,5.079,28.913,83.223,39.463,8.596,2.735,75.018,20.708,-2.344,-25.006,57.827,8.205,-0.781,3.126,21.099,3.126,-4.298,-8.987,44.542,-10.549,-0.781
'[11:42:54.582 06/11/2076]',60.952,30.085,10.940,30.476,89.084,33.602,6.252,4.689,72.283,24.225,0.391,-18.364,62.906,8.596,4.298,3.126,18.755,2.735,-10.159,-0.781,41.026,-7.424,4.298
'[11:42:54.586 06/11/2076]',64.469,23.443,14.457,34.383,91.819,31.648,4.689,9.377,66.422,27.741,4.298,-16.020,66.032,5.861,8.987,2.735,15.238,5.079,-13.675,15.238,26.178,-10.159,8.987
'[11:42:54.590 06/11/2076]',63.687,21.880,8.205,36.728,85.958,27.741,0.391,17.192,57.827,28.132,3.516,-13.675,64.860,5.470,3.907,2.735,11.331,6.252,-7.424,16.410,26.178,-17.192,3.907
'[11:42:54.594 06/11/2076]',62.906,13.284,11.722,39.072,78.144,25.788,-1.172,23.834,54.701,26.569,3.126,0.781,66.032,1.563,7.033,11.722,9.768,3.907,-10.940,17.973,23.443,-15.238,7.033
'[11:42:54.598 06/11/2076]',59.780,8.596,18.364,36.728,69.158,22.271,1.563,30.085,51.966,24.615,2.344,12.112,67.985,6.642,2.735,16.020,9.377,2.735,-17.582,20.708,20.708,-4.689,2.735
'[11:42:54.602 06/11/2076]',45.714,11.331,16.801,40.635,48.059,17.582,1.563,47.668,43.370,26.960,-2.344,8.205,51.575,28.913,0.000,-3.126,10.159,1.172,-16.020,1.954,33.993,7.814,0.000
'[11:42:54.605 06/11/2076]',37.118,10.159,29.695,34.383,40.244,17.582,5.470,48.059,43.761,28.523,-0.391,-3.516,46.496,46.886,0.391,-24.225,12.112,1.954,-28.913,2.344,44.542,18.755,0.391
'[11:42:54.609 06/11/2076]',39.463,14.457,27.350,30.867,42.198,20.708,8.205,41.807,44.933,29.695,1.563,2.735,56.654,34.383,8.987,-19.927,12.112,7.033,-26.569,12.894,37.509,10.940,8.987
'[11:42:54.613 06/11/2076]',46.105,14.066,22.271,32.821,46.105,27.741,1.954,39.463,42.589,28.523,3.516,7.424,63.297,27.350,1.172,-7.814,7.424,14.457,-21.490,28.523,32.039,2.344,1.172
'[11:42:54.617 06/11/2076]',46.496,24.615,12.112,27.350,43.370,28.132,1.954,37.509,38.681,23.834,1.954,6.252,55.482,25.397,7.033,-15.629,7.033,14.847,-11.331,19.536,26.960,-2.344,7.033
'[11:42:54.621 06/11/2076]',51.184,31.258,8.987,24.615,46.886,29.304,2.735,37.509,38.291,21.099,1.563,14.847,58.608,25.788,7.814,-15.629,11.722,14.066,-8.205,16.020,19.927,3.126,7.814
'[11:42:54.625 06/11/2076]',51.575,28.523,11.331,29.304,46.886,25.397,4.298,44.151,40.635,19.145,0.000,28.132,69.548,19.536,0.781,0.391,14.847,13.284,-10.549,28.523,16.020,0.000,0.781
'[11:42:54.629 06/11/2076]',43.370,38.681,12.503,28.523,43.370,21.099,8.987,49.621,43.761,15.629,-0.391,33.602,71.893,17.192,4.298,0.391,16.410,9.768,-11.722,23.053,17.192,-0.391,4.298
'[11:42:54.633 06/11/2076]',37.900,40.635,19.145,27.741,44.542,22.271,8.596,50.012,47.668,11.331,-3.126,39.853,77.363,10.940,5.470,3.907,16.020,8.987,-18.364,28.523,20.317,-4.689,5.470
'[11:42:54.637 06/11/2076]',32.430,44.933,11.722,37.509,41.416,18.364,10.159,56.264,50.794,8.987,-4.689,44.933,82.833,10.549,-2.344,10.549,12.112,10.549,-10.940,28.132,23.834,-7.033,-2.344
'[11:42:54.641 06/11/2076]',28.523,50.403,3.516,30.085,39.463,13.284,11.331,48.840,48.059,10.940,-6.642,40.635,80.098,14.847,-1.954,1.563,10.940,9.768,-2.735,23.443,19.536,-4.298,-1.954
'[11:42:54.645 06/11/2076]',26.960,48.840,5.470,18.755,41.807,10.940,10.940,37.118,45.714,15.629,-5.470,39.072,80.488,19.145,-0.781,-2.735,15.238,7.033,-4.689,20.708,23.443,-3.126,-0.781
'[11:42:54.648 06/11/2076]',31.258,47.668,-7.424,18.364,44.933,10.159,8.205,26.178,41.807,22.662,-3.516,45.714,86.740,23.053,-5.079,2.735,16.801,5.079,8.205,23.834,15.238,2.735,-5.079
'[11:42:54.652 06/11/2076]',31.258,44.151,-13.284,12.112,44.151,8.987,6.642,14.066,38.681,23.834,-3.516,47.668,80.098,19.145,4.298,4.298,17.192,4.689,14.066,26.569,11.331,-7.424,4.298
'[11:42:54.656 06/11/2076]',25.006,49.621,-3.126,13.675,39.463,12.112,10.549,22.662,32.430,26.178,-3.516,44.542,64.078,23.053,16.801,-3.907,19.536,3.907,3.907,22.662,8.205,-10.159,16.801
'[11:42:54.660 06/11/2076]',21.880,54.310,2.735,16.410,28.913,16.410,17.582,32.430,39.072,24.225,-7.814,60.952,70.720,29.695,3.126,13.284,21.490,4.689,-1.954,21.099,10.159,-3.126,3.126
'[11:42:54.664 06/11/2076]',19.145,53.138,23.834,38.291,21.880,9.768,31.258,72.283,42.979,24.225,-15.629,84.005,68.767,26.178,12.503,28.913,22.662,7.033,-23.053,7.424,15.629,-1.954,12.503
'[11:42:54.668 06/11/2076]',14.847,57.045,26.178,24.615,17.973,8.205,37.509,59.780,42.979,20.708,-11.722,57.436,56.654,41.416,5.861,5.079,23.443,7.424,-25.397,-2.344,26.569,1.954,5.861
'[11:42:54.672 06/11/2076]',15.629,49.621,26.960,24.615,17.973,10.549,33.211,55.092,42.198,14.847,-10.159,51.575,53.138,37.509,6.252,2.344,21.880,9.768,-26.178,-1.954,31.648,-2.344,6.252
'[11:42:54.676 06/11/2076]',26.178,45.324,16.801,26.960,26.960,13.284,28.132,46.496,43.370,7.814,-7.814,67.595,64.078,13.675,8.987,25.006,16.801,12.112,-16.020,5.470,25.006,-16.020,8.987
'[11:42:54.680 06/11/2076]',30.867,40.244,-2.735,9.377,30.085,11.722,20.708,14.847,42.589,2.344,-5.470,62.515,67.985,3.126,8.596,23.053,10.940,12.112,3.516,21.880,17.582,-26.178,8.596
'[11:42:54.684 06/11/2076]',33.211,40.635,12.112,11.331,35.165,17.582,19.536,25.006,39.072,3.126,0.000,69.939,60.562,7.033,16.410,28.132,11.722,15.629,-11.331,19.927,7.033,-21.880,16.410
'[11:42:54.688 06/11/2076]',39.463,42.198,37.509,22.662,40.635,16.801,25.397,58.608,38.291,7.814,1.954,76.972,60.952,19.145,12.894,33.602,14.847,19.927,-36.728,17.192,-3.516,-9.377,12.894
'[11:42:54.691 06/11/2076]',41.807,40.635,38.681,16.020,44.933,10.940,26.178,55.873,37.509,13.675,3.126,69.158,64.078,23.053,7.814,29.695,17.973,19.145,-37.900,17.973,-7.814,-7.424,7.814
'[11:42:54.695 06/11/2076]',41.416,42.198,25.397,16.801,47.668,8.205,21.490,48.449,35.556,12.894,4.689,59.389,59.389,19.927,7.424,27.350,18.364,15.238,-24.615,14.847,-14.066,-10.940,7.424
'[11:42:54.699 06/11/2076]',35.556,40.635,7.033,12.503,44.542,0.391,16.410,34.774,32.039,9.377,0.391,60.952,60.952,24.225,-14.847,33.211,15.629,10.159,-6.252,8.987,-5.079,-3.907,-14.847
'[11:42:54.703 06/11/2076]',32.821,37.509,-8.987,3.126,42.589,-6.252,12.894,15.238,28.132,8.987,-3.126,58.217,61.734,-4.298,-2.344,38.681,10.940,6.252,9.768,8.987,-1.172,-31.648,-2.344
'[11:42:54.707 06/11/2076]',28.523,30.867,-5.079,-2.344,38.681,-7.424,9.377,11.331,23.834,8.596,1.954,42.979,52.357,-14.066,3.907,37.118,4.689,6.642,5.861,14.066,-10.159,-41.416,3.907
'[11:42:54.711 06/11/2076]',30.476,26.960,7.033,-6.642,41.026,-3.907,7.033,13.284,24.615,10.940,8.987,39.072,47.668,-10.549,9.768,37.509,3.126,5.470,-6.252,23.443,-26.178,-35.946,9.768
'[11:42:54.715 06/11/2076]',37.900,24.225,24.615,-14.066,48.449,-1.563,9.377,16.801,29.304,14.847,13.675,41.807,51.184,-14.066,14.847,49.621,3.516,7.033,-23.834,24.225,-34.383,-34.383,14.847
'[11:42:54.719 06/11/2076]',39.853,32.430,25.397,-11.722,50.794,0.000,10.940,23.053,30.476,15.629,17.582,26.960,42.198,-4.689,18.364,35.946,1.563,10.159,-24.615,13.284,-35.165,-28.132,18.364
'[11:42:54.723 06/11/2076]',37.509,38.291,17.973,-14.457,50.012,0.000,11.722,16.801,32.039,14.457,17.582,16.801,36.337,5.861,22.271,17.192,2.344,11.331,-17.192,1.172,-24.225,-21.490,22.271
'[11:42:54.727 06/11/2076]',36.728,37.118,5.861,-12.894,53.529,-10.159,13.675,8.987,35.556,16.410,8.987,35.946,50.403,-1.172,22.662,26.960,1.954,10.940,-5.079,-6.252,-5.079,-19.536,22.662
'[11:42:54.730 06/11/2076]',39.853,35.165,8.205,-7.814,58.217,-10.940,14.847,12.503,39.463,18.364,9.377,35.946,55.873,-3.907,24.615,28.132,3.907,10.940,-7.424,-3.126,-2.344,-20.317,24.615
'[11:42:54.734 06/11/2076]',42.589,42.589,5.470,-16.801,57.827,-9.377,16.020,9.377,39.853,14.066,15.629,15.629,48.449,1.954,21.880,14.066,3.907,8.205,-4.689,-9.377,-10.549,-17.973,21.880
'[11:42:54.738 06/11/2076]',51.575,45.324,7.424,-12.503,60.952,-3.907,12.503,21.490,40.244,8.596,21.490,17.582,48.059,-5.079,19.145,26.960,1.954,7.814,-6.642,-3.126,-34.774,-18.755,19.145
'[11:42:54.742 06/11/2076]',56.264,47.277,7.814,-16.801,58.999,-0.781,14.847,21.880,43.761,6.252,25.006,13.675,63.297,-10.159,-3.126,41.026,1.954,6.252,-7.033,7.033,-41.416,-20.708,-3.126
'[11:42:54.746 06/11/2076]',56.654,56.654,-11.722,-13.675,53.138,0.000,14.457,18.364,43.761,5.470,31.258,1.563,71.111,-11.722,-12.112,36.337,1.172,7.424,12.503,-0.391,-34.774,-24.615,-12.112
'[11:42:54.750 06/11/2076]',49.231,46.496,-13.284,-10.549,43.370,-0.781,9.768,17.973,38.681,7.424,30.867,-3.126,69.548,-5.079,-12.112,24.615,-0.781,10.549,14.066,7.424,-30.476,-21.490,-12.112
'[11:42:54.754 06/11/2076]',41.807,38.291,-19.536,-10.159,40.635,-4.689,8.205,4.689,39.463,12.894,26.960,-7.814,73.455,10.940,-21.099,11.331,0.391,10.159,20.317,11.722,-13.284,-7.424,-21.099
'[11:42:54.758 06/11/2076]',37.509,38.681,-1.172,-15.629,43.761,-0.391,10.940,3.516,42.589,16.410,29.695,-9.377,69.548,22.271,-14.066,3.907,0.781,12.112,1.954,4.689,0.391,1.954,-14.066
'[11:42:54.762 06/11/2076]',40.635,35.946,16.410,-2.735,43.370,3.907,15.629,26.569,45.324,17.582,25.788,4.298,59.780,16.410,0.000,19.536,0.000,16.020,-15.629,12.112,-10.549,-3.126,0.000
'[11:42:54.766 06/11/2076]',45.714,23.834,26.960,-8.205,33.211,5.470,17.973,30.476,47.277,13.675,16.020,12.112,58.217,7.424,-3.516,29.695,-4.298,14.457,-26.178,22.271,-12.894,-10.549,-3.516
'[11:42:54.770 06/11/2076]',54.310,17.973,22.271,-8.596,23.443,3.516,22.271,34.774,44.151,7.814,12.894,9.768,52.357,-3.907,1.563,26.569,-6.642,16.020,-21.490,29.304,-20.708,-24.225,1.563
'[11:42:54.773 06/11/2076]',62.125,7.033,4.298,4.689,16.410,2.735,18.364,39.463,41.807,1.954,11.722,4.298,48.059,-21.490,4.298,31.258,-10.549,17.582,-3.516,42.198,-36.337,-45.714,4.298
'[11:42:54.777 06/11/2076]',57.827,-0.391,-11.331,17.973,13.675,-5.470,16.020,38.681,37.900,0.391,8.596,12.503,53.529,-26.178,-6.252,41.807,-11.722,17.192,12.112,48.840,-35.165,-42.979,-6.252
'[11:42:54.781 06/11/2076]',42.198,12.894,-5.861,25.006,25.397,-5.861,19.927,33.602,33.602,5.470,11.722,24.225,50.012,-5.079,-8.596,41.807,-3.907,16.801,6.642,25.006,-2.735,-14.066,-8.596
'[11:42:54.785 06/11/2076]',30.085,32.430,5.470,37.900,47.277,-5.079,25.397,39.463,34.383,11.331,11.722,19.145,39.072,-8.987,12.894,35.556,6.252,17.973,-4.689,0.781,24.225,-17.192,12.894
'[11:42:54.789 06/11/2076]',4.689,28.132,14.457,30.085,30.085,-15.238,28.913,33.993,26.178,7.424,-0.781,16.801,33.602,-1.172,-3.907,23.443,6.252,16.020,-13.675,-8.596,58.608,-6.642,-3.907
'[11:42:54.793 06/11/2076]',-15.629,40.635,40.635,21.099,20.317,-12.894,37.900,41.026,16.020,2.735,1.172,26.960,32.039,-6.642,1.954,21.490,9.377,16.020,-39.853,-25.788,82.051,-1.563,1.954
'[11:42:54.797 06/11/2076]',-21.880,37.509,44.933,23.834,14.066,-4.689,35.556,39.072,5.079,-6.252,4.298,28.523,34.383,-33.211,2.735,28.523,6.642,20.708,-44.151,-15.238,82.051,-16.801,2.735
'[11:42:54.801 06/11/2076]',-34.774,41.807,48.059,27.741,0.391,4.298,32.821,42.979,-9.377,-16.410,11.331,26.960,22.662,-41.026,-0.391,33.211,-1.954,27.741,-47.277,-16.020,78.535,-20.317,-0.391
'[11:42:54.805 06/11/2076]',-41.807,60.952,50.403,42.979,-1.954,15.629,38.681,60.171,-17.973,-16.801,17.582,35.556,19.145,-45.324,1.563,43.761,-1.563,35.165,-49.621,-27.741,85.958,-23.834,1.563
'[11:42:54.809 06/11/2076]',-44.151,65.250,42.589,57.436,-2.344,23.443,42.979,55.873,-33.602,-12.503,20.317,37.900,15.629,-64.469,8.205,53.529,0.391,42.198,-41.807,-20.708,92.210,-37.509,8.205
'[11:42:54.813 06/11/2076]',-41.416,73.846,31.258,51.575,1.172,24.615,45.324,43.370,-4.298,-12.894,18.364,34.774,45.324,-61.343,-1.563,55.873,2.344,46.886,-30.476,-17.192,97.289,-35.946,-1.563
'[11:42:54.816 06/11/2076]',-43.761,78.535,25.788,35.946,-4.298,21.099,45.324,33.211,0.391,-16.801,14.066,32.039,56.264,-50.403,-15.629,41.807,0.391,49.621,-25.006,-25.397,117.216,-27.741,-15.629
'[11:42:54.820 06/11/2076]',-46.105,74.628,50.794,40.244,0.391,19.145,48.449,50.403,-4.298,-19.927,16.801,35.946,57.436,-55.873,-10.940,39.463,-1.172,55.482,-50.012,-23.834,126.203,-25.397,-10.940
'[11:42:54.824 06/11/2076]',-51.184,56.264,70.330,32.039,2.344,13.675,39.853,50.403,-10.940,-25.397,14.066,32.430,55.092,-67.985,-10.549,34.774,-7.814,53.529,-69.548,-12.894,139.487,-34.774,-10.549
'[11:42:54.828 06/11/2076]',-60.562,48.059,86.349,56.654,-2.735,10.940,41.807,78.926,-25.788,-25.397,8.596,40.244,42.589,-73.846,-11.331,41.807,-8.596,48.449,-85.568,-20.708,158.632,-37.900,-11.331
'[11:42:54.832 06/11/2076]',-68.767,42.979,75.409,58.217,-9.768,8.596,40.244,67.595,-38.291,-28.132,4.298,37.900,37.509,-84.396,-23.053,46.886,-7.424,37.900,-74.628,-15.238,160.195,-37.900,-23.053
'[11:42:54.836 06/11/2076]',-70.330,42.589,55.482,53.919,-14.847,8.596,37.900,49.231,-40.244,-30.085,6.642,28.132,36.337,-96.117,-16.801,42.198,-7.814,32.821,-54.701,-8.596,144.567,-42.979,-16.801
'[11:42:54.840 06/11/2076]',-72.674,41.416,35.165,51.575,-19.927,3.516,34.383,38.291,-39.463,-27.741,5.470,20.708,35.165,-71.893,-30.085,27.350,-6.642,29.695,-34.383,-12.112,142.222,-21.490,-30.085
'[11:42:54.844 06/11/2076]',-72.283,43.761,40.244,35.556,-28.913,1.954,38.291,35.946,-44.542,-25.788,7.814,29.304,33.602,-64.078,-38.291,37.118,-7.424,29.695,-39.463,-20.317,136.752,-10.159,-38.291
'[11:42:54.848 06/11/2076]',-69.158,32.430,60.952,39.463,-32.821,2.735,37.118,57.436,-55.092,-17.582,5.079,38.681,26.960,-89.866,-5.470,39.853,-7.033,32.430,-60.171,-18.755,131.673,-38.291,-5.470
'[11:42:54.852 06/11/2076]',-75.018,25.788,64.469,48.840,-39.463,-5.470,35.556,74.237,-62.515,-8.596,-9.377,21.099,3.126,-69.548,-5.861,12.503,-1.172,21.880,-63.687,-33.993,151.990,-43.761,-5.861
'[11:42:54.855 06/11/2076]',-76.972,23.443,60.171,40.244,-36.337,-10.549,33.602,60.171,-63.297,-3.126,-12.112,1.172,2.344,-57.045,-15.238,-6.642,7.424,13.675,-59.389,-30.476,152.381,-35.946,-15.238
'[11:42:54.859 06/11/2076]',-69.939,25.397,33.602,42.198,-27.741,-6.642,30.085,36.728,-58.608,-3.126,-8.205,1.172,14.457,-74.237,-7.424,-0.781,12.503,7.424,-32.821,-23.834,142.222,-44.933,-7.424
'[11:42:54.863 06/11/2076]',-59.389,22.271,28.913,37.118,-14.457,-5.470,25.006,24.615,-48.059,-7.814,-1.563,6.642,19.927,-72.674,-9.768,11.331,8.205,1.954,-28.132,-16.801,120.342,-33.211,-9.768
'[11:42:54.867 06/11/2076]',-55.482,18.364,28.913,34.383,-11.722,-3.516,22.662,19.536,-41.416,-12.503,8.205,3.907,16.801,-46.496,-11.722,0.781,3.126,2.344,-28.132,-22.271,118.388,-6.252,-11.722
'[11:42:54.871 06/11/2076]',-47.277,30.476,10.940,39.853,-18.755,5.470,21.490,25.397,-40.635,-12.112,9.768,14.066,14.457,-62.125,12.503,7.033,-0.391,3.126,-10.159,-42.979,112.137,-18.755,12.503
'[11:42:54.875 06/11/2076]',-46.496,22.271,23.443,39.072,-21.099,12.894,19.536,26.569,-46.496,-11.331,7.424,15.629,5.079,-66.422,17.582,9.768,0.391,1.172,-22.662,-38.681,117.998,-28.523,17.582
'[11:42:54.879 06/11/2076]',-53.919,18.755,39.072,44.933,-23.834,20.317,18.364,33.602,-50.012,-6.642,7.033,13.675,3.126,-57.436,20.317,-1.563,8.205,1.172,-38.291,-30.867,126.593,-25.006,20.317
'[11:42:54.883 06/11/2076]',-59.389,25.006,41.416,36.728,-27.741,25.788,16.020,29.695,-54.310,-7.814,8.596,16.410,0.391,-55.092,23.053,-4.298,12.503,5.079,-40.635,-25.788,117.216,-22.662,23.053
'[11:42:54.887 06/11/2076]',-60.562,29.304,59.780,25.397,-30.476,30.085,19.145,35.165,-67.595,-10.940,10.940,16.020,-13.675,-58.217,28.523,-7.424,14.066,6.252,-58.999,-23.053,106.276,-24.225,28.523
'[11:42:54.891 06/11/2076]',-60.171,36.337,60.952,20.317,-32.821,26.569,23.053,40.244,-47.668,-11.331,17.192,19.145,1.172,-48.449,39.072,-14.457,17.582,7.424,-60.171,-25.788,91.819,-14.066,39.072
'[11:42:54.895 06/11/2076]',-52.747,46.886,40.635,6.642,-33.211,23.053,23.053,28.523,-33.602,-6.252,17.973,17.192,14.457,-42.589,38.681,-15.629,21.880,2.735,-39.853,-32.039,73.455,-8.987,38.681
'[11:42:54.898 06/11/2076]',-48.059,53.138,27.741,-7.033,-32.039,24.225,21.880,10.159,-31.258,-2.735,17.582,17.582,18.755,-49.621,41.026,-8.205,27.350,-5.470,-26.960,-34.774,64.469,-16.410,41.026
'[11:42:54.902 06/11/2076]',-44.542,46.496,32.039,-6.642,-26.960,23.053,21.880,8.205,-29.695,-1.563,12.112,10.159,14.457,-44.151,32.039,-10.940,29.695,-11.722,-31.258,-32.039,63.297,-19.145,32.039
'[11:42:54.906 06/11/2076]',-43.761,29.695,40.635,-7.814,-21.490,21.099,12.112,4.689,-32.821,-3.126,3.516,-5.861,5.470,-12.112,-0.781,-30.085,25.397,-16.410,-39.853,-24.615,78.144,0.391,-0.781
'[11:42:54.910 06/11/2076]',-44.151,25.788,55.482,-25.397,-16.410,17.582,11.722,-1.954,-37.509,-3.126,-0.391,1.954,3.907,-16.801,0.391,-26.178,17.973,-16.801,-54.701,-30.085,90.256,-0.391,0.391
'[11:42:54.914 06/11/2076]',-41.416,26.569,64.860,-26.178,-10.159,10.549,11.331,10.549,-35.556,-5.861,-9.768,12.894,-1.172,-17.582,9.768,-30.476,12.894,-19.145,-64.078,-48.449,111.355,-1.172,9.768
'[11:42:54.918 06/11/2076]',-35.946,32.039,62.125,-32.039,-1.563,7.033,11.722,7.033,-29.304,-3.516,-4.298,-1.563,-1.563,-2.344,8.205,-44.933,16.801,-19.927,-61.343,-64.078,121.514,8.987,8.205
'[11:42:54.922 06/11/2076]',-28.132,47.277,52.747,-41.416,2.735,14.066,9.377,2.735,-23.053,-5.470,1.172,-13.675,-1.563,-15.629,26.569,-51.575,19.145,-18.364,-51.966,-75.409,107.839,-4.689,26.569
'[11:42:54.926 06/11/2076]',-22.271,30.867,37.900,-21.880,9.377,15.629,-0.391,-2.344,-12.112,-14.457,2.735,-1.172,15.238,-39.072,28.132,-30.085,14.066,-19.927,-37.118,-44.542,90.256,-18.364,28.132
'[11:42:54.930 06/11/2076]',-18.364,12.894,32.430,-17.973,14.847,16.410,-9.768,-14.457,-2.735,-25.006,3.126,-1.172,20.317,-42.198,18.755,-23.053,6.252,-20.708,-31.648,-21.880,79.707,-19.145,18.755
'[11:42:54.934 06/11/2076]',-25.006,8.987,24.615,-30.476,8.205,14.066,-19.927,-25.006,0.391,-35.946,-0.391,-9.768,13.284,-36.337,13.675,-36.728,-5.861,-24.225,-23.834,-16.801,76.972,-17.973,13.675
'[11:42:54.938 06/11/2076]',-32.821,14.066,19.536,-55.092,-1.172,10.159,-21.490,-41.807,-3.516,-42.589,-3.126,-9.768,5.470,-33.211,8.596,-40.635,-15.629,-26.178,-18.755,-19.145,76.581,-16.410,8.596
'[11:42:54.941 06/11/2076]',-32.821,16.410,34.774,-39.072,-8.987,14.457,-11.722,-13.675,-11.722,-39.463,3.516,-2.735,0.781,-32.039,12.894,-32.430,-11.331,-20.317,-33.993,-21.490,77.363,-18.755,12.894
'[11:42:54.945 06/11/2076]',-29.695,14.847,51.575,-37.509,-10.549,17.192,-6.252,-0.391,-19.536,-32.821,10.940,-3.126,-6.252,-33.602,19.927,-25.006,-1.954,-17.192,-50.794,-18.364,67.204,-23.443,19.927
'[11:42:54.949 06/11/2076]',-22.271,25.397,44.933,-18.755,-7.033,24.615,-5.861,16.410,-25.006,-25.006,13.284,6.252,-11.722,-18.755,12.894,-13.284,0.391,-10.940,-44.151,-22.271,53.529,-11.722,12.894
'[11:42:54.953 06/11/2076]',-14.847,16.020,34.383,-10.159,-4.298,25.788,-6.642,9.768,-33.602,-20.317,15.238,10.940,-21.099,-10.940,21.099,-17.192,0.391,-2.735,-33.602,-15.629,48.840,-5.861,21.099
'[11:42:54.957 06/11/2076]',-11.722,18.755,9.377,-16.020,5.079,13.675,-12.894,-7.033,-39.853,-19.536,14.457,1.172,-30.476,-3.907,15.629,-25.006,-7.424,-0.781,-8.596,-14.847,39.853,-3.126,15.629
'[11:42:54.961 06/11/2076]',-6.252,36.728,-5.470,-33.993,7.814,15.238,-13.675,-19.536,-35.556,-19.927,14.066,-2.735,-23.053,8.205,-7.033,-22.662,-19.536,5.470,6.252,-25.006,32.821,7.424,-7.033
'[11:42:54.965 06/11/2076]',-6.642,32.039,-18.755,-33.602,4.298,10.940,-13.284,-30.085,-39.853,-19.536,20.317,1.563,-11.722,-6.642,4.689,-23.443,-27.350,9.768,19.536,-23.443,30.867,5.861,4.689
'[11:42:54.969 06/11/2076]',-11.331,33.602,5.470,5.470,2.735,12.112,-3.907,23.053,-41.807,-13.675,26.569,12.894,-11.331,-24.225,28.523,-8.596,-23.834,14.066,-4.689,-29.695,29.304,-6.642,28.523
'[11:42:54.973 06/11/2076]',-14.847,23.443,32.430,26.569,0.000,16.801,0.000,51.966,-41.416,-4.689,26.960,26.178,-8.596,-23.834,35.556,4.298,-16.020,16.020,-31.648,-31.258,36.337,-3.516,35.556
'[11:42:54.977 06/11/2076]',-18.364,17.582,23.053,45.714,-4.298,12.112,2.344,57.045,-36.337,1.172,15.629,49.621,0.781,-26.960,43.370,12.503,-7.814,9.377,-22.271,-34.774,51.966,0.000,43.370
'[11:42:54.980 06/11/2076]',-15.238,12.894,9.768,47.277,-7.033,10.940,3.907,47.668,-39.463,2.344,8.205,52.747,-7.814,-26.569,49.231,8.987,0.781,6.642,-8.987,-33.993,55.482,-2.735,49.231
'[11:42:54.984 06/11/2076]',-12.894,16.410,8.205,29.695,0.391,10.549,3.907,26.178,-8.987,1.563,8.987,50.012,4.689,-3.516,45.714,3.907,4.298,6.642,-7.424,-32.821,51.575,8.205,45.714
'[11:42:54.988 06/11/2076]',-8.596,29.304,-9.377,21.099,5.079,16.020,0.391,10.159,11.331,-5.079,8.987,17.973,9.768,-9.768,55.092,-21.099,0.781,5.861,10.159,-37.118,37.900,0.391,55.092
'[11:42:54.992 06/11/2076]',-5.861,28.132,-0.391,20.317,7.814,19.536,0.781,11.722,19.927,-7.424,9.768,11.331,18.755,-22.271,54.701,-16.801,3.516,3.516,1.172,-17.192,22.271,-6.642,54.701
'[11:42:54.996 06/11/2076]',-8.205,22.271,29.304,16.801,10.940,25.397,4.689,18.364,26.178,-6.642,12.503,10.549,25.788,-28.523,57.436,-12.112,6.642,3.126,-28.523,-2.735,18.364,-7.033,57.436
'[11:42:55.000 06/11/2076]',-8.596,28.132,18.364,22.271,8.987,27.741,0.781,21.099,17.582,-5.861,7.424,5.470,18.755,-14.847,42.198,-20.708,10.549,-3.516,-17.582,-16.020,30.085,5.861,42.198
'[11:42:55.004 06/11/2076]',-5.470,19.927,7.033,24.225,7.814,26.960,-1.954,12.112,2.344,-2.344,2.735,3.126,11.331,-10.159,35.946,-31.648,12.503,-9.768,-6.252,-14.066,35.556,12.112,35.946
'[11:42:55.008 06/11/2076]',2.735,7.814,1.172,15.629,9.377,26.178,-5.861,-1.563,-7.424,2.735,4.298,0.781,10.549,-8.205,28.132,-30.085,12.894,-9.377,-0.391,-6.642,35.165,12.112,28.132
'[11:42:55.012 06/11/2076]',6.252,5.079,-11.722,16.410,11.331,21.099,-12.503,-3.907,-16.020,8.205,5.079,1.954,10.159,-2.735,17.192,-25.006,11.331,-10.940,12.503,-12.894,39.072,15.238,17.192
'[11:42:55.016 06/11/2076]',4.689,11.722,-25.006,15.238,2.344,19.536,-11.722,-1.954,-27.350,11.722,4.298,7.033,5.079,-28.132,36.728,-17.192,7.814,-11.722,25.788,-16.801,31.258,-13.675,36.728
'[11:42:55.020 06/11/2076]',5.470,5.861,-14.066,10.159,-4.298,21.490,-7.033,-0.781,-33.211,19.536,0.391,4.689,2.344,-31.258,34.383,-13.284,7.814,-7.424,14.847,-6.252,27.350,-24.615,34.383
'[11:42:55.023 06/11/2076]',1.954,15.238,-9.377,10.940,-1.172,16.410,-1.954,6.642,-30.867,19.927,-0.781,5.470,3.516,-24.225,32.430,-18.364,7.814,-9.377,10.159,-10.159,21.490,-17.582,32.430
'[11:42:55.027 06/11/2076]',-0.391,2.735,-0.781,12.894,-6.642,16.801,-1.954,7.033,-26.960,18.755,-6.252,8.205,0.391,-13.675,22.271,-15.238,0.781,-8.205,1.563,5.861,17.582,-14.457,22.271
'[11:42:55.031 06/11/2076]',3.907,-7.424,-10.940,4.689,-3.907,9.768,-1.563,-13.675,-21.880,12.894,-15.238,2.735,8.596,-17.192,10.549,-25.006,-2.735,-5.470,11.722,14.847,23.053,-12.112,10.549
'[11:42:55.035 06/11/2076]',-0.781,-5.470,-14.847,-2.735,0.391,0.391,0.391,-26.569,-17.973,7.424,-15.629,-24.615,6.642,0.391,0.000,-58.999,0.391,-6.642,15.629,8.205,35.556,2.735,0.000
'[11:42:55.039 06/11/2076]',-8.596,-9.768,-1.954,8.205,-9.377,-3.126,7.814,-8.205,-14.847,3.907,-20.708,-26.569,-3.907,12.112,-3.907,-63.297,3.907,-5.079,2.735,0.781,59.780,-0.391,-3.907
'[11:42:55.043 06/11/2076]',-6.252,-0.781,-7.814,5.079,-6.252,-3.516,12.503,-12.894,-5.861,3.126,-22.271,-25.397,0.391,12.112,-4.298,-59.780,8.987,-9.768,8.596,-5.861,67.985,-4.298,-4.298
'[11:42:55.047 06/11/2076]',-6.252,9.377,23.834,3.907,3.907,1.563,23.443,1.563,4.689,6.252,-17.192,-30.085,6.252,14.457,2.344,-59.389,14.066,-11.331,-23.053,-10.159,66.422,0.000,2.344
'[11:42:55.051 06/11/2076]',-6.642,2.735,44.933,25.006,5.470,8.596,21.880,28.523,3.907,3.126,-9.768,-26.960,-2.735,13.284,9.768,-50.403,5.470,-12.894,-44.151,4.298,48.840,-1.954,9.768
'[11:42:55.055 06/11/2076]',-8.205,8.987,21.099,20.317,1.172,10.940,17.192,12.112,-2.344,1.172,-7.033,-32.821,-6.252,0.781,19.927,-56.264,-1.563,-10.940,-20.317,3.907,32.430,-5.470,19.927
'[11:42:55.059 06/11/2076]',-11.331,7.033,16.801,10.940,-6.252,12.112,19.145,-1.954,-7.033,3.516,-4.298,-36.728,3.907,-16.410,17.582,-50.403,-5.470,-5.079,-16.020,14.066,24.615,-8.205,17.582
'[11:42:55.063 06/11/2076]',-13.675,2.344,31.648,31.258,-10.940,15.629,24.615,21.099,-10.549,6.642,0.000,-31.258,2.344,-19.145,28.132,-47.668,-8.596,6.252,-30.867,21.099,19.927,-5.470,28.132
'[11:42:55.066 06/11/2076]',-15.629,0.391,17.582,23.834,-17.192,12.894,20.317,9.377,-18.755,5.079,0.000,-34.383,-7.814,-10.159,25.788,-57.045,-14.847,11.331,-16.801,21.099,16.801,0.000,25.788
'[11:42:55.070 06/11/2076]',-15.629,5.079,26.960,27.741,-16.020,10.940,21.099,26.960,-27.741,5.079,5.861,-31.648,-17.192,2.344,20.317,-53.919,-18.755,15.238,-26.178,10.549,16.410,6.252,20.317
'[11:42:55.074 06/11/2076]',-13.284,0.391,33.993,40.635,-6.642,7.424,17.582,42.589,-34.774,5.470,5.861,-26.960,-25.006,14.847,23.834,-63.687,-23.443,19.145,-33.211,10.940,19.927,7.424,23.834
'[11:42:55.078 06/11/2076]',-5.079,0.391,21.880,34.774,6.252,3.907,7.033,32.821,-36.337,1.563,8.205,-22.271,-25.006,23.834,21.099,-68.767,-23.834,11.722,-21.099,8.205,17.582,10.159,21.099
'[11:42:55.082 06/11/2076]',0.000,-4.689,17.582,23.443,11.722,0.391,-2.344,25.397,-35.165,2.735,6.252,-15.629,-13.284,15.629,13.675,-57.436,-19.536,3.907,-16.801,9.377,18.755,2.735,13.675
'[11:42:55.086 06/11/2076]',-0.781,-12.503,17.192,11.331,8.596,-4.298,-10.549,20.317,-29.695,1.563,3.126,-25.397,-0.391,9.377,0.391,-59.780,-20.708,9.377,-16.410,19.145,16.801,-1.954,0.391
'[11:42:55.090 06/11/2076]',-3.907,-20.317,6.252,1.563,0.781,-12.503,-16.410,11.722,-23.834,-1.954,-5.470,-40.635,5.079,-4.689,1.954,-76.972,-26.178,12.503,-5.470,26.960,10.940,-10.940,1.954
'[11:42:55.094 06/11/2076]',-10.159,-29.304,-0.391,-0.391,-20.317,-21.490,-14.847,14.847,-21.099,-7.424,-17.192,-32.039,13.675,-26.960,-7.033,-59.389,-33.993,14.457,1.172,28.132,16.020,-24.615,-7.033
'[11:42:55.098 06/11/2076]',-14.847,-26.178,11.722,5.470,-26.569,-20.708,-7.814,31.648,-14.457,-8.596,-25.788,-27.350,15.238,-17.192,-20.317,-56.264,-38.291,22.271,-10.940,19.536,30.085,-13.284,-20.317
'[11:42:55.102 06/11/2076]',-6.252,-5.861,-1.563,28.132,-12.112,-16.410,0.000,42.589,-3.516,-4.298,-32.430,-36.337,11.331,4.298,-13.284,-80.488,-29.695,15.629,2.344,-7.814,59.389,-7.033,-13.284
'[11:42:55.105 06/11/2076]',11.331,12.112,1.954,12.503,12.894,-1.172,1.954,24.225,16.020,0.781,-30.085,-48.449,23.443,22.271,-10.940,-96.117,-13.284,1.172,-1.172,-22.662,73.455,0.000,-10.940
'[11:42:55.109 06/11/2076]',33.602,23.443,7.033,6.642,44.151,13.284,0.000,13.675,35.165,3.516,-23.443,-39.463,52.747,27.741,-27.350,-78.144,-3.516,1.172,-6.252,-15.629,73.455,6.642,-27.350
'[11:42:55.113 06/11/2076]',51.575,32.821,-10.549,3.907,70.330,16.410,-9.768,0.781,42.589,-1.172,-17.973,-41.416,66.813,4.298,-16.801,-72.283,-6.252,-6.642,11.331,-14.066,60.562,-12.112,-16.801
'[11:42:55.117 06/11/2076]',58.608,42.589,0.781,-8.596,84.786,20.708,-6.642,-5.470,50.794,-3.907,-12.894,-46.496,65.250,-0.391,-7.033,-71.893,-8.987,-9.377,0.000,-23.053,60.562,-20.708,-7.033
'[11:42:55.121 06/11/2076]',69.158,42.979,2.344,-3.516,94.554,21.880,-7.033,1.172,52.747,-7.814,-13.284,-37.118,65.250,-4.689,-11.722,-55.873,-14.457,-6.252,-1.563,-17.973,50.794,-25.397,-11.722
'[11:42:55.125 06/11/2076]',66.422,44.933,-3.126,0.000,91.819,19.927,-2.344,-1.563,51.184,-8.987,-12.112,-38.681,63.687,-12.503,-16.410,-45.714,-16.020,-5.079,3.907,-9.768,47.668,-35.946,-16.410
'[11:42:55.129 06/11/2076]',67.595,58.217,-1.172,1.172,104.322,25.397,3.907,-9.377,60.171,-3.907,-10.549,-38.681,77.753,-10.549,-19.536,-41.416,-8.596,-9.768,1.954,-17.582,65.641,-30.867,-19.536
'[11:42:55.133 06/11/2076]',69.158,56.264,-5.861,-0.781,102.369,28.913,1.563,-15.629,60.562,-5.470,-8.987,-31.648,93.773,-20.708,-24.615,-34.383,-8.596,-6.252,6.642,-12.112,72.674,-33.993,-24.615
'[11:42:55.137 06/11/2076]',62.125,52.747,-10.549,0.000,98.852,26.960,-1.172,-20.708,54.310,-11.722,-7.814,-30.085,103.541,-39.853,-29.695,-28.523,-14.066,-4.689,11.331,-13.284,87.131,-42.979,-29.695
'[11:42:55.141 06/11/2076]',59.780,56.264,-10.940,4.298,104.322,24.225,-1.563,-16.410,54.310,-10.940,-6.252,-30.867,114.481,-45.714,-34.383,-28.523,-13.284,-13.284,11.722,-21.490,105.885,-46.105,-34.383
'[11:42:55.145 06/11/2076]',58.217,56.264,-11.331,-1.172,101.587,24.225,-1.172,-22.271,55.873,-11.722,-5.470,-30.476,126.203,-43.370,-44.542,-30.476,-13.675,-11.722,12.112,-18.364,110.574,-41.416,-44.542
'[11:42:55.148 06/11/2076]',51.966,51.184,-10.159,-1.172,90.647,27.350,-2.344,-23.053,48.840,-12.112,-3.516,-25.397,124.249,-51.966,-50.012,-14.847,-10.940,-16.410,10.940,-7.814,104.322,-46.886,-50.012
'[11:42:55.152 06/11/2076]',37.118,51.966,-1.172,1.172,80.098,29.304,-1.954,-16.410,42.979,-9.377,-1.954,-35.946,115.263,-45.714,-52.357,-22.271,-3.907,-26.178,1.954,-8.987,111.746,-42.589,-52.357
'[11:42:55.156 06/11/2076]',24.615,54.701,-2.344,8.596,71.111,28.132,-3.126,-9.768,38.681,-5.861,-4.298,-46.496,101.978,-36.337,-50.012,-33.993,-0.781,-26.569,3.126,-16.410,118.388,-35.165,-50.012
'[11:42:55.160 06/11/2076]',13.675,51.575,5.079,12.894,60.562,26.178,-1.563,0.391,35.165,-1.954,-9.377,-37.509,93.382,-45.324,-38.681,-22.662,3.907,-31.648,-4.298,-17.582,123.858,-42.979,-38.681
'[11:42:55.164 06/11/2076]',1.563,47.668,12.503,28.523,51.184,17.973,0.781,20.317,31.258,1.563,-20.317,-35.946,78.926,-34.774,-43.370,-23.053,10.159,-40.635,-11.722,-26.960,136.752,-33.211,-43.370
'[11:42:55.168 06/11/2076]',-3.516,61.734,11.331,26.960,49.231,21.880,10.159,14.457,33.211,8.596,-19.536,-57.436,58.999,-11.331,-44.542,-37.509,18.755,-43.370,-10.549,-42.198,137.534,-26.960,-44.542
'[11:42:55.172 06/11/2076]',-5.470,74.628,9.768,25.788,48.449,32.821,17.192,5.861,31.648,15.629,-11.722,-69.939,46.105,-5.470,-33.211,-40.635,27.741,-42.198,-8.987,-49.231,127.766,-30.476,-33.211
'[11:42:55.176 06/11/2076]',-3.907,69.548,14.847,28.132,51.966,44.542,16.410,-5.079,30.476,17.192,-1.172,-62.515,46.105,-15.629,-29.304,-15.629,27.741,-42.198,-14.066,-30.867,106.667,-33.602,-29.304
'[11:42:55.180 06/11/2076]',-4.298,68.767,14.847,30.476,59.389,49.621,16.020,-15.629,31.648,19.145,8.987,-57.827,41.416,-12.894,-26.178,0.781,25.006,-33.602,-14.066,-28.913,97.289,-28.913,-26.178
'[11:42:55.184 06/11/2076]',-7.033,62.906,11.722,38.291,61.343,48.840,11.722,-15.629,31.258,15.629,12.894,-55.092,28.132,-7.424,-14.457,0.000,16.410,-24.225,-10.940,-31.258,93.773,-25.397,-14.457
'[11:42:55.188 06/11/2076]',-4.689,46.886,19.536,35.946,61.734,44.542,7.424,-16.020,32.039,11.331,12.112,-55.873,20.317,1.954,-14.457,-5.861,11.331,-21.099,-18.755,-22.271,85.958,-14.066,-14.457
'[11:42:55.191 06/11/2076]',-1.563,36.337,16.410,33.602,59.389,41.807,7.033,-23.834,32.039,10.549,11.722,-59.389,18.364,-2.735,-16.020,-3.126,8.205,-16.801,-15.629,-19.927,82.833,-17.192,-16.020
'[11:42:55.195 06/11/2076]',-4.298,41.416,17.973,29.304,57.045,48.449,11.722,-33.211,35.556,13.675,16.801,-60.952,19.145,-8.987,-1.563,-1.954,8.596,-8.596,-17.192,-29.304,84.396,-26.569,-1.563
'[11:42:55.199 06/11/2076]',0.000,43.761,26.569,15.629,55.482,52.747,17.582,-40.635,34.383,16.410,20.317,-56.264,22.271,-12.894,4.689,1.172,11.331,-1.563,-25.788,-28.523,75.409,-29.304,4.689
'[11:42:55.203 06/11/2076]',-1.954,42.589,25.397,7.424,52.357,46.105,19.927,-46.496,28.132,18.755,21.099,-49.621,25.006,-19.927,1.172,12.503,8.596,7.033,-24.615,-26.178,71.502,-35.165,1.172
'[11:42:55.207 06/11/2076]',-6.252,41.807,22.271,7.814,49.231,37.900,22.271,-44.542,22.662,17.973,20.317,-51.184,17.973,-19.145,2.735,8.596,6.642,13.284,-21.490,-29.304,71.502,-39.853,2.735
'[11:42:55.211 06/11/2076]',-3.126,37.900,16.410,-3.126,49.231,30.085,19.145,-50.012,21.880,13.675,17.973,-50.794,13.675,-19.145,5.470,3.907,3.907,9.768,-15.629,-23.053,56.654,-39.853,5.470
'[11:42:55.215 06/11/2076]',-1.563,30.085,6.642,-8.987,48.449,20.317,12.503,-55.873,16.801,10.159,10.940,-41.416,10.549,-24.225,2.344,9.768,-0.391,5.079,-5.861,-17.192,42.589,-38.291,2.344
'[11:42:55.219 06/11/2076]',-6.252,28.523,2.735,-12.894,37.900,17.192,11.331,-55.092,10.549,7.033,5.470,-45.714,-1.954,-17.582,3.907,-4.298,-4.689,3.126,-1.954,-23.834,38.291,-32.039,3.907
'[11:42:55.223 06/11/2076]',-11.331,33.993,0.000,-20.708,27.350,14.457,14.847,-57.436,9.377,7.424,2.735,-56.654,-11.722,0.781,-2.344,-23.053,-5.470,2.735,0.781,-31.258,32.821,-14.847,-2.344
'[11:42:55.227 06/11/2076]',-19.145,31.648,3.126,-23.834,18.755,6.642,18.364,-53.919,7.033,14.066,-5.079,-42.198,-3.907,7.814,-14.066,-15.238,-5.079,4.689,-2.344,-34.383,46.496,-3.126,-14.066
'[11:42:55.230 06/11/2076]',-23.443,34.383,7.424,-33.211,15.238,3.126,20.708,-55.873,5.861,19.927,-10.159,-48.840,0.391,13.284,-19.536,-25.788,2.344,5.079,-6.642,-37.509,57.827,0.000,-19.536
'[11:42:55.234 06/11/2076]',-26.178,35.556,3.126,-48.840,12.112,0.000,18.755,-67.204,1.172,26.178,-6.252,-80.488,-5.861,20.317,-22.271,-50.794,8.596,-0.391,-2.344,-36.728,57.045,-1.172,-22.271
'[11:42:55.238 06/11/2076]',-19.145,33.993,-1.563,-52.357,20.708,-2.344,8.596,-67.595,0.000,27.350,-10.549,-80.488,-3.907,3.516,-14.847,-47.277,8.596,-3.516,2.344,-30.476,42.589,-13.284,-14.847
'[11:42:55.242 06/11/2076]',-10.159,32.821,-6.252,-45.714,26.178,-4.689,5.470,-57.827,3.907,28.523,-15.629,-68.767,10.159,-9.377,-24.225,-26.960,8.205,-3.907,7.033,-23.443,33.993,-18.364,-24.225
'[11:42:55.246 06/11/2076]',-4.689,25.788,-12.894,-41.026,25.788,-9.377,3.126,-52.747,5.861,26.178,-18.364,-63.297,18.364,-17.192,-32.039,-18.364,5.079,-5.079,13.675,-17.192,26.960,-18.364,-32.039
'[11:42:55.250 06/11/2076]',-0.781,28.913,-20.708,-29.304,23.834,-7.424,-1.172,-37.509,10.159,20.708,-23.834,-51.966,23.053,-17.582,-35.165,-14.847,3.126,-6.252,21.490,-27.741,32.821,-16.801,-35.165
'[11:42:55.254 06/11/2076]',-2.344,26.960,-17.973,-27.741,18.755,-5.470,-1.954,-33.211,11.331,16.020,-25.397,-48.059,27.741,-18.364,-35.556,-18.364,1.954,-5.079,18.755,-29.695,44.933,-16.410,-35.556
'[11:42:55.258 06/11/2076]',-6.252,23.443,-26.960,-26.960,11.331,-1.563,-4.689,-42.198,13.284,12.894,-26.960,-53.529,31.648,-14.066,-47.668,-22.662,3.126,-7.033,27.741,-16.020,48.059,-13.675,-47.668
'[11:42:55.262 06/11/2076]',-8.987,25.397,-32.821,-26.569,9.377,1.563,-9.377,-46.496,14.457,10.940,-28.523,-48.449,32.821,-17.973,-45.324,-20.317,0.000,-8.596,33.602,-12.503,45.714,-13.675,-45.324
'[11:42:55.266 06/11/2076]',-14.457,25.006,-30.476,-13.284,5.861,1.954,-9.377,-33.602,14.847,7.033,-30.476,-30.867,31.258,-18.364,-42.979,-8.987,-5.470,-3.516,31.258,-11.722,51.575,-11.722,-42.979
'[11:42:55.270 06/11/2076]',-16.020,22.662,-26.960,-12.112,4.689,-0.391,-5.470,-33.211,14.847,5.079,-28.523,-24.615,33.602,-17.973,-45.714,-2.344,-8.205,1.563,27.741,-7.424,50.794,-6.252,-45.714
'[11:42:55.273 06/11/2076]',-16.801,19.145,-35.165,0.391,6.252,-0.781,-8.596,-28.523,13.675,5.079,-25.006,-19.536,34.383,-19.145,-41.807,0.391,-11.722,5.861,35.946,-6.252,53.919,-5.470,-41.807
'[11:42:55.277 06/11/2076]',-16.020,16.410,-33.602,-2.735,3.907,-5.470,-8.205,-27.741,9.768,4.298,-21.490,-5.470,36.728,-30.867,-31.648,14.066,-14.457,8.596,34.383,-8.205,49.621,-8.205,-31.648
'[11:42:55.281 06/11/2076]',-16.410,12.503,-36.337,0.781,0.391,-10.159,-3.907,-25.006,8.596,5.470,-22.271,6.252,39.072,-35.556,-31.258,27.350,-16.801,12.112,37.118,-1.954,40.244,-6.642,-31.258
'[11:42:55.285 06/11/2076]',-20.317,14.457,-26.569,8.596,-6.642,-9.377,2.735,-10.159,6.252,8.205,-21.099,7.033,32.821,-29.695,-25.397,23.443,-15.629,16.801,27.350,-10.940,46.105,-3.907,-25.397
'[11:42:55.289 06/11/2076]',-26.960,15.238,-24.615,24.615,-18.755,-17.582,10.940,12.894,-0.781,10.159,-26.960,16.020,16.801,-25.788,-10.940,19.536,-17.582,24.615,25.397,-23.443,50.403,-5.079,-10.940
'[11:42:55.293 06/11/2076]',-30.476,16.801,-7.814,17.973,-25.788,-16.410,18.364,18.755,1.172,9.377,-26.960,28.523,21.490,-20.317,-16.801,28.132,-18.755,34.383,8.596,-23.443,53.529,1.563,-16.801
'[11:42:55.297 06/11/2076]',-26.178,18.364,-4.298,17.192,-26.569,-8.596,17.973,21.880,6.252,8.987,-26.960,28.523,29.304,-17.192,-28.913,34.383,-19.536,40.244,5.079,-21.490,58.999,2.344,-28.913
'[11:42:55.301 06/11/2076]',-22.662,14.847,-12.112,8.596,-27.741,-3.907,5.861,13.675,2.344,0.781,-28.132,17.582,17.973,-28.523,-26.569,29.695,-26.569,37.900,12.894,-19.536,45.324,-7.033,-26.569
'[11:42:55.305 06/11/2076]',-19.927,7.424,-11.331,2.735,-27.741,-0.781,-1.172,8.205,5.861,-5.861,-30.085,16.020,18.755,-38.681,-28.523,35.165,-26.960,34.383,12.112,-11.331,33.211,-12.503,-28.523
'[11:42:55.309 06/11/2076]',-17.192,-0.391,-24.225,-3.126,-27.741,-4.298,-7.424,-4.689,5.079,-12.112,-33.602,18.364,29.695,-58.217,-42.198,48.449,-27.741,25.006,25.006,7.033,22.662,-24.615,-42.198
'[11:42:55.313 06/11/2076]',-17.582,-4.689,-25.397,4.689,-29.304,-10.159,-11.331,6.642,3.126,-14.847,-35.165,26.960,32.430,-67.204,-45.324,60.562,-28.913,21.490,26.178,4.689,18.364,-25.397,-45.324
'[11:42:55.316 06/11/2076]',-20.317,-9.377,-37.900,8.596,-35.556,-21.099,-14.066,11.722,-1.172,-17.192,-35.556,31.648,28.132,-57.827,-51.966,59.389,-31.648,20.317,38.681,4.298,14.066,-18.364,-51.966
'[11:42:55.320 06/11/2076]',-21.880,-1.563,-49.621,1.954,-38.291,-30.085,-17.192,14.457,-7.814,-13.675,-34.383,27.350,28.523,-37.118,-74.628,53.529,-34.383,19.145,50.403,-7.424,20.317,-5.079,-74.628
'[11:42:55.324 06/11/2076]',-22.271,-3.907,-68.376,5.470,-38.291,-40.244,-24.225,13.675,-18.755,-10.549,-33.602,18.755,22.662,-28.913,-81.270,42.589,-39.072,19.536,69.158,-7.424,19.536,-1.954,-81.270
'[11:42:55.328 06/11/2076]',-22.662,-21.880,-61.734,10.940,-38.681,-44.542,-26.569,14.847,-26.569,-7.424,-33.602,19.536,16.410,-37.118,-62.125,34.774,-37.118,18.755,62.515,3.126,17.582,-10.549,-62.125
'[11:42:55.332 06/11/2076]',-23.834,-31.648,-61.343,4.689,-34.383,-46.105,-32.821,1.563,-31.648,-5.079,-36.728,25.006,17.973,-56.654,-48.059,38.291,-33.993,10.549,62.125,17.582,16.020,-28.913,-48.059
'[11:42:55.336 06/11/2076]',-22.271,-40.244,-61.343,-0.781,-29.304,-48.059,-39.072,-8.205,-34.383,-11.722,-35.165,23.443,17.973,-76.190,-40.635,40.635,-31.648,0.000,62.125,29.695,5.861,-40.635,-40.635
'[11:42:55.340 06/11/2076]',-24.615,-50.403,-55.482,-3.516,-35.556,-46.886,-43.370,-8.987,-33.211,-22.271,-37.118,22.662,10.940,-86.349,-30.867,36.728,-31.648,-10.940,56.264,34.383,-3.516,-46.886,-30.867
'[11:42:55.344 06/11/2076]',-24.225,-43.761,-57.436,-9.377,-35.165,-47.668,-44.933,-7.033,-28.132,-30.085,-41.416,31.258,9.768,-84.396,-35.556,41.416,-32.821,-23.053,58.217,19.927,-0.391,-44.151,-35.556
'[11:42:55.348 06/11/2076]',-28.132,-40.244,-61.343,-14.066,-41.026,-52.747,-44.542,-5.861,-26.178,-39.463,-43.370,34.383,6.642,-75.018,-46.105,38.681,-37.118,-29.695,62.125,5.079,10.549,-35.946,-46.105
'[11:42:55.352 06/11/2076]',-38.291,-44.542,-54.310,-12.894,-54.310,-60.171,-39.853,2.735,-32.039,-45.714,-47.668,17.192,-14.847,-52.747,-45.714,5.861,-39.853,-33.602,55.092,-8.205,25.006,-25.788,-45.714
'[11:42:55.355 06/11/2076]',-46.496,-37.509,-42.198,-12.894,-58.999,-53.529,-35.946,8.987,-32.430,-42.979,-44.542,9.377,-25.006,-38.681,-40.244,-6.252,-36.728,-30.085,42.979,-17.192,33.993,-20.317,-40.244
'[11:42:55.359 06/11/2076]',-43.761,-35.556,-33.211,-30.867,-56.264,-43.370,-34.774,-9.377,-32.039,-38.291,-34.774,10.159,-14.066,-45.714,-41.416,5.861,-33.993,-23.834,33.993,1.954,21.099,-25.006,-41.416
'[11:42:55.363 06/11/2076]',-36.337,-35.165,-28.132,-22.662,-48.449,-30.476,-36.728,-6.642,-30.085,-33.993,-24.225,16.410,-6.252,-53.138,-38.291,25.397,-31.648,-19.536,28.913,18.364,1.172,-27.350,-38.291
'[11:42:55.367 06/11/2076]',-32.039,-29.304,-26.569,-25.788,-43.761,-24.225,-39.072,-7.814,-35.165,-29.304,-17.973,11.331,-13.675,-48.840,-32.821,23.834,-25.788,-17.973,27.350,12.503,-9.377,-26.960,-32.821
'[11:42:55.371 06/11/2076]',-22.662,-26.960,-41.807,-26.960,-36.728,-25.788,-42.198,-14.066,-40.244,-22.662,-14.847,9.377,-15.238,-43.370,-35.556,25.006,-20.317,-18.755,42.589,12.112,-16.020,-28.523,-35.556
'[11:42:55.375 06/11/2076]',-19.927,-31.258,-45.324,-19.145,-33.211,-30.476,-41.807,-10.549,-40.244,-15.629,-15.238,13.284,-8.987,-42.979,-39.853,32.821,-14.457,-21.880,46.105,12.503,-11.722,-30.085,-39.853
'[11:42:55.379 06/11/2076]',-17.192,-36.337,-48.449,-17.973,-32.430,-32.821,-43.370,-11.331,-41.807,-12.894,-15.629,10.549,-10.549,-35.946,-43.761,29.695,-7.424,-27.741,49.231,12.112,-6.252,-26.569,-43.761
'[11:42:55.383 06/11/2076]',-13.675,-33.211,-46.496,-34.774,-32.430,-28.523,-45.714,-21.490,-39.463,-10.159,-19.145,7.814,-10.159,-34.774,-40.244,23.443,-1.172,-32.430,47.277,12.112,-8.596,-28.132,-40.244
'[11:42:55.387 06/11/2076]',-9.768,-31.258,-25.006,-34.774,-29.695,-18.364,-41.416,-12.112,-30.867,-7.033,-21.099,13.675,-9.768,-35.946,-33.211,33.211,5.470,-33.993,25.788,12.894,-10.940,-28.132,-33.211
'[11:42:55.391 06/11/2076]',-6.642,-28.132,-12.894,-17.973,-28.523,-11.722,-36.337,10.159,-28.523,-4.298,-24.225,12.894,-16.801,-31.258,-28.523,32.039,10.549,-34.383,13.675,12.112,-17.192,-24.615,-28.523
'[11:42:55.395 06/11/2076]',-1.563,-20.317,-9.768,-25.397,-26.569,-5.079,-32.821,7.033,-25.397,-0.391,-24.615,12.894,-23.053,-22.271,-23.053,30.867,9.377,-26.569,10.549,5.079,-25.006,-17.192,-23.053
'[11:42:55.398 06/11/2076]',4.689,-16.410,-4.298,-21.880,-21.099,2.735,-30.476,9.377,-18.364,7.033,-22.662,16.020,-19.536,-17.973,-15.238,34.383,7.814,-15.629,5.079,1.172,-29.695,-9.377,-15.238
'[11:42:55.402 06/11/2076]',1.954,-16.020,-8.205,-12.112,-21.490,1.954,-30.867,15.629,-17.973,10.159,-22.271,13.284,-21.099,-10.940,-12.112,28.132,2.735,-12.503,8.987,-3.516,-21.880,-5.079,-12.112
'[11:42:55.406 06/11/2076]',-1.172,-17.973,-19.536,-16.020,-24.225,-3.126,-36.728,8.205,-18.364,10.549,-25.006,3.126,-26.178,-3.516,-4.298,4.298,-0.781,-13.284,20.317,-9.768,-7.814,-3.126,-4.298
'[11:42:55.410 06/11/2076]',-4.298,-22.271,-25.788,-24.225,-24.615,-9.377,-41.416,-1.172,-10.940,7.814,-32.430,12.112,-19.145,-4.689,-5.079,6.252,-3.126,-21.490,26.569,-10.159,-1.563,0.781,-5.079
'[11:42:55.414 06/11/2076]',-10.159,-28.132,-18.755,-9.377,-26.178,-21.490,-38.291,18.364,-9.377,5.861,-44.933,25.788,-23.443,0.781,-9.768,9.768,-7.814,-25.397,19.536,-17.973,12.503,7.033,-9.768
'[11:42:55.418 06/11/2076]',-9.768,-27.350,-25.397,-16.410,-26.178,-26.178,-33.993,7.424,-8.205,3.126,-46.496,4.689,-32.039,8.987,-12.503,-10.549,-9.377,-21.490,26.178,-17.192,6.642,8.987,-12.503
'[11:42:55.422 06/11/2076]',-8.205,-21.099,-24.225,-26.569,-23.053,-20.317,-29.304,-7.033,-5.470,1.563,-41.026,-10.159,-35.946,10.940,-10.549,-19.536,-11.722,-8.596,25.006,-17.192,-4.689,10.159,-10.549
'[11:42:55.426 06/11/2076]',-1.172,-22.662,-12.894,-21.490,-14.847,-9.377,-26.569,-7.814,-5.079,1.172,-32.430,5.079,-25.006,2.344,-16.020,6.642,-12.112,0.391,13.675,-4.689,-15.238,7.814,-16.020
'[11:42:55.430 06/11/2076]',0.391,-18.755,-13.675,-18.755,-11.331,-2.344,-25.788,-10.940,-11.722,4.298,-25.006,4.689,-23.834,0.781,-14.066,9.768,-8.205,3.516,14.457,-1.172,-18.364,5.470,-14.066
'[11:42:55.434 06/11/2076]',-1.172,-18.755,-19.145,-17.192,-13.675,0.391,-28.132,-15.629,-22.271,2.735,-20.708,4.298,-38.291,10.549,-10.159,1.954,-7.814,-1.954,19.927,-4.298,-15.238,4.298,-10.159
'[11:42:55.438 06/11/2076]',0.781,-26.178,-8.205,-20.708,-12.503,0.391,-30.867,-11.722,-28.913,3.907,-24.225,15.238,-46.105,21.099,-14.066,5.470,-5.861,-11.722,8.987,-3.907,-17.192,10.549,-14.066
'[11:42:55.441 06/11/2076]',2.344,-32.821,-12.503,-23.834,-12.894,-3.907,-32.430,-17.582,-29.695,6.252,-26.960,9.768,-42.979,15.629,-8.596,-3.907,-2.735,-17.192,13.284,8.596,-25.397,0.781,-8.596
'[11:42:55.445 06/11/2076]',6.642,-33.211,-21.880,-33.993,-12.894,-3.516,-33.602,-32.039,-29.304,6.642,-28.132,3.907,-41.026,10.549,-6.642,-8.987,-5.861,-14.847,22.662,14.847,-36.728,-5.079,-6.642
'[11:42:55.449 06/11/2076]',7.814,-32.821,-6.252,-46.105,-14.066,-0.781,-28.913,-33.602,-26.178,4.689,-27.741,8.205,-36.728,7.424,-6.642,-4.689,-13.675,-8.205,7.033,10.549,-36.337,-2.344,-6.642
'[11:42:55.453 06/11/2076]',7.424,-23.053,-3.516,-23.834,-14.066,1.563,-24.615,-5.861,-23.053,2.735,-29.304,16.801,-29.695,4.298,-11.331,3.907,-15.238,-2.735,4.298,5.079,-33.602,-2.344,-11.331
'[11:42:55.457 06/11/2076]',7.033,-21.490,-15.629,-30.085,-17.582,1.172,-24.225,-19.145,-32.430,-2.344,-28.913,8.596,-43.370,10.940,-18.364,-4.689,-30.085,4.689,16.410,3.907,-27.741,0.391,-18.364
'[11:42:55.461 06/11/2076]',7.424,-26.178,-8.596,-32.039,-15.629,3.516,-21.490,-25.397,-25.397,-6.252,-25.788,19.536,-38.291,8.596,-15.238,6.642,-27.741,-1.172,9.377,5.470,-24.225,2.735,-15.238
'[11:42:55.465 06/11/2076]',10.159,-30.085,-19.145,-17.582,-10.159,-1.954,-25.788,-17.973,-21.099,-8.205,-27.350,30.867,-28.523,-0.391,-15.629,18.364,-23.443,-7.814,19.927,18.755,-33.211,-2.344,-15.629
'[11:42:55.469 06/11/2076]',7.424,-30.867,-34.774,-23.443,-7.424,-10.940,-28.913,-32.821,-24.225,-10.159,-24.225,22.662,-34.383,2.735,-13.284,8.205,-19.927,-13.284,35.556,16.020,-25.788,-7.033,-13.284
'[11:42:55.473 06/11/2076]',6.642,-26.569,-26.960,-18.755,-4.689,-17.582,-22.662,-20.317,-21.880,-8.596,-23.834,18.364,-37.900,4.298,-6.252,1.563,-12.894,-14.847,27.741,7.033,-22.271,-11.722,-6.252
'[11:42:55.477 06/11/2076]',8.205,-19.536,-14.847,13.284,0.391,-23.834,-16.020,27.350,-12.112,-7.033,-30.476,43.761,-26.960,16.801,-22.271,25.006,-5.079,-16.801,15.629,-3.907,-12.112,-1.563,-22.271
'[11:42:55.480 06/11/2076]',8.205,-18.364,-24.225,11.722,-0.781,-23.443,-14.066,16.020,-9.377,-5.861,-33.211,39.853,-27.741,25.788,-26.960,18.755,-4.298,-16.020,25.006,-7.424,-1.954,1.172,-26.960
'[11:42:55.484 06/11/2076]',10.940,-15.629,-8.596,-6.252,1.954,-16.020,-7.814,1.954,-4.298,-4.689,-27.350,21.490,-29.695,37.509,-26.569,3.126,-4.298,-14.847,9.377,-13.675,5.079,6.252,-26.569
'[11:42:55.488 06/11/2076]',17.973,-18.364,-10.549,-3.907,6.252,-3.907,-14.066,-2.735,1.563,-9.377,-23.443,19.536,-21.880,28.523,-22.271,3.126,-9.768,-12.894,11.331,-3.126,-3.907,2.344,-22.271
'[11:42:55.492 06/11/2076]',26.569,-18.364,-7.814,-19.927,10.549,3.516,-13.284,-22.662,6.252,-8.596,-21.099,22.271,-3.516,12.112,-21.880,10.940,-12.894,-4.298,8.596,8.987,-9.377,-3.126,-21.880
'[11:42:55.496 06/11/2076]',39.463,-12.503,2.344,-20.317,24.225,10.549,-9.377,-16.801,14.066,-8.205,-17.582,20.317,7.033,8.987,-25.397,16.020,-11.722,1.954,-1.563,8.596,-11.331,-3.516,-25.397
'[11:42:55.500 06/11/2076]',46.886,-3.516,7.814,-4.689,34.383,12.894,-8.205,6.252,18.364,-7.033,-17.582,24.225,6.642,11.331,-21.490,19.536,-8.987,6.252,-7.033,-2.735,-8.596,-4.689,-21.490
'[11:42:55.504 06/11/2076]',51.966,-1.172,4.689,-5.470,40.244,10.159,-7.814,6.642,18.755,-4.298,-16.801,17.582,6.252,12.112,-20.317,16.410,-4.298,11.331,-3.907,-8.987,-6.642,-7.424,-20.317
'[11:42:55.508 06/11/2076]',56.264,-8.205,5.079,-5.079,46.496,7.033,-5.861,-0.391,20.708,0.000,-10.940,12.894,8.987,13.675,-18.755,16.801,0.391,10.159,-4.298,-1.563,0.391,-9.768,-18.755
'[11:42:55.512 06/11/2076]',57.827,-9.768,-2.344,-8.987,44.933,3.907,-7.033,-6.642,17.973,-2.344,-9.768,8.987,11.722,17.192,-24.615,10.159,-1.954,5.470,3.126,1.563,7.424,-12.503,-24.615
'[11:42:55.516 06/11/2076]',66.813,-11.722,-9.377,-14.457,43.761,3.907,-7.424,-10.159,22.271,-3.516,-9.377,10.159,19.927,16.020,-21.099,3.126,-3.126,5.079,10.159,10.940,-0.391,-11.722,-21.099
'[11:42:55.520 06/11/2076]',84.005,-0.781,-3.907,-11.722,55.873,14.066,0.391,-4.298,44.933,-1.563,-8.596,12.112,39.463,32.039,-24.225,-1.172,1.172,10.159,4.689,14.457,-3.907,1.954,-24.225
'[11:42:55.523 06/11/2076]',100.806,12.503,1.172,-4.298,70.720,26.178,4.689,6.642,66.813,-0.781,-6.252,6.252,57.045,37.900,-21.490,-8.205,7.033,11.722,-0.391,10.549,-6.252,5.079,-21.490
'[11:42:55.527 06/11/2076]',114.872,17.582,0.391,1.172,84.786,30.867,5.861,11.331,78.535,-0.391,-4.689,12.894,75.018,33.993,-23.053,-1.172,11.331,13.284,0.391,7.424,-2.344,2.344,-23.053
'[11:42:55.531 06/11/2076]',128.547,22.271,1.172,-8.987,103.150,29.304,7.033,1.172,86.349,3.907,-8.205,12.894,90.647,36.337,-38.681,6.642,17.973,12.112,-0.391,7.033,4.298,0.391,-38.681
'[11:42:55.535 06/11/2076]',132.454,21.099,0.781,-8.205,108.230,23.443,12.112,0.391,78.926,8.205,-6.252,0.781,87.912,41.026,-38.291,-8.987,23.443,10.549,0.000,5.470,12.112,-6.642,-38.291
'[11:42:55.539 06/11/2076]',128.938,24.225,-14.847,4.298,100.024,12.112,16.020,11.722,61.734,8.987,-12.503,-4.298,79.316,51.575,-52.747,-23.443,23.443,13.675,15.629,-12.894,24.225,-5.470,-52.747
'[11:42:55.543 06/11/2076]',139.487,32.039,-13.284,1.172,110.574,13.675,23.053,9.768,69.158,14.457,-5.079,9.377,86.740,55.482,-40.635,-13.284,26.178,21.880,14.066,-19.536,22.271,-2.344,-40.635
'[11:42:55.547 06/11/2076]',147.692,35.556,2.735,9.377,118.388,28.132,31.648,14.847,83.614,16.410,7.424,19.927,101.197,44.542,-12.503,-5.079,29.304,28.523,-1.954,-14.847,14.457,-4.298,-12.503
'[11:42:55.551 06/11/2076]',154.725,35.556,8.987,19.927,121.514,42.198,26.178,28.132,86.740,9.377,16.020,16.801,102.369,44.933,-15.629,-1.172,26.960,27.350,-8.205,-13.284,7.814,-2.344,-15.629
'[11:42:55.555 06/11/2076]',158.242,35.556,19.927,-1.563,123.468,46.105,24.225,16.410,98.462,7.424,18.364,4.689,106.667,49.231,-15.238,-10.940,28.913,21.880,-19.145,-6.642,0.391,0.000,-15.238
'[11:42:55.559 06/11/2076]',164.884,35.165,20.317,-10.159,127.766,48.059,24.225,7.424,109.792,13.284,16.801,-5.079,121.123,35.946,-7.814,-13.284,33.602,13.675,-19.536,9.377,-16.020,-10.549,-7.814
'[11:42:55.563 06/11/2076]',164.103,30.867,7.033,2.735,124.249,41.807,30.476,7.814,106.276,18.755,16.020,-6.252,117.998,36.337,-1.563,-17.192,35.946,10.549,-6.252,9.377,-19.145,-10.159,-1.563
'[11:42:55.566 06/11/2076]',159.023,33.602,14.066,5.470,120.342,34.774,40.244,16.410,101.978,23.834,16.801,0.000,107.448,43.761,9.768,-18.364,34.383,20.708,-13.284,-1.172,-16.020,-10.159,9.768
'[11:42:55.570 06/11/2076]',160.586,35.556,15.238,6.252,123.468,31.258,49.621,12.503,100.024,28.132,23.443,16.020,102.759,48.449,20.708,-3.516,33.211,16.801,-14.457,-5.079,-21.099,-7.424,20.708
'[11:42:55.574 06/11/2076]',158.632,31.648,20.317,15.629,119.951,28.132,56.264,21.490,89.084,25.397,31.258,25.788,94.554,50.794,23.053,2.735,31.648,18.364,-19.536,-1.172,-23.443,-6.642,23.053
'[11:42:55.578 06/11/2076]',152.381,32.821,26.178,16.020,111.746,24.225,57.827,33.211,84.005,22.271,30.867,33.602,90.647,62.906,6.252,11.331,31.258,12.503,-25.397,-1.172,-23.053,0.391,6.252
'[11:42:55.582 06/11/2076]',146.129,28.132,21.490,3.126,105.885,18.755,57.827,16.020,83.614,16.020,31.648,34.774,89.475,67.985,6.252,3.126,29.304,2.344,-20.708,6.252,-25.788,3.907,6.252
'[11:42:55.586 06/11/2076]',136.752,21.099,28.132,7.033,93.382,20.317,56.654,21.880,75.800,7.814,39.072,36.337,85.568,62.515,16.801,-4.689,28.132,2.344,-27.350,17.582,-27.350,1.954,16.801
'[11:42:55.590 06/11/2076]',115.653,14.457,42.979,5.079,74.237,18.755,55.092,29.304,63.297,-1.954,42.198,46.886,72.674,60.952,18.364,-1.172,24.615,0.781,-42.198,17.582,-16.020,3.126,18.364
'[11:42:55.594 06/11/2076]',98.071,14.847,46.105,4.298,54.701,17.192,55.482,35.165,52.747,-10.549,48.059,68.376,64.078,58.999,16.801,17.582,21.490,0.000,-45.324,17.973,-14.457,6.252,16.801
'[11:42:55.598 06/11/2076]',86.740,24.615,38.681,14.847,37.118,17.582,59.780,51.966,42.589,-12.503,49.621,91.038,57.436,53.919,17.973,40.635,25.006,3.126,-37.900,4.298,-14.847,7.033,17.973
'[11:42:55.602 06/11/2076]',63.687,32.430,35.165,37.509,12.112,8.596,67.985,80.098,30.867,-11.331,44.151,83.223,36.337,67.985,12.894,28.523,31.258,0.000,-34.383,-21.880,5.079,15.238,12.894
'[11:42:55.605 06/11/2076]',53.919,40.635,19.145,33.602,3.516,3.907,69.158,71.502,25.006,-8.596,44.151,60.952,23.443,66.032,25.006,7.033,37.118,0.781,-18.364,-33.602,1.172,11.331,25.006
'[11:42:55.609 06/11/2076]',51.966,24.225,21.880,23.443,4.689,0.391,65.641,50.794,24.615,-7.814,46.496,56.264,28.132,49.231,35.946,5.861,40.244,9.768,-21.099,-9.377,-5.470,0.781,35.946
'[11:42:55.613 06/11/2076]',50.794,4.689,40.244,21.099,7.814,5.861,53.919,48.059,23.443,-15.238,53.138,56.264,32.039,32.821,39.072,13.675,36.337,17.973,-39.463,17.973,-19.145,-0.781,39.072
'[11:42:55.617 06/11/2076]',46.105,-1.563,50.403,-5.470,8.987,9.377,38.681,30.476,16.410,-23.443,56.264,38.681,18.364,25.006,41.807,1.954,32.039,19.927,-49.621,28.132,-29.695,-5.079,41.807
'[11:42:55.621 06/11/2076]',42.979,-0.391,48.840,-1.563,8.596,10.549,30.476,39.463,14.066,-28.523,54.701,35.165,10.549,28.523,33.993,1.563,26.569,23.834,-48.059,31.258,-41.416,1.954,33.993
'[11:42:55.625 06/11/2076]',39.463,0.391,50.403,0.000,2.344,14.847,28.913,42.979,16.410,-26.178,48.449,32.039,18.364,18.364,33.993,-0.391,22.271,20.317,-49.621,29.695,-41.026,1.563,33.993
'[11:42:55.629 06/11/2076]',32.821,14.847,48.449,8.205,-4.298,18.755,33.993,56.264,16.801,-18.755,41.026,24.225,13.284,17.973,44.933,-12.503,18.755,17.192,-47.668,9.377,-35.946,3.907,44.933
'[11:42:55.633 06/11/2076]',25.788,20.317,48.840,5.079,-7.814,19.145,34.774,53.919,12.894,-17.973,35.946,21.099,7.424,25.397,40.635,-21.490,16.801,22.662,-48.059,2.344,-24.225,5.470,40.635
'[11:42:55.637 06/11/2076]',18.364,21.099,55.092,10.549,-11.722,24.225,39.072,54.701,8.987,-13.675,40.244,37.900,6.252,29.304,53.138,-16.410,20.317,30.867,-54.310,1.563,-15.629,7.424,53.138
'[11:42:55.641 06/11/2076]',12.503,23.053,56.264,8.987,-13.284,23.834,36.728,53.529,5.079,-13.675,41.807,36.337,1.954,41.416,40.635,-15.238,24.225,35.556,-55.482,2.735,-10.940,11.331,40.635
'[11:42:55.645 06/11/2076]',6.252,21.880,55.482,-8.205,-16.801,26.569,33.211,32.039,1.954,-20.708,45.714,28.132,0.391,41.807,22.662,-10.549,30.085,43.761,-54.701,7.814,-12.112,10.940,22.662
'[11:42:55.648 06/11/2076]',3.126,9.768,59.780,-9.377,-17.582,30.085,26.960,23.443,3.516,-21.099,49.231,37.118,2.735,21.490,43.370,0.781,29.304,35.556,-58.999,19.536,-14.457,-2.735,43.370
'[11:42:55.652 06/11/2076]',1.563,8.596,64.469,-13.675,-21.099,30.476,25.006,24.615,5.861,-22.271,44.151,32.430,3.516,5.079,47.668,4.298,23.053,27.741,-63.687,19.927,-18.755,-7.814,47.668
'[11:42:55.656 06/11/2076]',-4.689,9.377,73.065,-12.894,-28.913,30.085,26.178,35.165,6.642,-24.615,37.509,7.033,-4.689,4.689,45.324,-18.755,17.582,24.615,-72.283,7.814,-7.814,-4.689,45.324
'[11:42:55.660 06/11/2076]',-9.768,1.563,78.926,-5.470,-23.834,23.053,24.225,40.244,7.424,-17.582,29.695,11.331,-0.781,6.252,55.873,-30.085,16.020,19.927,-78.144,9.377,5.861,3.907,55.873
'[11:42:55.664 06/11/2076]',-14.457,5.470,69.158,-7.033,-19.927,6.252,24.615,41.026,7.424,-11.331,14.066,8.596,-1.563,19.145,44.933,-42.979,14.457,15.238,-68.376,-7.033,19.536,16.410,44.933
'[11:42:55.668 06/11/2076]',-17.582,10.159,52.747,-14.457,-21.099,3.126,26.960,20.708,10.159,-7.814,13.284,-32.039,-6.252,37.118,29.304,-77.363,16.801,15.629,-51.966,-8.205,21.880,19.927,29.304
'[11:42:55.672 06/11/2076]',-19.536,10.549,38.291,-26.569,-18.755,5.861,21.880,-7.424,5.079,-6.642,17.192,-51.966,-14.847,28.913,33.993,-85.177,20.708,12.894,-37.509,0.391,5.470,7.814,33.993
'[11:42:55.676 06/11/2076]',-12.894,6.642,35.946,-30.867,-15.629,13.675,17.582,-17.192,1.172,-1.954,21.490,-36.728,-11.331,8.596,35.556,-48.059,21.880,13.675,-35.165,17.192,-19.145,-6.252,35.556
'[11:42:55.680 06/11/2076]',-9.377,16.410,21.880,-32.039,-16.020,21.099,17.973,-26.178,-0.391,1.563,31.648,-39.853,-12.503,6.642,30.085,-31.648,26.569,16.801,-21.099,14.847,-32.039,-7.033,30.085
'[11:42:55.684 06/11/2076]',-12.894,14.457,29.304,-23.053,-18.755,26.960,16.020,-16.410,-8.596,3.907,38.681,-39.853,-25.397,17.973,30.476,-28.523,30.085,22.271,-28.523,11.331,-29.304,-1.563,30.476
'[11:42:55.688 06/11/2076]',-12.503,8.596,40.635,-20.317,-14.066,23.053,19.145,-12.112,-10.940,8.205,42.589,-23.443,-26.960,25.006,42.198,-23.053,28.913,28.132,-39.853,7.424,-22.662,7.424,42.198
'[11:42:55.691 06/11/2076]',-9.768,0.391,49.231,-3.516,-9.377,22.271,20.317,1.563,-3.516,7.814,45.324,-19.536,-18.364,35.165,28.523,-14.457,28.132,30.476,-48.449,17.582,-22.271,19.145,28.523
'[11:42:55.695 06/11/2076]',-13.675,-11.722,61.343,5.470,-8.987,22.662,17.973,7.424,0.391,7.033,44.933,-16.020,-15.629,30.867,32.039,-10.940,24.615,26.178,-60.562,26.178,-16.801,17.582,32.039
'[11:42:55.699 06/11/2076]',-17.192,-14.457,67.204,1.563,-7.814,19.145,14.457,8.987,0.000,4.689,37.900,-8.596,-17.973,25.397,41.807,-15.238,22.271,18.364,-66.422,21.880,-12.503,17.973,41.807
'[11:42:55.703 06/11/2076]',-19.145,-8.596,49.231,3.907,-12.894,19.145,8.596,8.596,-3.126,3.126,30.085,-13.284,-23.443,25.006,34.383,-19.145,21.490,9.377,-48.449,16.410,-14.847,16.020,34.383
'[11:42:55.707 06/11/2076]',-22.271,2.735,23.053,3.516,-18.755,19.145,4.298,1.954,-11.722,5.861,29.695,-21.490,-35.946,32.039,35.946,-29.304,21.490,7.033,-22.271,1.954,-15.629,14.066,35.946
'[11:42:55.711 06/11/2076]',-21.490,12.503,0.781,0.391,-21.099,21.880,1.954,-10.940,-18.364,7.033,32.039,-22.271,-43.370,34.383,33.602,-26.569,21.880,6.252,0.000,-5.861,-21.880,10.549,33.602
'[11:42:55.715 06/11/2076]',-19.145,-6.252,0.781,13.284,-23.443,23.834,-2.735,-8.205,-23.443,9.377,34.383,-15.238,-44.933,33.993,31.258,-14.847,22.271,6.642,0.000,14.847,-33.602,10.549,31.258
'[11:42:55.719 06/11/2076]',-22.662,-23.834,1.172,14.847,-30.085,22.271,-6.252,-15.238,-28.913,13.675,36.337,-21.490,-52.747,41.807,31.258,-20.708,26.960,4.298,-0.391,25.006,-34.383,14.457,31.258
'[11:42:55.723 06/11/2076]',-28.132,-31.648,10.159,22.271,-36.728,20.317,-4.298,-6.252,-31.258,17.973,33.993,-30.476,-62.125,48.840,38.681,-34.383,33.602,0.391,-9.377,25.397,-30.476,15.629,38.681
'[11:42:55.727 06/11/2076]',-34.383,-37.900,11.722,24.225,-43.370,10.159,-2.735,-0.391,-27.741,20.317,21.490,-16.020,-57.436,46.105,39.463,-30.085,37.509,-8.987,-10.940,25.397,-23.443,21.490,39.463
'[11:42:55.730 06/11/2076]',-32.821,-28.913,7.424,24.225,-44.933,8.205,0.391,5.861,-23.443,22.662,17.582,-18.755,-53.529,48.840,40.244,-37.118,43.370,-10.940,-6.642,11.331,-17.973,24.615,40.244
'[11:42:55.734 06/11/2076]',-32.821,-19.145,0.000,13.675,-48.059,14.066,1.563,-6.642,-19.927,24.225,24.225,-39.853,-54.701,58.608,38.291,-53.919,45.714,-10.159,0.781,3.907,-19.927,28.523,38.291
'[11:42:55.738 06/11/2076]',-29.304,-17.973,0.391,15.238,-44.933,23.053,-1.954,-6.642,-15.629,19.145,29.304,-36.728,-48.840,50.012,37.509,-42.979,39.072,-5.470,0.391,5.079,-24.225,25.006,37.509
'[11:42:55.742 06/11/2076]',-22.662,-21.490,2.735,14.457,-44.151,29.695,-2.344,-9.768,-10.940,16.801,31.258,-23.443,-32.821,39.072,31.648,-23.834,34.383,1.954,-1.954,17.582,-32.039,22.271,31.648
'[11:42:55.746 06/11/2076]',-23.443,-18.755,0.391,5.470,-46.496,32.821,-2.735,-19.145,-10.159,13.675,32.430,-18.755,-27.741,36.728,24.225,-17.192,25.397,8.205,0.391,18.364,-36.728,25.397,24.225
'[11:42:55.750 06/11/2076]',-25.006,-13.284,-2.344,8.987,-48.059,29.304,-3.126,-10.549,-13.284,7.814,27.741,-11.722,-34.383,37.509,22.662,-14.457,16.020,8.596,3.126,9.377,-36.337,24.225,22.662
'[11:42:55.754 06/11/2076]',-22.662,-8.205,11.722,4.298,-42.198,25.788,-0.391,1.563,-16.801,8.987,25.006,-7.814,-39.072,33.211,31.648,-16.410,13.675,8.205,-10.940,1.172,-35.946,19.927,31.648
'[11:42:55.758 06/11/2076]',-21.099,-4.689,5.079,8.205,-37.118,22.271,-3.907,6.252,-20.708,10.549,27.350,-12.894,-38.291,36.728,25.006,-19.145,16.020,2.735,-4.298,3.907,-40.244,20.708,25.006
'[11:42:55.762 06/11/2076]',-20.708,-11.722,7.814,3.907,-33.993,19.536,-7.033,0.391,-25.006,12.112,30.867,-18.755,-41.416,42.589,20.317,-22.662,18.364,-6.642,-7.033,13.284,-42.979,23.834,20.317
'[11:42:55.766 06/11/2076]',-17.973,-7.033,4.689,9.377,-31.648,24.225,-10.549,8.205,-25.397,13.284,30.085,-5.861,-40.635,48.840,16.410,-12.503,21.490,-12.503,-3.907,15.629,-48.840,27.741,16.410
'[11:42:55.770 06/11/2076]',-17.973,1.954,-4.298,11.331,-33.211,26.960,-11.331,8.205,-24.615,12.112,27.741,-9.377,-39.072,64.078,-0.391,-17.973,23.834,-17.192,5.079,7.814,-44.542,37.900,-0.391
'[11:42:55.773 06/11/2076]',-16.020,4.298,-7.814,4.298,-36.728,28.132,-11.331,3.907,-26.178,8.987,28.132,-15.238,-40.635,71.893,-10.549,-23.834,23.443,-17.973,8.596,13.284,-54.310,43.761,-10.549
'[11:42:55.777 06/11/2076]',-13.675,3.516,-11.331,16.801,-38.681,28.523,-11.331,16.410,-23.443,5.079,25.397,1.172,-33.993,47.277,7.033,-11.331,20.317,-16.801,12.112,10.940,-48.059,21.880,7.033
'[11:42:55.781 06/11/2076]',-13.284,-5.470,-7.033,4.689,-39.072,17.973,-13.284,12.112,-23.443,3.516,19.145,11.722,-24.615,22.662,17.582,-4.298,19.145,-14.066,7.814,10.940,-33.602,2.344,17.582
'[11:42:55.785 06/11/2076]',-19.145,-16.410,-5.470,4.298,-50.012,5.470,-11.331,17.973,-28.132,3.907,17.582,-0.781,-27.741,14.847,27.741,-22.271,20.317,-10.549,6.252,18.364,-35.165,-2.344,27.741
'[11:42:55.789 06/11/2076]',-35.946,-14.066,-6.252,12.112,-66.032,-7.033,-4.298,32.039,-30.476,3.907,10.159,-2.735,-29.304,16.801,26.960,-33.993,19.145,-8.205,7.033,4.689,-13.284,-1.172,26.960
'[11:42:55.793 06/11/2076]',-35.165,-6.252,-6.642,1.954,-58.608,-13.675,-1.954,26.569,-21.099,5.079,10.549,-7.424,-23.443,24.225,26.569,-40.635,23.443,-9.768,7.424,-2.344,-8.987,8.987,26.569
'[11:42:55.797 06/11/2076]',-30.867,-3.126,-6.642,0.391,-49.621,-12.894,-2.344,22.271,-8.987,2.735,14.847,-27.741,-16.410,32.430,18.755,-53.529,25.397,-15.629,7.424,6.642,-14.847,17.192,18.755
'[11:42:55.801 06/11/2076]',-30.867,-12.112,-16.801,6.642,-48.449,-11.722,-13.675,20.708,-12.503,-9.768,19.145,-47.668,-23.443,27.350,12.503,-68.767,16.801,-23.443,17.582,19.145,-15.629,11.722,12.503
'[11:42:55.805 06/11/2076]',-32.430,-16.410,-31.258,-1.563,-52.357,-13.675,-23.834,7.424,-25.397,-20.317,18.364,-47.277,-30.867,17.192,8.205,-68.767,10.159,-28.523,32.039,21.490,-12.894,5.861,8.205
'[11:42:55.809 06/11/2076]',-33.993,-27.741,-36.728,-7.814,-58.999,-16.801,-28.913,-1.954,-31.648,-26.178,16.020,-38.291,-20.708,0.391,-7.033,-51.575,3.516,-29.304,37.509,40.244,-13.284,-1.172,-7.033
'[11:42:55.813 06/11/2076]',-46.886,-35.556,-34.774,1.954,-76.581,-18.755,-26.960,6.642,-37.900,-30.085,14.457,-23.834,-16.020,-8.596,-15.629,-36.728,-3.126,-24.225,35.556,42.198,-2.735,-7.424,-15.629
'[11:42:55.816 06/11/2076]',-39.072,-18.364,-27.350,-7.424,-64.469,-17.582,-21.490,9.377,-25.006,-26.960,15.629,-14.457,-16.801,0.391,0.391,-33.211,-3.907,-18.755,28.132,23.443,-7.033,-3.516,0.391
'[11:42:55.820 06/11/2076]',-11.331,-21.880,-9.768,-8.987,-28.913,-13.675,-20.708,9.377,3.516,-12.894,16.801,-14.066,-2.735,20.708,6.642,-32.430,2.344,-10.940,10.549,30.867,-18.755,5.470,6.642
'[11:42:55.824 06/11/2076]',7.424,-19.536,-4.298,3.907,-8.205,-7.033,-19.145,22.271,23.443,-8.205,21.490,-16.801,10.940,36.728,-4.298,-23.834,6.642,-3.516,5.079,37.509,-32.039,13.284,-4.298
'[11:42:55.828 06/11/2076]',28.913,-19.145,-10.549,0.391,10.940,-8.596,-20.708,15.238,29.695,-8.596,18.755,-21.099,17.192,51.575,-17.582,-32.821,9.377,-2.735,11.331,38.291,-30.085,24.225,-17.582
'[11:42:55.832 06/11/2076]',47.277,-10.940,-26.569,0.391,28.132,-6.252,-19.927,8.205,39.463,-10.159,16.801,-19.536,30.085,60.562,-36.728,-27.350,16.020,0.000,27.350,35.556,-37.118,36.337,-36.728
'[11:42:55.836 06/11/2076]',55.873,-10.159,-38.681,0.000,27.741,-0.781,-18.755,-2.735,51.575,-14.066,16.410,-28.523,39.853,55.092,-47.277,-22.271,15.629,-2.344,39.463,40.635,-46.105,31.648,-47.277
'[11:42:55.840 06/11/2076]',66.422,-10.159,-44.151,10.159,37.509,1.954,-16.410,-1.172,66.813,-14.457,11.722,-33.211,43.761,46.886,-25.788,-33.993,13.284,-2.735,44.933,37.509,-42.198,16.020,-25.788
'[11:42:55.844 06/11/2076]',75.409,-14.847,-39.072,5.861,41.416,2.344,-12.503,-4.689,92.210,-15.238,7.033,-28.132,59.389,37.509,-11.722,-29.304,12.112,-5.861,39.853,42.589,-48.059,4.689,-11.722
'[11:42:55.848 06/11/2076]',76.190,-22.662,-31.258,16.020,39.072,1.563,-8.987,6.642,95.336,-5.470,1.563,-22.662,61.734,40.635,-13.284,-21.099,4.298,-3.126,32.039,52.357,-51.966,2.344,-13.284
'[11:42:55.852 06/11/2076]',76.581,-27.741,-29.304,21.099,37.509,-4.689,-8.205,15.238,81.661,-1.563,-6.642,-34.383,34.383,72.674,-24.225,-44.151,-1.954,-4.689,30.085,41.416,-30.476,11.722,-24.225
'[11:42:55.855 06/11/2076]',95.336,-20.317,-30.867,0.391,58.608,-10.549,-6.642,1.563,73.846,4.298,-6.642,-50.794,26.960,86.740,-26.960,-65.641,-2.344,-2.344,31.648,34.774,-29.695,17.582,-26.960
'[11:42:55.859 06/11/2076]',107.057,-5.861,-33.993,-8.987,78.926,-7.033,-6.642,-8.205,71.893,10.940,-3.126,-42.589,33.602,81.661,-28.132,-50.012,-3.126,1.954,34.774,37.509,-39.072,13.284,-28.132
'[11:42:55.863 06/11/2076]',112.137,-7.033,-39.463,-5.861,83.614,3.126,-9.768,-19.536,77.363,18.755,1.563,-35.556,48.840,74.628,-24.225,-35.946,-1.954,1.172,40.244,49.621,-52.357,8.596,-24.225
'[11:42:55.867 06/11/2076]',116.435,0.781,-30.476,-2.344,91.819,5.861,-5.079,-10.549,83.223,23.834,7.424,-30.476,67.595,65.641,-16.020,-32.039,2.344,0.000,31.258,43.370,-54.310,1.954,-16.020
'[11:42:55.871 06/11/2076]',109.792,6.252,-24.225,5.470,90.647,3.907,1.563,-0.391,90.647,23.834,8.596,-23.443,78.535,65.641,-14.066,-28.523,8.987,0.391,25.006,38.291,-52.747,5.079,-14.066
'[11:42:55.875 06/11/2076]',103.932,-9.377,-4.689,14.066,90.647,-0.391,5.470,6.642,103.541,21.099,7.033,-12.503,89.084,71.502,-22.271,-17.192,12.503,-3.126,5.470,61.343,-49.621,5.470,-22.271
'[11:42:55.879 06/11/2076]',102.759,-16.801,12.503,8.205,93.382,-1.563,4.689,8.596,103.150,7.033,2.735,-12.894,79.316,72.283,-26.178,-23.834,10.549,-6.642,-11.722,65.641,-39.463,7.814,-26.178
'[11:42:55.883 06/11/2076]',95.336,-3.126,10.940,1.954,84.005,1.172,8.596,9.768,95.336,-1.954,-1.563,-7.814,59.389,70.330,-19.927,-26.178,3.907,-5.470,-10.159,51.575,-38.291,3.516,-19.927
'[11:42:55.887 06/11/2076]',70.720,-7.814,23.443,3.907,55.092,5.470,11.722,16.801,88.694,-8.205,-3.126,0.391,46.105,60.171,-9.377,-20.708,-1.954,0.391,-22.662,54.701,-40.635,-5.470,-9.377
'[11:42:55.891 06/11/2076]',70.330,0.391,10.159,12.112,44.151,14.457,12.112,21.490,58.608,-6.642,-3.516,5.861,21.880,51.184,-5.470,-14.457,-2.735,-2.344,-9.377,36.337,-42.198,-7.424,-5.470
'[11:42:55.895 06/11/2076]',85.958,18.364,-7.424,10.159,68.767,7.814,11.722,17.192,19.536,-0.391,-2.344,8.596,-5.861,44.933,-5.470,-8.596,-2.344,-7.033,8.205,14.066,-46.105,-3.126,-5.470
'[11:42:55.898 06/11/2076]',88.303,0.000,2.344,8.987,87.131,-3.516,5.861,10.159,42.589,-3.907,-1.172,14.847,11.331,35.556,1.954,2.344,-0.781,-19.145,-1.563,30.867,-55.873,-3.126,1.954
'[11:42:55.902 06/11/2076]',79.316,-13.284,6.642,10.159,96.117,-13.675,-3.126,3.907,53.529,-14.457,-3.516,13.284,12.894,38.291,-8.596,6.252,-6.252,-34.383,-5.861,40.635,-57.436,5.861,-8.596
'[11:42:55.906 06/11/2076]',62.515,-15.629,0.391,10.940,87.521,-22.271,-9.377,2.735,54.310,-28.132,-10.549,8.596,-5.861,40.635,-9.768,-0.391,-11.722,-47.277,0.391,35.556,-57.436,7.033,-9.768
'[11:42:55.910 06/11/2076]',33.211,-32.430,3.907,11.722,50.794,-24.615,-8.205,-0.391,59.389,-35.165,-15.238,17.973,-9.768,33.211,-4.298,6.642,-16.410,-52.747,-3.126,36.337,-50.794,1.172,-4.298
'[11:42:55.914 06/11/2076]',-5.079,-41.416,3.516,16.801,19.536,-38.681,-6.642,0.391,33.602,-36.728,-24.615,30.085,-33.993,29.304,-5.079,11.722,-21.490,-50.012,-2.735,21.099,-26.960,0.781,-5.079
'[11:42:55.918 06/11/2076]',-16.801,-46.496,5.861,6.252,8.987,-45.324,-2.344,-12.112,6.642,-33.602,-23.053,9.768,-60.171,30.476,-3.516,-7.033,-21.490,-45.324,-5.079,9.377,-13.284,2.344,-3.516
'[11:42:55.922 06/11/2076]',-25.006,-58.217,9.768,-8.596,-0.781,-44.933,-1.172,-33.993,-0.391,-32.039,-14.847,-10.549,-64.078,29.695,-7.033,-17.973,-22.662,-39.463,-8.987,16.020,-18.364,7.033,-7.033
'[11:42:55.926 06/11/2076]',-32.430,-60.562,7.033,-14.847,-10.940,-39.853,-4.689,-44.933,-0.781,-31.648,-7.814,2.735,-48.449,7.814,-6.252,8.596,-26.569,-34.774,-6.252,28.913,-37.509,4.689,-6.252
'[11:42:55.930 06/11/2076]',-17.973,-52.357,0.000,-17.973,0.391,-34.774,-3.907,-50.012,-0.391,-33.602,-3.907,2.735,-46.105,8.987,-11.331,13.284,-26.960,-29.304,0.781,35.165,-57.045,14.847,-11.331
'[11:42:55.934 06/11/2076]',-9.377,-43.761,-9.377,-16.020,-4.298,-22.662,-5.861,-46.105,-24.225,-33.211,0.781,0.391,-67.985,1.563,5.470,3.907,-26.960,-26.960,10.159,24.615,-58.217,3.907,5.470
'[11:42:55.938 06/11/2076]',-21.880,-36.728,-15.629,-16.020,-20.708,-19.927,-8.987,-41.026,-33.993,-30.476,-1.954,5.861,-71.502,-10.159,20.708,-1.954,-27.741,-23.053,16.410,14.066,-51.184,-4.689,20.708
'[11:42:55.941 06/11/2076]',-3.907,-38.291,-10.159,-14.066,-6.252,-20.317,-7.814,-32.430,-32.821,-33.211,-3.907,4.689,-64.860,-17.582,20.317,-4.298,-28.523,-19.927,10.940,16.801,-44.933,-10.940,20.317
'[11:42:55.945 06/11/2076]',-0.781,-46.105,-7.424,-18.755,-9.768,-17.582,-13.284,-32.039,-30.867,-38.681,-7.814,-5.470,-59.389,-23.053,10.940,-14.066,-32.039,-21.880,8.205,20.317,-32.430,-15.629,10.940
'[11:42:55.949 06/11/2076]',-14.066,-50.794,-15.238,-38.681,-31.648,-19.927,-19.927,-47.668,-5.079,-53.138,-14.457,-7.814,-41.416,-22.662,-2.344,-15.238,-41.416,-24.615,16.020,22.271,-39.072,-8.205,-2.344
'[11:42:55.953 06/11/2076]',-42.979,-50.403,-15.629,-34.774,-59.780,-29.304,-19.536,-35.165,12.894,-68.376,-19.145,0.391,-35.946,-17.582,-16.410,-3.516,-47.668,-21.880,16.410,27.350,-48.840,-3.516,-16.410
'[11:42:55.957 06/11/2076]',-44.933,-47.668,-23.834,-39.853,-58.217,-41.416,-19.536,-36.728,2.344,-67.985,-19.927,-6.252,-41.416,-22.271,-18.364,-9.377,-54.701,-19.536,24.615,27.350,-49.621,-8.987,-18.364
'[11:42:55.961 06/11/2076]',-41.416,-41.416,-37.900,-53.529,-51.575,-51.575,-24.615,-46.496,-12.503,-66.813,-18.364,-5.861,-52.747,-31.258,-16.410,-3.126,-59.780,-17.973,38.681,22.271,-60.952,-14.457,-16.410
'[11:42:55.965 06/11/2076]',-34.383,-46.105,-26.178,-33.993,-42.979,-55.482,-23.443,-18.364,-21.880,-62.906,-19.536,9.377,-57.436,-36.728,-19.536,18.364,-61.734,-14.457,26.960,26.178,-64.860,-15.629,-19.536
'[11:42:55.969 06/11/2076]',-21.490,-45.714,-31.648,-26.178,-33.602,-57.827,-24.225,-10.159,-38.291,-55.092,-19.536,-2.735,-67.204,-35.946,-19.927,6.642,-62.125,-16.801,32.430,19.536,-62.906,-16.410,-19.927
'[11:42:55.973 06/11/2076]',-37.509,-52.747,-29.695,-35.946,-52.747,-57.045,-27.741,-17.973,-48.059,-51.184,-24.615,-21.099,-84.005,-14.066,-37.509,-10.940,-59.780,-16.801,30.476,15.629,-51.575,-1.563,-37.509
'[11:42:55.977 06/11/2076]',-70.720,-80.488,-16.410,-19.145,-88.303,-65.641,-26.178,-6.642,-56.264,-49.231,-32.821,1.172,-91.819,5.470,-56.264,5.079,-58.999,-16.020,17.192,34.774,-42.198,11.722,-56.264
'[11:42:55.980 06/11/2076]',-69.939,-81.661,-20.317,-22.271,-95.726,-60.562,-24.225,-14.066,-82.051,-36.728,-28.913,-5.470,-105.495,8.987,-52.357,-5.079,-56.264,-10.159,21.099,35.165,-38.681,11.331,-52.357
'[11:42:55.984 06/11/2076]',-48.840,-77.363,-17.192,-42.198,-82.442,-50.794,-21.490,-30.867,-130.501,-25.788,-19.927,-25.397,-145.739,20.317,-57.827,-20.317,-53.138,-2.735,17.973,32.821,-39.463,16.410,-57.827
'[11:42:55.988 06/11/2076]',-29.695,-64.469,-26.569,-30.476,-62.125,-42.979,-21.490,-24.225,-106.667,-32.430,-11.722,-20.317,-129.328,4.298,-40.635,-7.033,-51.966,1.954,27.350,32.039,-57.827,0.781,-40.635
'[11:42:55.992 06/11/2076]',8.987,-46.105,-31.258,-17.192,-17.582,-36.728,-15.238,-15.238,-72.283,-37.509,-5.079,-7.424,-92.210,-17.582,-26.569,12.894,-53.138,4.298,32.039,28.523,-64.469,-12.894,-26.569
'[11:42:55.996 06/11/2076]',-0.781,-47.277,-16.410,-27.741,-21.880,-32.039,-10.940,-26.569,-41.416,-39.072,-1.563,-8.987,-58.608,-25.788,-24.225,16.020,-53.138,8.596,17.192,40.635,-68.376,-12.894,-24.225
'[11:42:56.000 06/11/2076]',-36.337,-44.151,-15.238,-9.768,-53.529,-32.430,-5.079,-14.066,-16.410,-39.463,-0.781,-0.781,-43.761,-14.457,-17.973,17.582,-50.403,15.629,16.020,31.258,-55.092,-8.205,-17.973
'[11:42:56.004 06/11/2076]',-41.026,-48.059,-7.814,-5.861,-60.952,-29.695,0.391,-12.894,-40.635,-26.178,0.391,1.563,-59.389,-3.516,-14.457,12.503,-51.575,26.178,8.596,35.946,-46.105,-3.907,-14.457
'[11:42:56.008 06/11/2076]',-55.092,-49.231,-8.596,-12.112,-89.475,-22.662,8.596,-22.662,-53.919,-16.801,7.033,-1.563,-62.515,0.391,-13.675,9.768,-50.794,39.072,9.377,40.635,-50.012,2.735,-13.675
'[11:42:56.012 06/11/2076]',-33.211,-45.714,-8.596,5.470,-63.297,-26.569,11.722,-4.298,-51.575,-23.443,8.987,7.424,-71.893,4.298,-12.112,20.708,-44.933,41.807,9.377,35.556,-49.621,5.470,-12.112
'[11:42:56.016 06/11/2076]',-7.424,-40.244,-8.205,12.112,-35.556,-26.569,13.284,4.689,-58.608,-26.960,8.205,17.973,-85.958,2.735,-8.596,32.430,-45.324,41.807,8.987,26.178,-49.231,6.252,-8.596
'[11:42:56.020 06/11/2076]',-7.033,-42.198,-6.252,0.781,-31.648,-26.569,10.940,-7.424,-41.807,-25.006,8.987,13.284,-65.641,-5.470,-4.689,31.258,-41.807,35.946,7.033,27.350,-51.966,3.126,-4.689
'[11:42:56.023 06/11/2076]',-35.946,-53.529,6.642,0.781,-65.641,-14.457,6.642,-7.814,-51.184,-21.099,10.159,9.768,-72.674,-9.768,-3.126,33.211,-32.430,31.648,-5.861,33.993,-51.966,2.344,-3.126
'[11:42:56.027 06/11/2076]',-41.807,-54.310,8.987,3.516,-77.363,-8.596,5.079,-1.954,-55.482,-6.642,9.768,17.973,-66.813,-7.033,-1.563,41.416,-28.913,33.211,-8.205,29.695,-51.966,3.126,-1.563
'[11:42:56.031 06/11/2076]',-33.602,-53.919,-7.033,0.000,-68.767,-17.192,1.563,-11.331,-37.900,-6.252,7.814,20.317,-54.701,5.079,-5.079,38.291,-27.741,33.602,7.814,30.085,-57.827,10.549,-5.079
'[11:42:56.035 06/11/2076]',-24.615,-58.217,-16.410,1.954,-61.734,-26.569,4.298,-12.894,-36.728,-11.331,9.768,10.940,-61.734,16.801,-3.126,19.927,-23.053,35.165,17.192,28.132,-55.092,16.020,-3.126
'[11:42:56.039 06/11/2076]',-16.020,-53.138,-22.271,14.066,-53.529,-36.337,8.987,2.344,-31.648,-10.940,3.126,8.987,-61.343,34.774,-8.987,4.298,-19.145,35.946,23.053,13.284,-38.291,26.960,-8.987
'[11:42:56.043 06/11/2076]',-9.768,-62.125,-10.940,5.470,-43.370,-33.993,12.112,-12.112,-40.635,-12.112,7.033,7.424,-65.641,29.695,-3.907,0.781,-13.284,35.165,11.722,20.708,-21.490,24.615,-3.907
'[11:42:56.047 06/11/2076]',-7.814,-64.860,-1.563,-7.424,-38.291,-22.271,8.987,-30.085,-29.695,-9.377,12.894,4.689,-37.900,7.814,3.126,4.689,-10.159,33.602,2.344,38.681,-27.350,13.675,3.126
'[11:42:56.051 06/11/2076]',-19.927,-63.687,23.053,5.079,-60.171,-1.172,8.205,-1.172,-49.621,-6.642,18.755,3.126,-53.919,2.735,5.470,9.768,-11.331,34.383,-22.271,40.635,-32.039,11.331,5.470
'[11:42:56.055 06/11/2076]',-27.350,-63.297,17.973,15.629,-60.171,-5.861,3.907,5.470,-45.324,-9.377,18.755,6.642,-53.919,0.391,11.331,12.894,-14.847,32.039,-17.192,40.635,-32.821,6.642,11.331
'[11:42:56.059 06/11/2076]',-41.807,-64.078,1.954,14.847,-73.455,-9.768,0.391,-4.689,-61.734,-5.470,16.410,15.238,-60.171,-10.940,15.629,19.536,-18.755,30.085,-1.172,55.092,-47.668,2.735,15.629
'[11:42:56.063 06/11/2076]',-53.138,-58.217,8.596,16.801,-84.005,-6.252,5.470,0.391,-66.422,0.781,15.238,25.397,-61.734,-7.424,19.536,25.006,-14.066,29.304,-7.814,47.668,-40.244,6.642,19.536
'[11:42:56.066 06/11/2076]',-48.059,-54.310,0.781,24.615,-76.972,-3.126,2.344,1.563,-16.801,-2.735,11.722,30.085,-27.350,2.735,22.662,23.443,-9.377,27.350,0.000,37.118,-26.569,6.252,22.662
'[11:42:56.070 06/11/2076]',-55.873,-58.608,0.391,20.708,-86.349,0.000,-0.391,-4.298,17.973,-13.284,11.722,31.258,-6.252,5.861,22.271,25.397,-10.549,26.960,0.391,41.026,-30.085,5.861,22.271
'[11:42:56.074 06/11/2076]',-41.807,-58.217,4.689,18.755,-75.409,-1.172,-0.391,1.563,11.331,-14.066,15.238,29.695,-7.814,12.112,8.205,28.523,-10.549,23.053,-3.907,44.542,-39.853,12.503,8.205
'[11:42:56.078 06/11/2076]',-52.747,-66.032,7.424,24.615,-97.289,0.391,-1.172,12.112,-33.602,-10.159,16.020,32.821,-38.291,8.596,1.563,32.430,-8.596,18.364,-6.642,45.714,-37.900,10.159,1.563
'[11:42:56.082 06/11/2076]',-35.556,-82.833,5.470,13.675,-74.628,-11.722,-8.205,-1.563,-69.158,-0.391,13.284,30.085,-54.701,-3.516,3.126,28.132,-4.689,14.847,-4.689,60.171,-41.416,0.781,3.126
'[11:42:56.086 06/11/2076]',22.271,-64.860,3.907,-7.424,3.126,-10.549,-10.159,-25.788,-54.701,10.940,12.503,12.112,-30.476,-1.172,-3.126,16.410,0.781,11.331,-3.126,54.701,-39.853,1.563,-3.126
'[11:42:56.090 06/11/2076]',27.350,-43.370,11.722,-1.172,18.755,4.298,-8.596,-18.755,-67.595,30.476,12.112,13.675,-41.807,-1.172,19.536,12.503,12.503,18.755,-10.940,46.105,-31.648,-8.987,19.536
'[11:42:56.094 06/11/2076]',12.112,-29.304,9.768,18.755,-7.424,27.350,-6.642,0.000,-50.794,40.244,8.205,32.430,-26.569,-7.424,34.774,30.085,27.741,28.913,-8.987,40.635,-28.132,-21.099,34.774
'[11:42:56.098 06/11/2076]',17.582,-11.722,-3.907,30.867,-14.066,35.165,2.344,8.987,-14.457,49.621,4.689,40.244,7.814,-4.689,40.244,36.728,31.258,31.648,4.689,17.192,-16.410,-23.053,40.244
'[11:42:56.102 06/11/2076]',-34.383,8.596,-4.689,55.092,-87.131,48.059,17.973,45.324,-58.217,64.078,5.861,51.184,-28.523,18.364,45.324,27.350,39.853,43.370,5.470,-7.033,-3.907,-9.768,45.324
'[11:42:56.105 06/11/2076]',-24.225,-3.516,5.470,48.449,-79.316,46.886,22.662,35.556,-83.223,78.926,8.987,50.012,-33.993,30.085,39.072,18.364,54.701,45.324,-4.689,1.954,10.549,-6.252,39.072
'[11:42:56.109 06/11/2076]',58.999,17.973,-4.689,41.807,39.072,31.258,23.443,19.927,13.284,79.316,10.549,46.496,56.264,41.807,29.304,21.490,53.138,44.151,5.470,-0.781,15.238,-5.861,29.304
'[11:42:56.113 06/11/2076]',119.560,6.642,21.880,31.258,114.090,42.979,16.020,6.252,71.893,65.641,13.675,56.654,104.322,44.151,30.085,29.304,46.105,46.105,-21.099,47.277,-0.391,-4.298,30.085
'[11:42:56.117 06/11/2076]',123.468,2.735,40.635,25.397,114.872,60.171,12.112,4.298,31.258,72.674,14.847,57.045,70.720,41.807,36.337,26.960,48.840,48.840,-39.853,60.171,0.781,-18.364,36.337
'[11:42:56.121 06/11/2076]',94.554,10.549,35.946,35.165,73.846,76.581,10.549,14.847,22.271,64.860,14.066,54.310,48.449,44.151,36.337,28.132,53.919,47.668,-35.165,47.277,5.470,-22.662,36.337
'[11:42:56.125 06/11/2076]',99.243,4.298,38.681,32.821,44.542,99.243,12.503,19.145,47.668,59.780,12.503,62.125,80.488,37.509,22.271,41.807,52.357,48.840,-37.900,53.529,4.689,-27.741,22.271
'[11:42:56.129 06/11/2076]',87.131,0.391,42.979,46.496,37.509,87.521,14.457,37.900,34.383,60.562,10.549,60.562,74.628,40.244,6.252,44.933,61.343,50.794,-42.198,43.761,17.192,-26.178,6.252
'[11:42:56.133 06/11/2076]',155.897,18.755,31.648,41.807,159.023,49.621,10.940,28.913,143.004,39.463,5.079,55.092,157.460,36.728,1.172,46.886,57.436,43.761,-30.867,25.397,30.867,-33.211,1.172
'[11:42:56.137 06/11/2076]',191.453,38.291,20.317,37.118,214.896,42.198,10.549,19.927,196.923,31.648,1.172,49.231,203.175,20.708,17.582,38.291,50.794,38.681,-19.536,18.364,32.039,-42.589,17.582
'[11:42:56.141 06/11/2076]',198.877,51.966,6.642,35.165,257.485,15.629,9.377,10.549,134.799,46.886,-3.907,42.979,164.884,7.424,17.582,31.258,49.231,29.695,-5.861,14.457,36.337,-48.449,17.582
'[11:42:56.145 06/11/2076]',166.056,62.515,-4.298,21.099,214.115,27.350,9.768,-6.642,93.773,53.138,-5.470,35.165,140.269,-1.954,18.755,19.927,51.966,17.192,5.079,1.172,46.886,-50.012,18.755
'[11:42:56.148 06/11/2076]',103.932,72.283,-10.549,11.331,133.236,53.529,8.596,-17.582,61.343,51.184,-8.987,33.993,99.634,3.516,12.503,21.490,57.045,9.377,11.331,0.391,44.151,-42.589,12.503
'[11:42:56.152 06/11/2076]',74.628,62.515,-6.642,14.847,91.038,60.952,6.252,-12.112,37.118,66.422,-12.112,28.913,98.071,18.755,-11.331,16.020,60.562,1.954,7.424,0.000,57.827,-30.476,-11.331
'[11:42:56.156 06/11/2076]',99.243,46.496,7.033,12.503,112.918,62.906,0.781,-10.940,99.634,48.449,-15.629,19.145,130.501,30.867,-11.722,2.344,54.701,-8.987,-6.252,-1.563,79.707,-34.774,-11.722
'[11:42:56.160 06/11/2076]',101.197,53.529,7.814,16.410,142.222,46.886,0.781,-10.159,146.129,29.695,-19.536,19.145,157.460,12.503,7.033,-0.781,49.231,-17.973,-7.033,-7.814,96.508,-50.794,7.033
'[11:42:56.164 06/11/2076]',81.270,55.482,1.563,22.271,128.547,35.556,2.344,-4.689,104.713,41.026,-27.350,21.880,132.063,14.847,3.516,-8.987,49.621,-24.615,-0.781,-25.788,122.295,-46.496,3.516
'[11:42:56.168 06/11/2076]',84.005,62.515,10.159,16.410,129.328,44.542,13.675,-12.894,93.382,37.900,-19.927,0.781,118.388,26.960,-3.516,-29.304,50.403,-17.973,-9.377,-27.350,137.924,-38.291,-3.516
'[11:42:56.172 06/11/2076]',37.509,74.237,14.066,10.940,89.866,53.529,15.629,-19.927,68.767,28.523,-10.549,-8.596,91.819,17.973,-0.391,-31.648,52.747,-3.516,-13.284,-24.615,137.143,-40.635,-0.391
'[11:42:56.176 06/11/2076]',-10.940,76.581,7.424,10.549,17.973,76.581,12.894,-22.662,19.536,35.556,-4.689,12.503,79.316,11.331,-27.350,-0.781,46.886,7.033,-6.642,-7.033,118.388,-28.913,-27.350
'[11:42:56.180 06/11/2076]',-25.788,72.283,5.861,6.642,-25.397,99.634,12.894,-26.960,-56.654,44.151,5.470,24.615,43.370,-9.768,-30.476,15.238,39.853,13.675,-5.079,2.735,116.435,-42.979,-30.476
'[11:42:56.184 06/11/2076]',-2.735,67.204,0.781,7.814,15.629,76.190,7.424,-26.569,-40.635,33.602,9.377,26.178,55.873,-44.542,5.861,11.331,25.788,13.675,0.000,-1.172,108.230,-74.237,5.861
'[11:42:56.188 06/11/2076]',20.317,72.674,-5.079,8.205,42.979,71.111,8.596,-25.788,-25.788,22.271,8.596,30.476,55.092,-37.900,11.722,7.814,17.973,16.020,5.861,-11.331,103.541,-72.283,11.722
'[11:42:56.191 06/11/2076]',48.840,73.455,-2.735,7.033,73.065,66.422,17.192,-29.695,21.490,14.457,10.549,27.350,84.396,-26.569,8.987,8.596,16.410,21.880,3.516,-17.973,105.495,-69.158,8.987
'[11:42:56.195 06/11/2076]',76.190,75.018,0.781,6.642,125.812,48.059,22.662,-35.946,59.780,-0.391,12.894,21.880,94.945,-16.801,8.987,7.424,10.940,30.085,0.000,-24.615,105.104,-62.515,8.987
'[11:42:56.199 06/11/2076]',43.761,67.595,12.112,3.907,92.601,49.621,22.662,-35.946,54.310,-8.596,6.252,26.569,74.237,-6.252,-0.391,12.503,11.331,35.946,-11.331,-19.536,99.243,-44.542,-0.391
'[11:42:56.203 06/11/2076]',23.443,66.032,8.596,4.298,57.045,59.780,24.225,-37.509,40.635,-2.344,1.954,32.821,76.190,-14.457,-4.298,16.020,5.470,37.509,-7.814,-24.225,103.541,-42.198,-4.298
'[11:42:56.207 06/11/2076]',3.126,55.092,9.377,3.126,41.807,50.012,23.053,-42.979,-11.331,6.252,1.954,25.788,42.979,-26.569,0.391,6.642,0.391,34.383,-8.596,-11.331,100.024,-44.933,0.391
'[11:42:56.211 06/11/2076]',-8.205,54.310,5.861,-1.172,51.966,29.695,21.099,-51.575,-24.615,10.549,-1.954,22.662,24.615,-19.536,1.563,0.391,-2.344,27.741,-5.079,-6.252,96.899,-43.370,1.563
'[11:42:56.215 06/11/2076]',-4.298,64.078,-14.066,0.391,48.840,35.165,16.410,-55.092,38.681,-5.470,-2.735,25.788,72.283,-10.549,-7.424,1.563,-14.066,24.225,14.847,-8.596,93.773,-41.026,-7.424
'[11:42:56.219 06/11/2076]',10.549,66.032,-26.960,3.516,64.078,23.834,19.145,-54.310,37.118,-10.549,-2.735,15.629,61.734,1.954,-15.238,-9.377,-20.317,24.615,27.741,-10.159,92.991,-39.853,-15.238
'[11:42:56.223 06/11/2076]',2.344,71.502,-33.602,5.470,60.171,8.596,25.006,-47.668,28.913,-6.642,-5.861,7.814,51.966,17.582,-24.615,-21.880,-19.145,30.476,34.383,-22.271,98.071,-30.867,-24.615
'[11:42:56.227 06/11/2076]',-13.675,60.562,-31.258,16.801,18.755,15.629,27.350,-29.695,38.291,-18.364,-13.675,30.476,62.125,12.894,-30.867,-7.424,-19.536,34.774,32.039,-17.973,102.759,-26.178,-30.867
'[11:42:56.230 06/11/2076]',24.225,46.105,-18.364,18.364,41.026,17.192,32.821,-20.708,-28.132,-5.079,-11.331,29.304,14.066,10.549,-32.039,-8.596,-9.768,39.072,19.145,-12.894,102.759,-20.317,-32.039
'[11:42:56.234 06/11/2076]',-9.768,37.509,-5.470,16.020,11.722,10.549,35.165,-18.755,-49.621,-5.861,-6.642,9.377,-23.053,18.755,-24.615,-23.053,2.735,34.383,6.252,-5.079,95.336,-20.317,-24.615
'[11:42:56.238 06/11/2076]',-57.045,32.039,-2.735,19.536,-44.542,23.443,27.741,-14.457,-14.847,-25.397,-0.781,8.205,-18.364,16.410,-13.675,-16.020,0.391,29.695,3.516,3.126,68.767,-18.364,-13.675
'[11:42:56.242 06/11/2076]',14.847,33.993,-10.549,27.350,30.085,24.225,24.225,-12.112,53.138,-26.178,3.126,19.145,52.357,2.735,-9.768,4.689,-0.781,24.225,11.331,11.331,50.403,-20.317,-9.768
'[11:42:56.246 06/11/2076]',12.112,33.993,-15.238,31.258,43.761,8.596,21.490,-11.722,46.886,-18.755,3.516,20.317,56.654,-6.642,-7.033,9.768,-1.563,16.410,16.020,17.192,44.542,-23.053,-7.033
'[11:42:56.250 06/11/2076]',-39.072,31.258,-21.490,34.774,-22.662,19.145,14.457,-5.470,-20.317,-6.252,3.907,22.662,9.377,-9.377,-3.907,4.689,1.172,11.331,22.271,10.159,45.324,-15.629,-3.907
'[11:42:56.254 06/11/2076]',-51.575,28.523,-30.085,36.728,-49.621,26.960,6.642,-0.781,-99.243,16.801,2.735,23.053,-33.602,-11.331,-10.549,0.781,12.503,9.377,30.867,4.689,55.092,-9.377,-10.549
'[11:42:56.258 06/11/2076]',-137.924,21.099,-30.085,31.258,-149.255,34.383,1.954,-3.126,-189.890,25.006,2.735,14.457,-114.481,-12.503,-13.284,-4.298,21.490,7.814,30.867,14.847,58.608,-16.801,-13.284
'[11:42:56.262 06/11/2076]',-159.805,12.894,-30.085,25.006,-180.122,39.072,-3.907,-6.252,-153.553,10.940,-0.391,7.424,-99.634,-8.205,-13.675,-12.112,27.350,6.642,30.867,16.801,58.608,-14.847,-13.675
'[11:42:56.266 06/11/2076]',-67.595,11.331,-30.085,17.973,-55.482,11.331,-9.768,-13.284,-51.184,-5.079,-8.596,3.907,-29.695,0.391,-17.973,-12.894,23.053,1.954,30.867,14.457,61.343,-9.377,-17.973
'[11:42:56.270 06/11/2076]',-17.192,12.503,-29.304,10.159,0.391,10.549,-8.596,-26.178,19.536,-19.536,-10.940,-9.768,14.847,2.735,-13.675,-25.006,18.755,0.391,30.085,20.708,57.045,-8.987,-13.675
'[11:42:56.273 06/11/2076]',-30.867,21.099,-36.337,0.391,-2.735,8.596,-12.112,-39.072,56.654,-25.006,-12.503,-27.350,41.416,0.000,-12.112,-38.291,19.927,-4.298,37.118,13.284,55.873,-9.377,-12.112
'[11:42:56.277 06/11/2076]',-38.681,30.867,-51.966,-3.516,-4.298,2.344,-17.192,-44.151,10.549,-14.457,-13.284,-30.085,10.159,-3.126,-16.020,-38.681,20.708,-10.549,52.747,5.470,51.575,-3.516,-16.020
'[11:42:56.281 06/11/2076]',-66.422,44.151,-68.767,-10.549,-48.059,10.159,-17.582,-45.714,-20.708,-1.954,-14.066,-28.132,-5.861,-2.344,-18.364,-37.900,25.397,-17.582,69.548,-4.298,42.589,2.344,-18.364
'[11:42:56.285 06/11/2076]',-118.779,31.258,-51.575,-20.317,-93.773,-3.907,-17.582,-43.761,-40.244,0.391,-17.582,-40.244,-22.662,-1.172,-20.708,-51.966,26.178,-22.662,52.357,2.344,44.151,4.298,-20.708
'[11:42:56.289 06/11/2076]',-80.879,7.033,-35.165,-17.582,-56.654,-28.523,-7.814,-32.821,-64.860,1.563,-25.788,-42.589,-47.277,4.689,-20.708,-67.595,25.788,-25.397,35.946,5.861,50.403,15.238,-20.708
'[11:42:56.293 06/11/2076]',-39.853,-10.159,-14.847,-21.490,-19.536,-28.523,-0.391,-39.072,-68.767,1.954,-24.225,-38.291,-48.840,9.768,-25.788,-64.469,29.695,-25.006,15.629,10.940,59.780,23.443,-25.788
'[11:42:56.297 06/11/2076]',-58.608,-16.410,-3.126,-21.880,-42.979,-6.642,0.781,-51.575,-53.529,-5.470,-17.973,-40.244,-38.681,-1.954,-19.536,-56.654,29.695,-20.317,3.907,19.536,62.515,13.675,-19.536
'[11:42:56.301 06/11/2076]',-69.158,-7.424,-19.536,-12.112,-53.919,0.781,-3.126,-52.747,-45.324,-14.066,-13.284,-46.105,-46.105,-5.079,-16.020,-51.184,25.788,-14.066,20.317,8.987,50.794,9.768,-16.020
'[11:42:56.305 06/11/2076]',-43.370,12.894,-39.463,-7.814,-17.582,2.344,-6.252,-55.873,10.549,-23.834,-7.033,-47.277,-9.377,3.516,-16.020,-44.542,20.317,-9.768,40.244,-12.112,46.496,13.284,-16.020
'[11:42:56.309 06/11/2076]',-48.059,12.112,-36.337,-1.954,-8.205,-3.907,-7.033,-53.919,58.608,-23.443,-7.814,-33.602,36.337,-5.079,-17.192,-20.317,15.238,-8.987,37.118,0.391,36.728,8.205,-17.192
'[11:42:56.313 06/11/2076]',-44.151,1.954,-30.476,3.516,-1.954,-14.066,-7.033,-44.542,58.217,-26.569,-11.331,-26.178,31.648,-11.722,-14.066,-11.331,13.284,-10.549,31.258,6.642,28.523,6.252,-14.066
'[11:42:56.316 06/11/2076]',-44.542,-5.470,-17.582,5.861,-1.563,-17.192,-7.033,-33.993,-5.079,-17.582,-13.284,-19.536,-18.755,-10.940,-10.940,-15.238,14.847,-8.987,18.364,6.252,30.867,8.987,-10.940
'[11:42:56.320 06/11/2076]',-91.429,-13.284,-1.954,7.424,-57.436,-6.252,-7.814,-26.569,-54.310,-5.861,-11.331,-10.159,-49.621,-8.596,-10.940,-12.894,19.536,-2.735,2.735,10.940,31.258,14.847,-10.940
'[11:42:56.324 06/11/2076]',-88.694,-13.284,4.298,10.549,-69.548,10.159,-6.642,-20.317,-115.263,3.516,-8.987,-7.814,-95.726,-12.894,-7.814,-11.722,21.880,5.079,-3.516,14.066,28.523,10.549,-7.814
'[11:42:56.328 06/11/2076]',-105.104,-7.814,6.252,14.457,-91.429,18.755,-5.861,-11.722,-153.944,17.973,-1.172,-5.861,-115.263,-7.814,-5.079,-12.894,27.350,12.503,-5.470,12.503,21.490,19.145,-5.079
'[11:42:56.332 06/11/2076]',-70.330,0.000,0.391,13.284,-48.449,5.861,-3.907,-8.205,-91.819,13.284,0.391,-0.781,-55.092,5.470,-19.536,-8.987,26.569,17.192,0.391,9.377,20.317,32.039,-19.536
'[11:42:56.336 06/11/2076]',-16.020,-0.391,-3.126,10.940,6.252,-0.781,-4.298,-8.596,-3.126,-2.735,-3.126,-9.377,10.549,-9.377,-8.987,-11.331,19.536,15.238,3.907,12.894,16.410,14.066,-8.987
'[11:42:56.340 06/11/2076]',-9.377,0.391,-19.145,12.503,9.377,-10.159,-7.814,-5.861,6.642,-15.629,-9.377,-14.066,7.424,-14.847,-10.940,-14.066,12.503,8.205,19.927,9.768,6.252,10.549,-10.940
'[11:42:56.344 06/11/2076]',18.755,4.298,-32.039,10.159,43.370,-30.476,-8.205,-1.563,34.774,-32.039,-16.410,-5.470,25.006,-19.536,-14.457,-9.768,3.126,3.516,32.821,-5.079,12.503,3.126,-14.457
'[11:42:56.348 06/11/2076]',-14.457,-0.391,-25.006,7.424,-2.735,-25.788,-4.689,1.954,36.337,-37.509,-19.536,3.126,22.662,-23.443,-9.768,-6.642,-1.954,1.172,25.788,-11.722,22.662,-1.563,-9.768
'[11:42:56.352 06/11/2076]',-63.687,-12.503,-11.331,12.112,-65.641,-23.053,-0.391,14.457,-14.847,-27.350,-23.834,-1.563,-25.397,-9.377,-6.252,-26.178,0.391,2.735,12.112,-8.987,26.960,3.907,-6.252
'[11:42:56.355 06/11/2076]',-49.621,-13.284,-0.391,8.205,-66.422,-10.159,2.735,19.145,-28.523,-22.271,-20.317,-13.284,-41.416,3.126,-5.470,-42.589,1.563,8.205,1.172,-12.503,29.304,14.847,-5.470
'[11:42:56.359 06/11/2076]',-30.476,-14.066,7.424,0.391,-42.979,-9.377,1.954,12.894,8.205,-28.132,-19.536,-10.159,-4.298,-5.470,-5.470,-34.774,-1.563,7.424,-6.642,4.689,17.973,13.284,-5.470
'[11:42:56.363 06/11/2076]',-18.755,-16.410,4.689,-2.344,-25.397,-7.814,-8.987,10.159,19.145,-30.867,-20.317,-7.814,11.722,-25.788,-6.252,-20.708,-7.424,1.172,-3.907,22.271,-7.814,8.987,-6.252
'[11:42:56.367 06/11/2076]',25.006,-12.894,-0.781,-4.298,28.913,-15.629,-18.364,12.503,7.033,-30.476,-21.490,-15.629,-1.563,-25.788,-8.596,-24.615,-14.457,-6.642,1.563,20.708,-23.834,11.722,-8.596
'[11:42:56.371 06/11/2076]',31.258,-1.172,-14.847,-8.205,44.542,-22.662,-26.569,10.940,-16.410,-26.178,-25.006,-14.847,-20.708,-28.132,-9.768,-23.834,-18.755,-14.066,15.629,6.642,-31.648,8.596,-9.768
'[11:42:56.375 06/11/2076]',-10.159,-5.470,-14.066,-8.205,-2.344,-19.145,-28.913,11.331,-50.403,-10.940,-26.960,-5.861,-33.993,-34.383,-12.112,-14.066,-16.020,-18.755,14.847,16.801,-41.416,3.516,-12.112
'[11:42:56.379 06/11/2076]',-29.304,-12.503,-9.377,-7.033,-23.443,-19.145,-29.695,13.675,-54.701,-7.033,-27.350,-4.689,-41.026,-24.615,-12.894,-15.238,-13.284,-19.536,10.159,22.662,-46.496,4.298,-12.894
'[11:42:56.383 06/11/2076]',-43.761,-1.172,-14.847,-10.940,-42.589,-7.424,-31.258,10.159,-32.430,-13.284,-29.304,-1.563,-35.946,-19.536,-5.470,-16.801,-12.503,-22.271,15.629,3.907,-42.589,3.126,-5.470
'[11:42:56.387 06/11/2076]',-36.728,3.516,-13.284,-13.284,-44.151,4.689,-28.523,7.424,5.861,-17.192,-27.741,4.689,-3.516,-19.536,0.391,-10.940,-10.940,-25.006,14.066,2.344,-51.966,3.907,0.391
'[11:42:56.391 06/11/2076]',-9.768,7.424,-15.238,-10.159,-18.364,3.907,-25.006,10.940,15.629,-22.662,-25.006,7.424,0.391,-19.536,0.781,-6.642,-9.377,-24.615,16.020,-1.954,-57.436,6.642,0.781
'[11:42:56.395 06/11/2076]',41.026,19.927,-24.615,-12.112,38.681,3.907,-26.960,7.424,27.741,-30.867,-23.834,8.205,5.861,-25.006,3.516,-2.735,-14.847,-26.569,25.397,-15.238,-59.389,6.642,3.516
'[11:42:56.398 06/11/2076]',54.701,17.973,-29.304,-16.801,47.277,3.907,-28.913,3.907,47.277,-35.556,-22.662,14.066,28.913,-37.900,4.298,6.642,-23.834,-27.350,30.085,-10.159,-66.422,-1.954,4.298
'[11:42:56.402 06/11/2076]',36.337,-20.317,0.781,-14.847,23.834,-1.172,-30.867,10.549,19.927,-42.589,-23.053,17.192,2.735,-36.728,-0.781,6.252,-29.304,-30.085,0.000,20.708,-62.125,-0.391,-0.781
'[11:42:56.406 06/11/2076]',21.490,-39.853,15.238,-14.457,12.894,-7.814,-34.383,11.331,-0.781,-42.198,-22.271,10.159,-19.927,-28.523,-6.252,-1.172,-31.648,-35.946,-14.457,31.258,-55.092,1.172,-6.252
'[11:42:56.410 06/11/2076]',-25.006,-37.509,9.377,-21.099,-53.919,1.563,-30.867,7.814,-32.821,-37.900,-19.536,19.145,-40.244,-27.350,-6.252,1.954,-32.430,-40.635,-8.596,20.708,-45.714,0.781,-6.252
'[11:42:56.414 06/11/2076]',-44.933,-32.821,8.205,-18.755,-80.098,-6.642,-20.317,17.973,-65.250,-28.523,-20.317,35.556,-58.999,-3.126,-21.099,4.298,-31.258,-44.151,-7.424,1.954,-32.039,24.615,-21.099
