'Time and date','FP1-F7','F7-T7','T7-P7','P7-O1','FP1-F3','F3-C3','C3-P3','P3-O1','FP2-F4','F4-C4','C4-P4','P4-O2','FP2-F8','F8-T8','T8-P8','P8-O2','FZ-CZ','CZ-PZ','P7-T7','T7-FT9','FT9-FT10','FT10-T8','T8-P8'
'hh:mm:ss.mmm dd/mm/yyyy','uV','uV','uV','uV','uV','uV','uV','uV','uV','uV','uV','uV','uV','uV','uV','uV','uV','uV','uV','uV','uV','uV','uV'
'[01:44:44.000 07/11/2076]',34.774,-79.316,101.197,262.564,12.112,14.457,112.137,180.513,-5.470,63.687,161.758,635.311,109.792,-44.933,73.846,716.581,74.628,193.407,-100.415,335.238,-216.850,3.516,73.846
'[01:44:44.004 07/11/2076]',0.391,0.391,0.391,0.391,0.391,0.391,0.391,0.391,0.391,0.391,0.391,0.391,0.391,0.391,0.391,0.391,0.391,0.391,0.391,0.391,0.391,0.391,0.391
'[01:44:44.008 07/11/2076]',0.391,0.391,0.391,0.391,0.391,0.391,0.391,0.391,0.391,0.391,0.781,0.391,0.391,0.000,0.391,0.781,0.391,0.391,0.391,0.391,0.391,0.000,0.391
'[01:44:44.012 07/11/2076]',0.391,0.000,0.391,0.000,0.391,0.391,0.391,0.000,0.000,0.391,3.126,3.907,1.954,-1.954,0.391,6.252,0.391,0.781,0.391,1.563,0.391,-1.563,0.391
'[01:44:44.016 07/11/2076]',0.391,0.391,0.391,0.781,0.391,0.391,0.391,1.172,0.391,0.391,-1.172,3.126,0.000,1.172,0.391,0.781,0.391,0.000,0.391,0.391,0.391,1.563,0.391
'[01:44:44.020 07/11/2076]',-1.563,2.735,0.000,1.563,0.391,0.000,-0.781,3.126,2.344,0.781,-12.894,-16.801,-7.424,11.331,-0.781,-29.304,-1.172,-2.735,0.781,-5.861,1.172,9.377,-0.781
'[01:44:44.023 07/11/2076]',-0.781,2.735,0.000,0.391,0.781,0.000,0.391,1.172,1.954,1.563,-6.252,-21.880,-4.689,7.424,0.000,-26.960,0.391,0.391,0.781,-3.516,0.781,4.298,0.000
'[01:44:44.027 07/11/2076]',4.689,-1.954,1.172,0.391,1.563,1.563,3.126,-2.735,-1.172,0.781,19.536,16.020,11.331,-13.284,2.735,34.774,4.298,7.033,-0.391,9.768,-2.735,-12.112,2.735
'[01:44:44.031 07/11/2076]',5.079,-3.126,1.172,1.954,1.954,2.735,0.781,-0.391,-1.172,0.000,14.066,39.072,11.331,-12.503,1.954,51.184,2.344,3.126,-0.391,8.987,-3.126,-8.205,1.954
'[01:44:44.035 07/11/2076]',-3.516,4.298,-1.172,1.563,0.391,0.391,-4.689,5.079,3.907,-0.391,-26.569,-14.847,-12.503,17.973,-2.735,-39.853,-4.298,-9.377,1.954,-13.284,3.126,17.582,-2.735
'[01:44:44.039 07/11/2076]',-7.033,9.377,-2.344,3.126,1.172,-1.954,-3.907,8.205,8.205,2.344,-44.542,-68.376,-26.960,37.509,-3.516,-108.230,-4.689,-9.768,3.126,-22.271,4.689,29.304,-3.516
'[01:44:44.043 07/11/2076]',-3.516,16.020,-0.391,17.973,10.159,0.391,-2.735,21.099,16.801,10.159,-68.767,-104.713,-42.198,66.032,-2.735,-166.056,-5.079,-7.424,1.172,-27.350,-3.516,50.794,-2.735
'[01:44:44.047 07/11/2076]',-0.781,25.788,-3.907,19.145,18.364,1.954,-4.298,23.834,25.788,15.629,-85.958,-170.745,-54.310,86.349,-2.735,-243.028,-3.126,-7.033,4.689,-40.635,-5.470,60.952,-2.735
'[01:44:44.051 07/11/2076]',16.410,21.099,-2.344,26.178,29.695,9.377,-0.391,22.271,28.132,21.099,-52.357,-96.508,-26.178,57.436,3.516,-133.236,8.987,7.814,3.126,-21.099,-20.317,37.118,3.516
'[01:44:44.055 07/11/2076]',32.821,17.192,-4.298,32.039,39.853,20.317,-3.907,21.099,32.039,19.927,-31.258,-52.747,-3.907,33.993,7.814,-68.767,13.675,11.722,5.079,-11.722,-30.476,21.880,7.814
'[01:44:44.059 07/11/2076]',32.821,24.615,-10.159,27.350,42.979,24.225,-13.675,20.317,40.635,16.801,-60.952,-48.449,-18.364,49.231,6.252,-88.303,7.424,-5.861,10.940,-34.383,-27.350,37.509,6.252
'[01:44:44.063 07/11/2076]',32.039,28.523,-13.284,23.443,44.542,25.397,-19.145,19.536,48.059,12.894,-83.223,-82.442,-30.085,60.952,6.252,-141.050,3.516,-14.457,14.066,-50.403,-26.178,50.012,6.252
'[01:44:44.066 07/11/2076]',43.761,23.443,-13.675,26.178,50.012,31.648,-17.973,17.192,47.277,12.503,-59.780,-63.687,-19.536,43.761,13.284,-100.415,5.079,-5.861,14.457,-36.728,-35.165,34.774,13.284
'[01:44:44.070 07/11/2076]',54.310,24.615,-15.238,24.225,56.264,36.728,-17.973,14.066,47.277,12.503,-44.151,-39.072,-14.847,37.118,19.927,-65.250,3.126,-2.735,16.020,-34.774,-42.979,28.523,19.927
'[01:44:44.074 07/11/2076]',57.045,32.430,-23.443,25.788,58.999,39.463,-26.960,20.708,48.059,10.940,-63.297,-3.907,-20.317,42.198,18.755,-48.840,-2.344,-6.252,24.225,-48.059,-48.449,39.072,18.755
'[01:44:44.078 07/11/2076]',62.906,37.118,-29.695,25.397,62.515,41.416,-32.039,24.225,48.840,10.549,-73.065,-19.145,-23.053,44.933,18.755,-73.065,-7.033,-7.033,30.476,-55.873,-52.747,41.807,18.755
'[01:44:44.082 07/11/2076]',67.595,44.542,-37.509,21.099,63.297,41.807,-30.085,21.490,47.668,9.377,-59.389,-46.496,-27.350,46.496,21.099,-88.303,-12.112,-6.642,38.291,-61.734,-56.264,35.556,21.099
'[01:44:44.086 07/11/2076]',67.595,44.542,-36.728,18.364,58.999,41.026,-28.913,22.662,47.277,5.470,-55.092,-25.788,-30.085,48.059,20.317,-66.032,-17.973,-9.377,37.509,-60.171,-60.562,36.337,20.317
'[01:44:44.090 07/11/2076]',70.330,34.774,-31.258,19.536,55.482,38.681,-28.523,27.741,45.324,2.344,-53.529,-14.066,-27.350,44.542,20.708,-56.654,-21.880,-10.159,32.039,-52.357,-65.250,35.165,20.708
'[01:44:44.094 07/11/2076]',69.939,31.648,-29.304,19.145,51.184,37.900,-29.304,31.648,42.979,1.954,-48.449,-19.145,-28.913,44.542,22.271,-60.171,-25.397,-12.503,30.085,-48.059,-68.767,32.821,22.271
'[01:44:44.098 07/11/2076]',65.250,35.556,-28.132,16.020,46.105,38.291,-31.648,37.118,41.807,1.563,-51.966,-44.542,-35.165,52.747,21.490,-90.647,-29.304,-14.457,28.913,-51.575,-72.674,39.072,21.490
'[01:44:44.102 07/11/2076]',68.767,40.635,-30.085,14.847,43.370,37.900,-30.867,43.370,39.072,5.079,-51.184,-11.331,-30.867,51.575,20.317,-58.217,-30.476,-12.894,30.867,-51.575,-78.144,38.291,20.317
'[01:44:44.105 07/11/2076]',69.939,44.933,-32.430,13.284,37.118,36.728,-27.741,49.621,34.774,7.424,-41.807,-28.913,-25.788,51.184,17.192,-70.330,-30.476,-13.675,33.211,-53.919,-77.753,34.774,17.192
'[01:44:44.109 07/11/2076]',68.376,51.966,-33.211,5.470,30.476,33.211,-24.615,52.747,33.211,7.424,-44.933,-28.132,-31.258,64.078,10.940,-74.237,-35.556,-16.410,33.993,-62.125,-75.018,39.072,10.940
'[01:44:44.113 07/11/2076]',66.422,55.092,-32.430,-1.563,23.443,25.006,-18.755,57.045,32.430,8.596,-55.482,-49.231,-35.556,77.753,4.689,-109.792,-36.337,-18.364,33.211,-73.065,-65.250,46.105,4.689
'[01:44:44.117 07/11/2076]',71.893,48.059,-29.695,0.391,19.927,22.662,-16.801,63.687,28.523,9.377,-42.198,5.861,-17.973,61.734,1.172,-43.761,-32.430,-12.112,30.476,-58.217,-69.158,32.430,1.172
'[01:44:44.121 07/11/2076]',75.409,47.277,-28.132,-3.907,20.317,26.569,-19.145,62.515,28.913,6.252,-36.728,-12.112,-10.940,53.138,-1.172,-53.529,-32.821,-9.768,28.913,-49.231,-77.753,25.397,-1.172
'[01:44:44.125 07/11/2076]',72.674,51.966,-28.523,-7.424,19.536,25.397,-23.053,64.860,32.039,4.689,-52.357,-7.033,-15.629,63.687,-8.987,-60.952,-37.900,-15.629,29.304,-55.873,-76.190,34.774,-8.987
'[01:44:44.129 07/11/2076]',72.283,53.919,-30.476,-9.377,18.755,25.006,-26.569,67.985,35.165,4.689,-66.032,-19.927,-16.801,70.720,-15.629,-83.223,-39.853,-18.364,31.258,-58.217,-75.800,40.635,-15.629
'[01:44:44.133 07/11/2076]',74.237,52.357,-30.085,-15.238,16.020,26.178,-25.006,62.906,34.383,3.907,-45.714,-24.615,-5.470,62.125,-19.145,-67.204,-37.509,-11.331,30.867,-45.324,-79.316,27.350,-19.145
'[01:44:44.137 07/11/2076]',78.535,51.575,-29.695,-23.443,15.629,24.615,-23.053,57.827,35.946,2.735,-33.602,-14.457,3.516,59.389,-22.662,-47.668,-38.291,-8.596,30.476,-42.979,-76.581,23.053,-22.662
'[01:44:44.141 07/11/2076]',77.363,50.012,-32.821,-26.569,11.722,21.099,-28.913,63.297,37.118,0.391,-52.357,9.377,6.642,60.171,-32.430,-39.463,-37.900,-14.066,33.602,-46.105,-73.455,27.741,-32.430
'[01:44:44.145 07/11/2076]',75.409,52.357,-35.165,-33.602,8.987,21.490,-34.383,61.343,39.463,-3.516,-65.250,1.563,9.377,56.654,-41.416,-51.966,-37.900,-19.927,35.946,-47.277,-72.283,26.960,-41.416
'[01:44:44.148 07/11/2076]',74.237,57.045,-37.900,-44.542,8.987,24.615,-37.900,51.966,40.244,-9.377,-61.343,-32.430,9.377,51.966,-48.059,-75.800,-39.463,-23.053,38.681,-49.621,-71.893,21.490,-48.059
'[01:44:44.152 07/11/2076]',71.502,58.217,-36.728,-50.403,7.424,26.178,-39.072,46.496,39.853,-14.457,-62.906,-21.880,10.159,44.933,-53.529,-59.780,-39.463,-29.304,37.509,-48.840,-69.158,16.410,-53.529
'[01:44:44.156 07/11/2076]',68.767,57.827,-36.728,-54.701,3.907,28.523,-40.635,41.416,33.993,-16.020,-61.734,-2.344,11.722,35.946,-57.045,-35.556,-37.118,-33.993,37.509,-48.059,-67.204,9.377,-57.045
'[01:44:44.160 07/11/2076]',63.297,55.092,-30.867,-62.906,1.563,29.304,-39.853,32.430,28.132,-15.629,-58.608,-26.960,8.596,33.993,-58.999,-56.654,-33.211,-41.416,31.648,-48.449,-59.780,3.907,-58.999
'[01:44:44.164 07/11/2076]',52.747,48.449,-25.006,-66.422,-3.126,22.271,-42.198,32.430,21.099,-14.066,-68.767,-46.886,1.172,37.118,-62.906,-84.005,-30.085,-51.184,25.788,-50.794,-49.231,3.516,-62.906
'[01:44:44.168 07/11/2076]',45.714,42.589,-22.271,-72.674,-7.424,21.490,-44.933,24.225,15.629,-10.940,-74.628,-18.755,0.391,34.774,-67.204,-57.827,-23.053,-62.125,23.053,-47.668,-47.668,3.126,-67.204
'[01:44:44.172 07/11/2076]',41.026,41.026,-20.317,-78.144,-6.642,24.225,-49.231,15.238,13.284,-9.377,-72.283,-2.735,4.689,26.960,-68.767,-34.383,-16.801,-69.939,21.099,-41.026,-50.794,-3.907,-68.767
'[01:44:44.176 07/11/2076]',34.383,42.979,-21.880,-83.223,-8.596,27.350,-55.873,9.768,12.112,-10.159,-79.316,-48.449,-4.689,32.039,-72.283,-79.316,-19.536,-82.051,22.662,-43.370,-53.138,-0.781,-72.283
'[01:44:44.180 07/11/2076]',27.350,46.496,-22.662,-86.740,-11.722,29.695,-57.827,4.689,13.284,-7.814,-90.647,-69.158,-11.722,37.900,-75.018,-105.104,-19.145,-87.912,23.443,-46.886,-53.919,3.126,-75.018
'[01:44:44.184 07/11/2076]',29.304,43.761,-18.755,-85.177,-13.284,35.946,-53.919,0.781,5.861,-2.344,-74.628,-35.556,0.391,19.927,-71.502,-53.529,-10.549,-82.051,19.536,-33.602,-60.171,-10.549,-71.502
'[01:44:44.188 07/11/2076]',29.695,37.900,-14.066,-84.396,-14.066,38.291,-52.747,-1.563,0.781,-0.391,-61.343,-23.443,5.861,9.377,-69.939,-28.523,-5.079,-81.270,14.847,-24.615,-58.999,-21.490,-69.939
'[01:44:44.191 07/11/2076]',23.053,38.291,-14.457,-84.786,-17.192,35.946,-55.092,-1.172,0.391,2.344,-81.270,-28.913,-2.344,18.364,-71.111,-51.575,-4.298,-90.256,15.238,-33.602,-53.138,-12.503,-71.111
'[01:44:44.195 07/11/2076]',17.973,36.728,-13.675,-81.270,-17.973,35.165,-54.701,-1.563,0.391,3.516,-92.991,-29.304,-5.079,22.662,-70.330,-64.078,-2.344,-91.038,14.457,-37.900,-48.449,-7.033,-70.330
'[01:44:44.199 07/11/2076]',15.238,31.258,-10.940,-76.972,-20.708,35.165,-50.403,-5.470,-0.781,3.516,-70.720,-41.026,1.954,12.894,-65.250,-57.827,1.563,-82.442,11.722,-26.960,-43.761,-20.317,-65.250
'[01:44:44.203 07/11/2076]',10.940,24.615,-3.907,-71.893,-23.053,34.383,-44.542,-5.861,0.000,4.298,-57.436,-41.026,6.642,8.987,-59.389,-50.012,1.172,-74.237,4.689,-19.536,-36.337,-25.397,-59.389
'[01:44:44.207 07/11/2076]',7.033,17.582,0.391,-64.078,-27.350,34.774,-42.979,-1.172,-1.172,4.298,-65.641,-4.298,9.768,6.252,-56.654,-25.397,0.781,-68.376,0.391,-18.364,-32.039,-20.708,-56.654
'[01:44:44.211 07/11/2076]',5.470,14.457,2.344,-58.608,-28.523,35.556,-42.589,0.391,-2.735,3.907,-64.860,-2.344,12.112,1.172,-52.747,-26.569,1.954,-62.906,-1.563,-16.020,-29.695,-23.443,-52.747
'[01:44:44.215 07/11/2076]',1.563,12.894,3.126,-53.919,-30.476,32.430,-38.291,1.172,-7.814,5.861,-60.562,-27.741,3.516,3.516,-46.496,-51.184,1.954,-62.125,-2.344,-16.801,-28.523,-21.880,-46.496
'[01:44:44.219 07/11/2076]',-1.172,14.457,1.563,-50.403,-32.821,30.085,-32.821,1.172,-14.066,8.596,-58.217,-5.470,-1.954,3.907,-38.681,-32.039,4.689,-58.608,-0.781,-21.490,-27.741,-20.317,-38.681
'[01:44:44.223 07/11/2076]',-4.689,13.284,0.391,-45.324,-37.900,28.913,-25.788,0.391,-22.271,9.377,-48.449,18.755,-3.907,-0.391,-32.039,-4.689,6.252,-51.966,0.391,-21.099,-25.788,-23.834,-32.039
'[01:44:44.227 07/11/2076]',-11.722,8.205,4.298,-38.681,-47.277,24.225,-19.536,4.689,-33.211,13.675,-47.668,-13.675,-18.364,5.470,-25.397,-42.198,5.470,-48.449,-3.516,-21.099,-20.708,-22.271,-25.397
'[01:44:44.230 07/11/2076]',-19.145,7.424,9.768,-40.635,-56.264,21.490,-10.940,3.126,-42.198,17.582,-46.105,-36.728,-28.913,12.894,-20.708,-70.330,2.735,-37.900,-8.987,-21.880,-14.066,-21.490,-20.708
'[01:44:44.234 07/11/2076]',-17.582,1.172,9.768,-37.118,-64.078,23.834,-9.768,6.642,-54.310,19.927,-37.900,8.987,-23.443,1.172,-16.801,-21.880,4.689,-26.178,-8.987,-9.377,-21.880,-29.695,-16.801
'[01:44:44.238 07/11/2076]',-18.364,-3.907,8.987,-29.304,-71.502,24.225,-11.722,14.847,-67.595,23.834,-27.350,12.503,-20.708,-10.940,-13.284,-12.112,5.861,-22.662,-8.205,3.907,-31.258,-38.291,-13.284
'[01:44:44.242 07/11/2076]',-24.225,-3.126,5.861,-29.695,-78.926,19.927,-12.894,19.927,-75.800,25.006,-34.774,7.424,-32.430,-1.172,-12.894,-29.695,3.907,-31.258,-5.079,0.781,-28.132,-33.211,-12.894
'[01:44:44.246 07/11/2076]',-29.304,-3.126,0.391,-28.132,-86.349,15.629,-17.973,26.569,-82.051,26.960,-48.840,3.126,-39.463,5.861,-16.410,-49.231,3.516,-37.900,0.391,-2.735,-27.350,-28.523,-16.410
'[01:44:44.250 07/11/2076]',-28.132,-9.768,-3.907,-24.225,-91.819,12.112,-20.317,32.039,-90.256,27.350,-35.946,29.304,-28.913,-7.814,-17.973,-12.894,5.079,-35.946,4.689,11.331,-28.132,-42.198,-17.973
'[01:44:44.254 07/11/2076]',-25.397,-15.629,-7.814,-26.960,-94.164,9.377,-24.615,32.430,-92.601,23.053,-26.569,35.946,-23.834,-13.675,-21.880,0.781,1.563,-38.681,8.596,20.708,-25.006,-51.575,-21.880
'[01:44:44.258 07/11/2076]',-28.523,-14.457,-17.192,-29.695,-97.680,6.252,-37.118,36.337,-88.303,17.973,-51.966,36.337,-27.350,-4.298,-33.211,-18.755,-4.298,-49.621,17.973,11.331,-18.364,-41.807,-33.211
'[01:44:44.262 07/11/2076]',-28.913,-16.801,-26.178,-30.476,-99.634,1.954,-48.840,41.807,-84.005,12.112,-70.330,33.211,-26.178,-3.907,-41.807,-35.165,-10.159,-58.217,26.960,9.768,-14.066,-38.681,-41.807
'[01:44:44.266 07/11/2076]',-28.523,-19.145,-30.476,-35.946,-101.197,0.000,-52.747,37.509,-80.879,9.377,-59.780,4.298,-21.099,-9.768,-42.979,-51.575,-11.722,-61.734,31.258,17.973,-9.377,-47.277,-42.979
'[01:44:44.270 07/11/2076]',-29.695,-19.145,-34.774,-40.635,-101.978,-0.781,-55.482,31.648,-73.846,6.252,-54.701,-0.781,-12.503,-14.066,-44.151,-50.403,-12.503,-67.204,35.556,19.927,-5.470,-49.231,-44.151
'[01:44:44.273 07/11/2076]',-26.178,-20.317,-43.370,-39.853,-98.462,-0.781,-63.687,31.258,-66.813,2.344,-62.906,26.960,-2.344,-23.443,-48.449,-25.788,-12.112,-71.893,44.151,22.662,-7.424,-49.621,-48.449
'[01:44:44.277 07/11/2076]',-23.053,-22.662,-50.403,-39.463,-94.554,-1.954,-69.939,29.304,-59.780,-2.344,-68.376,18.755,1.954,-28.132,-50.794,-34.774,-13.284,-75.800,51.184,21.880,-7.033,-47.668,-50.794
'[01:44:44.281 07/11/2076]',-22.662,-19.927,-56.264,-40.635,-89.866,-5.470,-72.283,26.960,-50.403,-6.642,-74.628,-10.940,0.391,-22.662,-55.092,-65.641,-13.284,-80.879,57.045,13.284,1.172,-41.807,-55.092
'[01:44:44.285 07/11/2076]',-19.927,-17.582,-59.389,-39.072,-82.833,-7.033,-72.674,25.397,-43.370,-9.768,-78.926,14.066,4.298,-23.834,-58.217,-41.807,-12.112,-81.661,60.171,8.596,7.033,-37.900,-58.217
'[01:44:44.289 07/11/2076]',-17.973,-24.615,-53.138,-35.556,-77.753,-10.549,-69.548,25.397,-41.026,-10.940,-78.926,35.165,5.470,-21.880,-55.482,-24.615,-11.331,-78.926,53.919,12.112,14.457,-33.993,-55.482
'[01:44:44.293 07/11/2076]',-17.582,-22.662,-46.496,-42.979,-73.065,-8.987,-62.125,12.503,-39.463,-7.814,-67.985,-13.284,2.344,-13.284,-51.184,-66.422,-9.377,-73.846,47.277,15.238,18.755,-32.039,-51.184
'[01:44:44.297 07/11/2076]',-12.503,-17.582,-43.370,-50.794,-63.297,-3.516,-58.999,0.391,-36.728,-3.126,-63.297,-43.370,0.000,-5.079,-48.449,-93.382,-7.424,-66.422,44.151,14.066,17.192,-28.523,-48.449
'[01:44:44.301 07/11/2076]',-1.954,-19.536,-44.542,-49.621,-54.701,1.563,-57.436,-6.252,-40.635,-0.391,-46.105,-1.954,6.252,-16.801,-43.370,-34.774,-3.907,-51.184,45.324,25.788,1.172,-35.165,-43.370
'[01:44:44.305 07/11/2076]',7.814,-20.708,-46.105,-52.357,-45.714,5.470,-55.482,-16.020,-44.933,5.079,-29.304,-5.079,8.205,-23.443,-38.681,-19.145,-1.954,-41.026,46.886,25.397,-5.861,-41.026,-38.681
'[01:44:44.309 07/11/2076]',12.894,-14.847,-48.840,-58.217,-36.337,3.516,-56.264,-21.099,-43.370,10.549,-37.509,-21.490,-4.298,-7.814,-39.072,-39.463,-3.126,-44.542,49.621,0.000,0.391,-27.350,-39.072
'[01:44:44.313 07/11/2076]',16.801,-10.549,-50.794,-62.515,-28.523,0.391,-53.529,-25.006,-43.761,19.145,-48.059,-32.430,-16.410,5.079,-36.337,-57.436,-2.735,-39.463,51.575,-24.615,4.689,-14.066,-36.337
'[01:44:44.316 07/11/2076]',28.132,-13.284,-44.542,-66.813,-21.490,0.781,-43.370,-32.430,-50.012,32.430,-22.271,-24.615,-11.722,1.563,-25.788,-28.523,2.735,-20.708,45.324,-21.490,0.391,-19.536,-25.788
'[01:44:44.320 07/11/2076]',39.072,-10.549,-36.728,-75.409,-11.331,5.079,-34.774,-42.979,-49.231,43.761,-1.172,-21.490,-8.596,5.861,-14.066,-10.549,6.252,-9.377,37.509,-23.443,-3.907,-19.536,-14.066
'[01:44:44.324 07/11/2076]',41.416,-5.470,-33.993,-74.628,-7.814,7.424,-33.993,-39.072,-48.449,52.357,-10.940,-2.344,-16.020,21.099,-8.596,-5.079,7.424,-2.735,34.774,-28.132,-14.066,-5.079,-8.596
'[01:44:44.328 07/11/2076]',43.370,-1.563,-30.476,-72.674,-3.907,9.768,-31.258,-36.728,-47.277,60.562,-12.112,-2.344,-19.145,31.258,0.000,-12.503,9.377,7.424,31.258,-26.960,-28.523,4.298,0.000
'[01:44:44.332 07/11/2076]',46.105,1.172,-23.834,-76.972,1.172,12.112,-25.006,-42.979,-44.933,70.720,5.861,-37.118,-20.317,40.635,8.205,-33.993,13.675,11.722,24.615,-19.927,-37.509,4.689,8.205
'[01:44:44.336 07/11/2076]',46.496,3.516,-16.801,-77.753,4.298,15.629,-21.099,-44.933,-41.416,77.363,17.973,-31.648,-17.973,46.886,14.847,-21.490,16.801,16.410,17.582,-12.503,-48.059,8.987,14.847
'[01:44:44.340 07/11/2076]',49.231,0.391,-11.722,-73.846,8.205,16.801,-19.145,-41.807,-41.807,84.786,25.006,4.298,-10.940,46.105,22.271,14.457,19.536,24.225,12.503,-2.344,-56.654,9.768,22.271
'[01:44:44.344 07/11/2076]',49.231,2.344,-7.424,-71.111,9.377,17.192,-16.410,-37.509,-39.853,90.647,32.039,-10.940,-9.377,53.138,30.867,-3.126,20.708,28.132,8.205,-1.954,-59.389,13.675,30.867
'[01:44:44.348 07/11/2076]',48.449,7.424,-4.689,-70.720,8.987,16.020,-12.894,-31.648,-36.728,92.991,30.476,-31.258,-12.503,64.469,35.165,-32.039,20.317,31.648,5.470,-10.159,-54.701,19.145,35.165
'[01:44:44.352 07/11/2076]',50.012,9.377,-4.298,-64.860,6.252,12.894,-8.205,-20.317,-37.118,94.554,37.509,20.708,-7.033,65.250,37.900,18.755,23.834,37.509,5.079,-14.066,-53.138,19.536,37.900
'[01:44:44.355 07/11/2076]',49.621,12.894,-5.079,-64.469,1.954,10.549,-5.470,-13.284,-36.337,94.164,35.165,6.252,-5.861,69.939,39.072,-5.470,23.834,37.118,5.861,-19.927,-48.840,21.880,39.072
'[01:44:44.359 07/11/2076]',50.403,13.284,0.000,-75.800,1.172,11.331,-4.298,-19.536,-31.648,89.084,35.165,-25.006,-9.768,80.488,37.118,-40.244,17.582,32.821,0.781,-18.755,-48.059,25.788,37.118
'[01:44:44.363 07/11/2076]',51.966,7.814,1.172,-76.581,1.172,9.768,-7.424,-17.973,-30.867,82.051,30.476,-43.370,-16.410,82.442,35.946,-64.469,11.331,29.695,-0.391,-12.503,-51.966,28.913,35.946
'[01:44:44.367 07/11/2076]',52.747,2.735,-0.391,-74.237,-1.954,8.596,-7.814,-17.192,-34.383,77.753,36.337,-5.861,-7.814,66.813,39.463,-25.006,10.940,31.258,1.172,2.344,-59.780,18.364,39.463
'[01:44:44.371 07/11/2076]',53.529,-0.781,-3.126,-74.237,-4.689,7.814,-9.377,-18.755,-35.165,69.548,46.496,-13.675,-3.516,53.529,42.198,-25.788,8.596,28.132,3.907,12.112,-64.078,9.768,42.198
'[01:44:44.375 07/11/2076]',48.840,0.781,-10.940,-75.018,-7.424,0.391,-14.457,-14.847,-33.993,61.343,23.834,-0.781,-16.801,61.343,37.509,-32.039,1.172,10.940,11.722,1.172,-58.217,18.755,37.509
'[01:44:44.379 07/11/2076]',41.026,0.391,-18.364,-75.018,-10.549,-10.549,-18.364,-11.331,-32.430,53.138,0.781,-6.642,-26.569,66.032,31.648,-56.264,-6.252,-0.781,19.145,-6.252,-52.747,26.569,31.648
'[01:44:44.383 07/11/2076]',41.026,-6.642,-22.662,-75.800,-10.549,-17.973,-19.536,-14.847,-34.774,44.542,11.722,-9.377,-23.834,51.184,28.913,-44.542,-11.722,-3.126,23.443,7.033,-50.403,12.112,28.913
'[01:44:44.387 07/11/2076]',37.900,-15.238,-25.788,-77.753,-8.987,-27.350,-21.490,-21.099,-33.602,32.430,16.020,-2.344,-26.178,42.198,24.225,-28.132,-21.490,-7.814,26.569,16.020,-48.059,7.814,24.225
'[01:44:44.391 07/11/2076]',30.867,-24.225,-32.039,-72.674,-10.159,-39.463,-28.523,-18.364,-33.602,24.615,-7.424,14.457,-33.993,39.072,17.582,-25.006,-31.258,-16.020,32.821,17.192,-44.542,13.284,17.582
'[01:44:44.395 07/11/2076]',23.443,-30.476,-39.072,-71.893,-12.503,-50.403,-31.258,-22.271,-33.211,16.801,-21.099,1.563,-41.026,33.993,12.894,-42.589,-37.509,-21.099,39.853,21.099,-42.979,13.675,12.894
'[01:44:44.398 07/11/2076]',19.536,-36.337,-44.933,-78.144,-10.549,-60.171,-34.383,-33.211,-32.430,7.814,-18.364,-36.728,-48.840,27.350,10.549,-70.330,-42.589,-28.523,45.714,23.834,-39.463,9.377,10.549
'[01:44:44.402 07/11/2076]',14.847,-41.416,-50.403,-81.270,-10.940,-69.939,-37.118,-39.072,-33.211,-0.391,-20.708,-35.556,-54.310,19.145,6.252,-62.515,-45.324,-37.118,51.184,23.834,-35.556,7.814,6.252
'[01:44:44.406 07/11/2076]',7.814,-50.794,-53.919,-81.661,-13.675,-78.926,-41.416,-42.979,-33.602,-10.159,-26.960,-19.927,-54.701,5.079,1.563,-44.151,-47.277,-44.542,54.701,27.741,-29.304,3.126,1.563
'[01:44:44.410 07/11/2076]',1.954,-56.264,-56.654,-84.396,-12.894,-87.912,-43.761,-49.231,-32.039,-22.271,-30.085,-47.277,-59.389,-1.563,-3.907,-67.595,-53.138,-48.059,57.436,27.350,-18.364,0.391,-3.907
'[01:44:44.414 07/11/2076]',-7.033,-60.562,-61.734,-81.661,-14.847,-101.197,-44.933,-48.449,-32.039,-30.476,-42.589,-72.674,-69.939,-1.563,-10.940,-95.726,-61.734,-45.714,62.515,19.145,-5.470,4.689,-10.940
'[01:44:44.418 07/11/2076]',-12.112,-61.734,-65.250,-83.223,-15.238,-109.011,-43.370,-53.919,-31.258,-37.118,-44.542,-50.403,-68.376,-10.159,-14.066,-71.111,-68.767,-38.681,66.032,18.364,-0.391,3.907,-14.066
'[01:44:44.422 07/11/2076]',-11.722,-65.641,-71.893,-82.051,-10.549,-114.481,-44.933,-60.562,-33.211,-48.449,-36.728,-39.853,-66.422,-25.788,-19.536,-46.496,-75.409,-30.476,72.674,24.225,-4.298,-0.391,-19.536
'[01:44:44.426 07/11/2076]',-17.192,-63.297,-80.098,-84.786,-8.596,-119.170,-49.231,-67.985,-34.383,-57.436,-38.291,-83.614,-77.753,-26.960,-23.053,-85.958,-84.396,-32.430,80.879,16.801,-5.079,0.781,-23.053
'[01:44:44.430 07/11/2076]',-23.443,-62.906,-84.396,-87.131,-8.596,-123.468,-52.357,-72.674,-35.556,-64.860,-48.840,-110.965,-88.303,-26.960,-27.741,-116.825,-89.866,-32.039,85.177,10.549,-4.689,7.814,-27.741
'[01:44:44.434 07/11/2076]',-25.006,-74.237,-80.098,-82.442,-9.768,-125.812,-48.840,-76.972,-42.979,-69.939,-33.602,-78.535,-81.270,-48.059,-29.304,-66.422,-91.038,-17.192,80.879,26.960,-5.861,-5.079,-29.304
'[01:44:44.438 07/11/2076]',-26.960,-81.270,-73.455,-82.051,-9.768,-126.984,-43.761,-83.223,-47.277,-73.846,-19.927,-70.720,-77.363,-60.952,-30.085,-43.761,-93.773,-4.298,74.237,35.165,-4.298,-13.675,-30.085
'[01:44:44.441 07/11/2076]',-38.681,-76.190,-69.939,-82.833,-15.238,-126.984,-41.807,-83.614,-48.840,-77.363,-36.728,-84.396,-89.866,-49.231,-34.774,-73.065,-100.806,-3.126,70.720,22.271,5.079,-1.172,-34.774
'[01:44:44.445 07/11/2076]',-49.231,-70.330,-66.813,-84.786,-23.443,-125.031,-35.556,-86.349,-51.184,-80.098,-46.886,-89.475,-96.117,-44.542,-39.463,-87.521,-103.932,4.298,67.595,14.066,9.768,4.298,-39.463
'[01:44:44.449 07/11/2076]',-50.012,-64.860,-61.343,-90.256,-28.132,-116.435,-24.615,-97.289,-55.873,-82.833,-23.834,-105.885,-91.038,-53.138,-38.291,-85.177,-101.587,20.708,62.125,18.755,10.940,-8.596,-38.291
'[01:44:44.453 07/11/2076]',-54.310,-55.092,-55.873,-96.899,-34.774,-107.057,-14.847,-104.713,-57.827,-84.786,-9.377,-112.527,-88.694,-53.919,-36.728,-84.786,-101.197,32.821,56.654,13.284,16.801,-12.112,-36.728
'[01:44:44.457 07/11/2076]',-56.654,-50.403,-49.621,-96.899,-41.416,-98.071,-8.205,-105.104,-61.734,-83.614,-15.238,-79.707,-88.303,-53.138,-37.118,-61.343,-100.024,47.277,50.403,7.424,18.364,-8.987,-37.118
'[01:44:44.461 07/11/2076]',-55.873,-46.496,-41.807,-98.852,-45.324,-88.694,-2.344,-106.667,-64.860,-80.879,-12.894,-75.018,-87.131,-52.357,-35.946,-58.608,-96.899,62.125,42.589,6.252,18.755,-10.159,-35.946
'[01:44:44.465 07/11/2076]',-60.171,-37.509,-34.774,-101.197,-51.184,-80.879,3.516,-105.885,-68.767,-78.144,-7.033,-100.415,-92.601,-44.542,-33.602,-84.396,-96.508,71.893,35.556,-1.563,21.880,-8.987,-33.602
'[01:44:44.469 07/11/2076]',-64.078,-29.304,-28.913,-101.978,-57.436,-73.065,8.987,-103.932,-75.800,-70.330,-5.861,-85.568,-93.382,-40.244,-32.430,-71.502,-90.647,76.190,29.695,-8.596,22.271,-8.596,-32.430
'[01:44:44.473 07/11/2076]',-63.297,-23.834,-22.662,-104.713,-62.515,-64.860,16.020,-104.322,-80.488,-62.906,-0.391,-65.250,-88.303,-42.198,-27.741,-50.012,-83.614,81.270,23.443,-10.159,20.708,-14.847,-27.741
'[01:44:44.477 07/11/2076]',-67.204,-16.410,-15.629,-107.839,-67.985,-60.562,21.099,-101.197,-84.396,-57.045,-5.470,-95.726,-93.382,-31.648,-25.006,-92.601,-78.926,82.833,16.410,-23.053,28.913,-12.894,-25.006
'[01:44:44.480 07/11/2076]',-70.330,-9.377,-6.642,-114.481,-71.111,-53.919,28.132,-104.713,-82.051,-47.277,-5.079,-116.435,-91.429,-23.443,-21.880,-114.481,-72.283,87.521,7.424,-29.304,34.774,-11.722,-21.880
'[01:44:44.484 07/11/2076]',-62.906,-3.516,-2.344,-117.216,-68.376,-40.635,30.476,-107.839,-76.972,-40.244,0.391,-71.111,-75.018,-30.476,-14.847,-66.813,-64.469,96.899,3.126,-24.225,25.788,-17.582,-14.847
'[01:44:44.488 07/11/2076]',-54.701,0.781,0.391,-112.918,-63.297,-27.350,27.350,-103.150,-73.065,-38.681,9.768,-42.198,-63.297,-38.291,-9.768,-33.602,-64.860,102.369,0.391,-20.317,15.238,-23.053,-9.768
'[01:44:44.492 07/11/2076]',-54.701,11.722,3.516,-116.044,-58.608,-20.317,26.178,-101.587,-64.860,-38.681,3.516,-73.065,-66.813,-26.178,-8.205,-71.111,-70.330,96.899,-2.735,-30.476,15.629,-17.973,-8.205
'[01:44:44.496 07/11/2076]',-51.966,25.397,0.391,-116.044,-51.966,-16.020,22.271,-96.899,-56.654,-39.853,-11.722,-86.349,-71.502,-17.582,-7.033,-99.243,-77.363,91.038,0.391,-44.933,11.722,-11.331,-7.033
'[01:44:44.500 07/11/2076]',-43.370,23.834,8.596,-114.872,-42.198,-10.549,22.662,-94.554,-52.357,-43.370,0.391,-62.515,-61.734,-30.085,-2.735,-63.687,-78.144,93.773,-7.814,-35.165,7.424,-22.271,-2.735
'[01:44:44.504 07/11/2076]',-37.900,22.271,21.880,-119.951,-31.258,-6.642,23.053,-98.071,-42.198,-46.105,8.596,-62.125,-54.701,-34.774,-0.391,-51.966,-78.144,91.429,-21.099,-31.648,11.331,-26.569,-0.391
'[01:44:44.508 07/11/2076]',-38.291,27.741,28.132,-123.077,-19.536,-3.516,15.629,-97.680,-24.225,-49.621,-15.629,-64.078,-57.045,-25.397,0.000,-71.893,-81.270,77.363,-27.350,-42.589,16.020,-11.722,0.000
'[01:44:44.512 07/11/2076]',-38.291,30.476,31.648,-120.733,-6.642,-2.344,8.987,-95.726,-5.861,-57.827,-34.774,-67.595,-58.608,-23.053,0.000,-85.177,-85.958,66.813,-30.867,-51.575,19.927,-1.172,0.000
'[01:44:44.516 07/11/2076]',-41.026,35.165,36.728,-123.077,4.298,-1.172,7.424,-103.150,9.768,-66.422,-23.834,-99.243,-55.092,-29.695,2.735,-98.071,-90.256,57.045,-35.946,-48.840,23.443,-9.377,2.735
'[01:44:44.520 07/11/2076]',-42.979,39.853,39.072,-127.766,18.755,-1.954,3.907,-112.918,28.913,-78.926,-24.225,-112.918,-52.747,-36.337,4.689,-102.369,-96.899,43.370,-38.291,-52.747,28.523,-10.940,4.689
'[01:44:44.523 07/11/2076]',-43.761,42.589,36.337,-125.812,34.383,-2.735,-5.470,-116.825,48.059,-92.210,-40.635,-87.912,-50.012,-45.324,3.126,-80.098,-102.759,26.960,-35.556,-54.310,24.615,-7.033,3.126
'[01:44:44.527 07/11/2076]',-44.933,42.979,37.900,-125.812,50.403,-3.126,-12.894,-123.077,67.985,-103.932,-53.138,-96.508,-50.403,-51.575,3.907,-87.131,-107.448,12.112,-37.118,-58.999,27.741,-2.735,3.907
'[01:44:44.531 07/11/2076]',-48.840,45.714,37.900,-126.203,67.595,-7.814,-17.582,-132.454,92.210,-115.653,-66.032,-130.501,-54.701,-50.794,3.126,-116.825,-112.918,-1.954,-37.118,-69.548,37.118,5.861,3.126
'[01:44:44.535 07/11/2076]',-50.012,46.105,37.509,-123.077,86.349,-10.940,-22.662,-140.659,112.137,-126.984,-76.972,-118.388,-55.092,-56.654,0.781,-99.243,-116.435,-14.847,-36.728,-77.753,45.324,14.066,0.781
'[01:44:44.539 07/11/2076]',-55.092,41.416,39.072,-116.825,101.197,-16.801,-26.960,-147.692,129.328,-141.441,-86.349,-110.183,-58.608,-64.860,0.000,-84.786,-121.905,-30.085,-38.291,-86.349,62.906,18.364,0.000
'[01:44:44.543 07/11/2076]',-60.562,45.324,42.979,-124.640,117.998,-21.099,-25.397,-168.010,144.957,-151.209,-85.568,-164.884,-64.860,-67.204,0.391,-123.858,-124.249,-42.198,-42.198,-94.164,78.535,19.536,0.391
'[01:44:44.547 07/11/2076]',-62.125,47.668,42.198,-131.282,136.752,-22.662,-28.523,-187.546,159.414,-161.368,-93.382,-206.300,-71.502,-73.455,-0.391,-154.725,-128.156,-51.966,-41.416,-100.415,83.614,25.006,-0.391
'[01:44:44.551 07/11/2076]',-62.125,43.761,41.807,-128.547,150.037,-25.397,-31.258,-197.705,167.228,-169.182,-92.991,-169.573,-65.250,-96.508,1.563,-102.759,-130.110,-53.529,-41.026,-91.429,78.926,19.536,1.563
'[01:44:44.555 07/11/2076]',-62.515,41.807,41.807,-129.328,162.540,-29.304,-29.304,-210.989,171.526,-174.261,-83.614,-162.930,-63.297,-113.309,4.689,-76.190,-131.673,-54.310,-41.026,-87.131,79.707,14.457,4.689
'[01:44:44.559 07/11/2076]',-67.204,44.933,36.337,-132.063,171.136,-35.946,-31.258,-220.366,176.606,-182.076,-97.680,-204.347,-80.879,-107.057,1.954,-120.733,-139.487,-66.032,-35.556,-98.071,84.005,26.960,1.954
'[01:44:44.563 07/11/2076]',-72.674,46.496,29.695,-130.501,177.778,-45.324,-31.258,-226.618,176.606,-186.764,-113.309,-221.148,-95.336,-100.806,-0.391,-146.129,-141.441,-69.939,-28.913,-109.402,92.991,37.900,-0.391
'[01:44:44.566 07/11/2076]',-69.939,42.198,26.569,-132.454,181.294,-49.621,-23.053,-240.293,168.791,-187.155,-91.038,-221.538,-93.382,-113.309,0.391,-123.468,-136.361,-60.562,-25.788,-100.024,96.117,26.960,0.391
'[01:44:44.570 07/11/2076]',-65.641,43.761,20.708,-139.096,184.811,-49.231,-17.582,-256.313,160.977,-185.592,-71.111,-234.432,-92.601,-118.388,0.000,-118.388,-132.063,-52.357,-19.927,-98.071,96.508,22.662,0.000
'[01:44:44.574 07/11/2076]',-68.376,38.681,19.145,-138.706,181.685,-50.794,-18.364,-260.220,151.600,-181.294,-84.786,-226.227,-101.197,-110.574,-5.470,-122.686,-130.501,-47.277,-18.364,-100.024,98.462,33.993,-5.470
'[01:44:44.578 07/11/2076]',-69.158,32.430,18.364,-139.878,176.215,-50.794,-16.801,-264.518,139.487,-175.433,-89.866,-228.962,-106.276,-107.057,-8.205,-132.063,-127.766,-39.072,-17.582,-98.071,100.806,39.072,-8.205
'[01:44:44.582 07/11/2076]',-69.158,30.476,16.801,-146.520,170.354,-47.668,-10.940,-277.802,126.593,-171.526,-68.376,-269.206,-110.574,-105.495,-9.377,-155.116,-124.249,-30.085,-16.020,-92.601,102.759,32.821,-9.377
'[01:44:44.586 07/11/2076]',-68.376,30.476,12.112,-149.646,164.103,-44.151,-7.814,-285.617,114.090,-168.400,-56.654,-276.239,-113.309,-105.104,-11.722,-155.116,-119.560,-25.397,-11.331,-87.912,103.150,30.476,-11.722
'[01:44:44.590 07/11/2076]',-68.376,27.350,3.907,-146.520,151.600,-40.635,-6.642,-286.398,99.634,-166.447,-55.092,-243.419,-111.355,-110.183,-16.020,-126.203,-113.700,-16.801,-3.126,-84.396,103.541,27.350,-16.020
'[01:44:44.594 07/11/2076]',-67.985,27.350,-4.689,-145.739,139.878,-38.291,-5.079,-287.570,86.740,-162.540,-51.966,-253.187,-113.309,-106.667,-21.099,-137.924,-107.448,-13.675,5.470,-84.786,107.448,24.615,-21.099
'[01:44:44.598 07/11/2076]',-69.548,29.304,-10.940,-144.567,127.766,-35.165,-3.516,-285.226,76.581,-157.070,-55.482,-270.379,-117.998,-95.726,-28.132,-162.930,-99.243,-12.503,11.722,-88.694,113.309,28.523,-28.132
'[01:44:44.602 07/11/2076]',-70.720,25.397,-15.629,-134.799,114.872,-33.993,-1.563,-273.895,62.906,-148.083,-57.827,-224.664,-113.309,-92.601,-33.211,-125.812,-86.740,-10.549,16.410,-87.521,121.905,28.132,-33.211
'[01:44:44.605 07/11/2076]',-69.548,24.225,-17.192,-130.110,103.541,-28.523,1.563,-269.597,51.575,-137.924,-49.621,-207.863,-109.402,-86.740,-37.118,-109.011,-74.628,-10.159,17.973,-83.223,125.031,27.350,-37.118
'[01:44:44.609 07/11/2076]',-67.985,29.695,-20.317,-131.673,94.945,-16.410,1.954,-271.551,45.714,-130.891,-41.807,-250.061,-110.183,-74.237,-41.807,-148.864,-64.078,-11.331,21.099,-79.316,121.123,26.178,-41.807
'[01:44:44.613 07/11/2076]',-67.204,31.648,-26.178,-123.468,84.005,-7.814,1.172,-263.736,33.211,-121.905,-43.370,-267.643,-113.700,-63.687,-48.059,-172.698,-56.654,-11.331,26.960,-76.972,118.779,28.913,-48.059
'[01:44:44.617 07/11/2076]',-63.297,26.569,-28.913,-114.090,70.330,1.172,3.126,-256.313,17.192,-113.309,-27.741,-224.664,-101.587,-70.330,-51.575,-122.686,-43.761,0.391,29.695,-58.217,109.011,17.582,-51.575
'[01:44:44.621 07/11/2076]',-60.952,20.708,-29.695,-106.667,57.045,7.424,6.642,-249.280,1.172,-105.885,-8.205,-202.784,-94.554,-72.283,-55.482,-92.210,-33.993,5.861,30.476,-42.589,102.759,7.033,-55.482
'[01:44:44.625 07/11/2076]',-68.376,23.053,-31.648,-97.680,40.635,8.205,7.033,-232.869,-15.629,-97.289,-19.536,-215.287,-108.230,-50.012,-63.687,-125.031,-29.695,2.344,32.430,-48.840,107.057,16.801,-63.687
'[01:44:44.629 07/11/2076]',-78.144,25.006,-31.258,-89.866,21.880,8.205,10.940,-216.850,-32.821,-85.568,-27.350,-210.598,-117.216,-32.039,-67.985,-138.315,-24.615,5.470,32.039,-53.138,107.839,26.178,-67.985
'[01:44:44.633 07/11/2076]',-76.581,22.662,-26.569,-83.614,7.814,14.457,20.708,-208.254,-51.966,-71.502,0.781,-202.002,-110.183,-32.821,-64.078,-116.044,-13.284,19.927,27.350,-35.946,101.978,11.331,-64.078
'[01:44:44.637 07/11/2076]',-74.628,21.099,-19.927,-77.753,-3.516,22.271,28.913,-199.267,-68.376,-60.952,20.708,-196.142,-105.885,-29.695,-63.297,-105.104,-4.689,27.741,20.708,-25.788,100.806,3.516,-63.297
'[01:44:44.641 07/11/2076]',-76.581,20.708,-20.317,-67.985,-16.020,27.350,27.741,-183.639,-78.144,-51.575,5.861,-160.977,-106.667,-18.364,-67.204,-91.819,5.079,24.225,21.099,-27.350,101.587,8.205,-67.204
'[01:44:44.645 07/11/2076]',-73.455,20.317,-18.364,-66.032,-23.443,32.039,27.350,-174.261,-84.005,-44.933,1.172,-150.037,-105.104,-11.331,-68.376,-92.601,18.364,18.755,19.145,-23.834,98.462,5.470,-68.376
'[01:44:44.648 07/11/2076]',-69.158,22.271,-16.410,-69.158,-26.178,37.118,27.741,-171.917,-84.396,-43.370,10.159,-179.341,-103.932,-7.033,-69.939,-115.263,28.913,10.549,17.192,-19.145,93.382,-1.954,-69.939
'[01:44:44.652 07/11/2076]',-64.469,28.523,-19.927,-71.502,-26.178,39.072,25.397,-166.056,-81.270,-41.416,8.987,-167.228,-98.071,-4.689,-73.846,-103.932,36.728,-0.391,20.708,-18.755,85.177,-5.079,-73.846
'[01:44:44.656 07/11/2076]',-56.654,24.225,-16.801,-71.893,-25.788,39.853,22.662,-159.414,-74.237,-41.026,6.642,-136.752,-84.005,-8.205,-76.972,-74.628,45.324,-10.159,17.582,-12.112,79.707,-10.940,-76.972
'[01:44:44.660 07/11/2076]',-48.840,19.145,-12.503,-75.409,-21.099,40.244,20.317,-158.242,-64.078,-41.807,1.172,-153.944,-76.972,-5.079,-80.488,-94.554,52.747,-24.615,13.284,-7.424,79.707,-13.675,-80.488
'[01:44:44.664 07/11/2076]',-46.496,15.629,-13.284,-75.409,-17.192,36.337,14.847,-154.725,-50.403,-41.807,-16.410,-169.182,-73.846,1.954,-87.912,-117.607,60.171,-44.151,14.066,-11.331,85.568,-10.940,-87.912
'[01:44:44.668 07/11/2076]',-42.589,14.066,-13.675,-80.488,-11.331,37.509,7.033,-157.851,-33.602,-43.370,-30.085,-142.613,-64.860,2.344,-89.866,-96.508,69.158,-63.687,14.457,-14.066,84.396,-8.596,-89.866
'[01:44:44.672 07/11/2076]',-30.476,11.331,-16.410,-85.958,5.079,42.589,-6.252,-164.884,-18.364,-46.105,-35.165,-126.593,-52.747,-9.377,-91.038,-72.674,72.283,-80.879,17.192,-7.424,72.283,-14.457,-91.038
'[01:44:44.676 07/11/2076]',-25.788,15.629,-23.053,-89.866,22.271,45.324,-20.708,-171.526,-2.735,-51.966,-46.105,-173.871,-55.873,-7.814,-93.382,-115.653,67.985,-103.150,23.834,-11.722,65.250,-12.503,-93.382
'[01:44:44.680 07/11/2076]',-23.053,20.317,-30.085,-94.164,40.244,44.151,-35.165,-177.387,16.020,-55.092,-67.204,-197.314,-56.654,-3.126,-98.071,-144.567,66.422,-125.031,30.867,-20.708,60.952,-4.298,-98.071
'[01:44:44.684 07/11/2076]',-15.238,16.801,-35.165,-93.773,55.873,44.933,-44.542,-185.983,26.178,-57.045,-62.125,-169.182,-41.807,-22.662,-97.289,-98.462,70.330,-137.924,35.946,-8.205,53.138,-16.020,-97.289
'[01:44:44.688 07/11/2076]',-12.112,14.066,-38.291,-96.117,69.548,44.151,-52.357,-195.360,36.728,-60.952,-57.827,-163.712,-34.774,-31.258,-98.462,-80.098,71.893,-153.553,39.072,-4.298,55.873,-22.271,-98.462
'[01:44:44.691 07/11/2076]',-18.364,17.973,-42.979,-100.415,76.972,39.463,-64.078,-198.095,50.794,-66.032,-85.568,-179.731,-43.370,-17.973,-104.322,-113.309,65.641,-179.341,43.761,-18.755,60.171,-5.470,-104.322
'[01:44:44.695 07/11/2076]',-21.490,17.973,-44.933,-103.932,83.223,37.118,-73.065,-201.612,57.827,-70.720,-104.713,-184.420,-49.621,-15.238,-106.667,-129.719,57.045,-192.625,45.714,-27.350,61.734,1.954,-106.667
'[01:44:44.699 07/11/2076]',-18.364,13.284,-42.589,-104.713,91.429,35.946,-75.409,-205.910,57.436,-74.237,-89.475,-197.705,-46.105,-27.350,-105.104,-123.077,48.449,-189.890,43.370,-17.973,60.562,-9.768,-105.104
'[01:44:44.703 07/11/2076]',-21.490,13.675,-40.635,-107.057,93.773,33.993,-76.190,-207.863,55.873,-75.018,-82.833,-203.956,-47.668,-31.258,-103.150,-121.514,39.463,-193.407,41.416,-17.973,58.217,-12.112,-103.150
'[01:44:44.707 07/11/2076]',-26.178,10.940,-41.026,-102.759,90.256,30.867,-79.316,-203.175,50.403,-69.939,-96.899,-171.136,-50.403,-30.867,-103.932,-100.806,33.602,-194.969,41.807,-21.099,56.264,-6.642,-103.932
'[01:44:44.711 07/11/2076]',-26.960,9.768,-41.026,-100.806,87.912,29.695,-79.316,-199.267,41.807,-62.906,-98.462,-166.838,-53.919,-30.476,-100.806,-100.024,30.867,-189.890,41.807,-18.364,51.966,-6.252,-100.806
'[01:44:44.715 07/11/2076]',-29.695,13.284,-43.761,-97.680,81.270,28.523,-75.018,-193.797,33.602,-52.747,-93.382,-194.188,-60.952,-21.490,-97.680,-124.640,30.476,-185.201,44.542,-21.880,48.059,-2.735,-97.680
'[01:44:44.719 07/11/2076]',-27.741,14.847,-43.761,-92.601,71.111,29.695,-68.376,-183.639,23.443,-39.072,-86.740,-176.606,-61.734,-13.284,-92.991,-109.792,34.383,-174.652,44.542,-25.397,44.542,1.563,-92.991
'[01:44:44.723 07/11/2076]',-21.099,15.629,-41.416,-86.349,62.125,33.602,-56.654,-175.043,11.331,-23.834,-73.846,-148.864,-56.264,-8.987,-85.958,-82.051,42.198,-158.242,42.198,-25.788,42.979,0.781,-85.958
'[01:44:44.727 07/11/2076]',-17.973,22.271,-42.198,-79.316,53.138,34.774,-46.496,-160.977,1.172,-5.470,-69.939,-176.215,-58.999,8.596,-78.535,-120.342,49.621,-145.739,42.979,-38.681,46.105,7.424,-78.535
'[01:44:44.730 07/11/2076]',-14.066,23.053,-33.993,-76.972,44.151,37.900,-34.383,-152.381,-3.516,11.331,-60.171,-190.281,-54.701,25.788,-70.330,-141.050,59.389,-132.063,34.774,-41.807,50.012,12.503,-70.330
'[01:44:44.734 07/11/2076]',-0.391,20.708,-26.178,-73.065,42.589,45.324,-24.615,-143.785,-5.470,29.695,-46.886,-139.878,-34.774,25.006,-60.952,-90.256,71.111,-110.965,26.960,-30.085,40.635,10.159,-60.952
'[01:44:44.738 07/11/2076]',10.159,19.536,-22.662,-61.343,39.463,53.919,-20.708,-127.766,-4.298,40.635,-30.085,-106.667,-17.973,22.662,-53.138,-50.012,74.628,-94.164,23.443,-19.145,28.523,5.470,-53.138
'[01:44:44.742 07/11/2076]',13.284,23.834,-19.145,-57.436,33.211,58.217,-15.238,-116.825,1.954,48.840,-25.397,-135.971,-12.894,38.681,-48.059,-85.958,73.846,-87.131,19.927,-24.225,29.695,12.894,-48.059
'[01:44:44.746 07/11/2076]',18.364,30.085,-17.192,-50.403,29.304,62.906,-10.549,-101.978,10.940,58.217,-30.085,-143.394,-5.861,53.138,-42.198,-107.057,75.018,-74.628,17.973,-32.039,28.913,23.443,-42.198
'[01:44:44.750 07/11/2076]',26.569,29.695,-15.238,-35.946,27.350,67.595,-2.344,-89.084,14.457,66.422,-5.470,-111.746,15.238,46.886,-33.993,-62.515,80.879,-55.092,16.020,-24.615,27.741,14.457,-33.993
'[01:44:44.754 07/11/2076]',34.383,29.695,-12.112,-28.523,28.913,70.720,4.298,-82.442,20.317,72.283,15.238,-104.322,31.258,49.231,-25.788,-48.449,84.005,-41.416,12.894,-22.271,32.039,11.722,-25.788
'[01:44:44.758 07/11/2076]',35.946,32.821,-12.503,-22.271,29.304,71.111,4.689,-71.893,32.039,76.972,2.735,-99.634,37.900,64.469,-24.225,-63.687,84.786,-37.118,13.284,-31.648,38.291,25.006,-24.225
'[01:44:44.762 07/11/2076]',40.635,31.648,-12.503,-11.722,29.304,70.330,5.861,-58.999,40.635,78.144,-3.907,-89.866,44.151,74.237,-22.662,-68.767,84.396,-30.085,13.284,-33.993,42.589,32.039,-22.662
'[01:44:44.766 07/11/2076]',42.589,30.476,-10.159,-5.079,26.569,70.330,13.284,-53.919,43.761,80.488,21.490,-108.620,55.482,75.409,-16.410,-75.409,84.396,-15.238,10.940,-26.960,47.668,22.662,-16.410
'[01:44:44.770 07/11/2076]',42.979,27.741,-4.689,-1.563,19.927,69.548,22.662,-48.449,48.059,81.270,41.026,-109.011,67.595,76.581,-10.940,-70.720,83.223,-3.907,5.470,-21.880,51.575,18.755,-10.940
'[01:44:44.773 07/11/2076]',43.761,23.053,-1.954,9.377,11.722,68.376,26.569,-33.602,47.668,82.442,41.807,-67.595,78.926,75.409,-8.596,-39.853,81.270,8.596,2.735,-15.629,49.621,18.755,-8.596
'[01:44:44.777 07/11/2076]',39.072,19.145,-0.391,20.708,0.781,63.297,31.648,-17.973,43.370,83.223,42.979,-62.125,82.442,76.972,-7.033,-43.370,75.409,21.880,1.172,-12.112,51.966,17.192,-7.033
'[01:44:44.781 07/11/2076]',29.695,15.629,1.954,26.569,-14.457,54.701,39.072,-3.907,38.681,84.396,40.244,-82.442,78.926,85.177,-9.377,-72.283,66.422,32.430,-1.172,-11.331,57.045,17.192,-9.377
'[01:44:44.785 07/11/2076]',26.178,10.159,2.735,34.383,-28.913,47.668,44.933,10.549,28.913,86.740,38.291,-55.092,78.926,88.694,-12.112,-55.482,62.906,42.979,-1.954,-8.596,62.906,14.457,-12.112
'[01:44:44.789 07/11/2076]',18.364,4.298,0.391,45.714,-47.277,37.900,50.012,28.132,11.331,87.912,35.165,-30.476,73.065,90.647,-15.238,-42.979,58.999,48.840,0.391,-9.377,72.674,9.377,-15.238
'[01:44:44.793 07/11/2076]',11.722,2.344,2.344,43.370,-62.906,32.430,59.780,30.476,-2.344,92.210,50.403,-60.562,68.376,95.336,-15.238,-67.985,60.952,56.264,-1.563,-4.689,79.316,0.391,-15.238
'[01:44:44.797 07/11/2076]',11.331,0.781,3.126,38.681,-71.893,29.695,65.641,29.695,-14.457,96.899,56.264,-82.833,62.515,101.197,-14.457,-92.991,63.687,60.952,-2.344,0.391,80.098,-5.079,-14.457
'[01:44:44.801 07/11/2076]',16.020,-2.344,-0.781,44.542,-78.144,30.085,65.641,37.900,-34.774,101.197,64.860,-26.569,69.548,85.958,-15.238,-34.383,68.376,69.158,1.563,15.238,68.767,-18.364,-15.238
'[01:44:44.805 07/11/2076]',19.145,-12.503,5.470,47.668,-85.177,30.085,68.376,45.324,-50.794,105.104,80.098,-1.563,74.628,77.753,-16.020,-2.735,71.111,73.065,-4.689,33.993,63.687,-31.648,-16.020
'[01:44:44.809 07/11/2076]',18.755,-15.629,10.549,47.668,-89.866,28.913,66.032,55.482,-60.562,107.839,65.250,-26.569,64.078,91.819,-21.099,-48.840,68.376,62.515,-9.768,32.039,70.330,-28.132,-21.099
'[01:44:44.813 07/11/2076]',19.145,-13.284,11.331,52.747,-94.164,26.960,63.687,72.283,-69.158,110.183,47.668,-29.304,58.217,104.322,-26.960,-75.409,70.720,55.482,-10.549,25.397,77.363,-23.053,-26.960
'[01:44:44.816 07/11/2076]',21.490,-14.847,18.364,57.436,-100.806,29.304,70.720,82.051,-75.018,110.574,65.641,-10.159,71.502,94.164,-26.960,-47.277,80.098,60.952,-17.582,37.509,78.144,-39.463,-26.960
'[01:44:44.820 07/11/2076]',27.741,-10.549,22.662,55.873,-98.462,32.821,73.846,87.131,-73.455,109.792,78.144,-5.079,82.051,88.694,-25.397,-35.556,86.349,58.217,-21.880,43.761,77.753,-51.575,-25.397
'[01:44:44.824 07/11/2076]',27.741,-3.516,19.145,61.734,-96.899,33.602,66.813,100.806,-68.767,109.011,53.919,16.410,82.833,94.945,-28.913,-36.728,89.866,43.761,-18.364,35.946,76.581,-42.979,-28.913
'[01:44:44.828 07/11/2076]',27.741,-1.954,17.973,66.813,-94.554,32.039,60.952,112.527,-60.952,106.276,35.165,23.053,85.177,95.726,-32.039,-43.761,93.773,30.085,-17.192,33.602,77.753,-39.853,-32.039
'[01:44:44.832 07/11/2076]',31.258,-1.172,19.927,64.078,-86.349,31.648,57.436,110.965,-51.184,102.759,39.463,-10.549,87.912,92.991,-30.867,-67.985,97.680,14.066,-19.145,35.165,80.488,-46.496,-30.867
'[01:44:44.836 07/11/2076]',35.165,-1.172,21.880,61.343,-73.846,32.430,49.231,108.620,-39.072,96.117,37.509,-20.317,91.819,88.694,-31.648,-73.846,98.852,-3.516,-21.099,37.509,80.488,-48.059,-31.648
'[01:44:44.840 07/11/2076]',37.509,-5.861,24.225,66.422,-62.515,29.695,41.416,113.309,-26.178,85.958,27.741,10.549,99.243,77.363,-33.211,-44.151,97.289,-14.457,-23.443,38.681,80.098,-49.231,-33.211
'[01:44:44.844 07/11/2076]',34.383,-7.033,28.132,68.376,-51.575,24.225,36.337,114.090,-12.112,75.018,21.099,0.000,100.806,71.502,-33.211,-54.701,94.164,-25.006,-27.350,35.556,85.177,-48.059,-33.211
'[01:44:44.848 07/11/2076]',28.132,-7.033,30.867,68.767,-39.853,16.410,30.085,114.090,3.907,63.297,7.424,-23.834,97.289,71.502,-35.165,-80.879,88.303,-37.509,-30.085,29.304,89.866,-41.807,-35.165
'[01:44:44.852 07/11/2076]',17.192,-14.066,34.383,78.926,-34.383,3.907,27.350,119.170,16.410,53.138,0.391,17.973,101.978,58.608,-35.556,-35.165,84.786,-46.886,-33.602,26.569,100.415,-41.416,-35.556
'[01:44:44.855 07/11/2076]',9.768,-18.755,37.509,79.316,-27.741,-4.689,25.397,116.435,25.788,46.886,-7.033,23.443,100.415,54.701,-33.993,-29.695,81.661,-55.092,-36.728,23.053,107.448,-38.681,-33.993
'[01:44:44.859 07/11/2076]',5.079,-14.457,34.383,68.767,-18.364,-6.642,18.364,101.197,36.337,37.900,-10.940,-29.695,90.647,54.310,-33.211,-77.363,72.674,-64.078,-33.602,18.364,107.448,-36.337,-33.211
'[01:44:44.863 07/11/2076]',-1.172,-12.503,28.523,66.032,-12.894,-12.112,12.503,93.773,36.728,32.039,-18.755,-58.999,78.144,52.747,-32.821,-105.495,60.952,-69.548,-27.741,13.675,103.932,-32.430,-32.821
'[01:44:44.867 07/11/2076]',-0.391,-13.675,25.006,61.734,-9.377,-13.675,10.940,85.568,30.085,29.304,-9.768,-23.834,80.098,36.337,-29.304,-60.171,57.827,-64.078,-24.225,21.099,92.210,-37.509,-29.304
'[01:44:44.871 07/11/2076]',0.000,-14.066,22.662,56.264,-5.861,-14.066,8.987,76.190,21.490,26.569,4.298,-11.722,77.753,23.443,-25.006,-33.602,56.264,-63.687,-21.880,27.350,84.786,-44.933,-25.006
'[01:44:44.875 07/11/2076]',-8.205,-15.238,25.788,51.575,-8.205,-16.801,7.033,72.283,14.457,28.523,-6.642,-33.602,59.780,33.211,-21.880,-67.204,53.529,-72.283,-25.006,19.536,86.349,-32.039,-21.880
'[01:44:44.879 07/11/2076]',-11.331,-19.145,30.476,49.621,-10.549,-15.629,5.470,70.330,4.689,34.774,-16.410,-39.853,45.714,41.807,-16.020,-86.349,58.217,-73.065,-29.695,12.894,88.303,-24.225,-16.020
'[01:44:44.883 07/11/2076]',-5.079,-23.443,33.993,44.933,-10.549,-7.814,8.987,60.171,-8.987,44.933,7.424,-43.761,46.105,32.039,-5.861,-71.893,65.250,-60.952,-33.211,25.397,80.098,-37.118,-5.861
'[01:44:44.887 07/11/2076]',-1.172,-25.006,35.165,39.072,-14.066,-0.781,11.722,50.403,-19.145,54.310,25.788,-49.231,47.277,29.304,2.735,-66.813,69.158,-53.919,-34.383,30.085,71.893,-43.370,2.735
'[01:44:44.891 07/11/2076]',2.344,-24.615,32.430,39.072,-18.755,3.126,10.549,54.701,-27.350,62.515,11.722,-21.490,43.370,34.383,5.079,-57.827,74.628,-55.482,-31.648,23.053,66.032,-36.728,5.079
'[01:44:44.895 07/11/2076]',8.596,-21.099,32.821,35.556,-20.708,6.642,12.112,57.045,-28.913,68.376,8.596,-16.801,44.151,39.853,12.503,-64.860,81.661,-53.529,-32.039,21.490,57.436,-33.602,12.503
'[01:44:44.898 07/11/2076]',16.020,-16.410,35.946,30.085,-17.192,11.331,14.066,56.264,-24.225,73.846,23.834,-48.059,48.449,42.589,22.271,-88.694,87.521,-53.919,-35.165,21.490,50.012,-34.774,22.271
'[01:44:44.902 07/11/2076]',26.960,-15.629,38.681,30.085,-10.549,15.238,16.801,59.780,-15.629,78.535,33.211,-37.118,57.045,44.933,33.993,-76.972,91.819,-51.184,-37.900,21.880,44.933,-36.337,33.993
'[01:44:44.906 07/11/2076]',39.463,-16.410,40.244,36.728,-2.344,16.801,17.973,67.595,-6.642,82.833,37.118,-7.814,69.158,43.761,44.542,-51.966,92.601,-42.979,-39.463,23.834,40.244,-37.509,44.542
'[01:44:44.910 07/11/2076]',46.886,-16.020,41.416,39.463,3.516,17.582,19.145,70.720,5.079,84.396,40.244,-24.615,75.018,47.277,53.138,-69.939,89.084,-40.635,-40.635,25.006,38.291,-36.728,53.138
'[01:44:44.914 07/11/2076]',53.529,-19.927,42.589,48.059,8.205,13.675,23.834,78.144,21.490,81.270,33.602,-33.211,80.098,50.012,59.780,-86.349,84.786,-37.509,-41.807,22.662,42.979,-34.774,59.780
'[01:44:44.918 07/11/2076]',57.827,-17.192,42.589,52.357,12.503,10.940,25.788,84.786,36.337,76.581,22.662,-4.298,87.521,50.012,63.687,-69.158,81.661,-39.463,-41.807,16.410,43.370,-25.397,63.687
'[01:44:44.922 07/11/2076]',63.297,-14.066,43.761,53.919,19.536,14.457,24.225,86.349,55.482,66.813,25.397,16.801,99.243,38.291,70.330,-42.589,76.581,-39.463,-42.979,19.536,33.211,-26.178,70.330
'[01:44:44.926 07/11/2076]',67.204,-8.987,43.370,53.919,30.476,14.066,22.271,87.521,75.409,53.138,20.708,-21.880,96.117,37.118,74.628,-80.098,64.469,-43.761,-42.589,13.675,29.304,-21.490,74.628
'[01:44:44.930 07/11/2076]',67.985,-3.907,39.072,60.171,40.635,8.596,20.317,93.382,94.164,39.072,3.907,-41.026,91.429,36.728,76.581,-107.839,52.747,-45.324,-38.291,3.907,25.397,-11.722,76.581
'[01:44:44.934 07/11/2076]',72.674,-14.457,44.933,70.330,49.621,3.126,23.834,96.117,105.885,24.615,12.894,-3.126,101.587,10.549,80.488,-52.357,44.542,-36.337,-44.151,23.443,16.801,-23.443,80.488
'[01:44:44.938 07/11/2076]',72.283,-27.741,51.184,80.879,55.482,-5.079,28.132,97.680,114.481,8.596,21.490,11.722,105.495,-8.987,83.614,-22.662,34.774,-32.821,-50.403,38.291,15.629,-29.695,83.614
'[01:44:44.941 07/11/2076]',62.515,-34.383,49.621,88.303,56.654,-19.145,25.788,102.759,121.905,-5.861,-2.735,0.391,92.210,-7.424,77.363,-50.794,16.801,-43.370,-48.840,30.476,23.443,-14.847,77.363
'[01:44:44.945 07/11/2076]',51.966,-40.635,43.761,91.429,54.701,-33.602,21.099,104.322,121.123,-18.364,-21.490,-3.907,80.879,-12.503,71.502,-63.687,-1.172,-45.324,-42.979,21.490,32.430,-6.642,71.502
'[01:44:44.949 07/11/2076]',46.886,-48.840,37.509,91.038,52.747,-45.714,19.927,99.634,110.183,-28.523,-4.689,-16.020,74.628,-28.913,71.893,-57.436,-16.801,-35.165,-36.728,20.708,41.416,-19.536,71.893
'[01:44:44.953 07/11/2076]',40.244,-55.092,32.430,87.912,50.403,-58.608,18.755,94.945,95.726,-39.072,6.642,-25.006,61.734,-39.072,71.502,-55.873,-32.821,-30.867,-31.648,11.722,49.621,-23.834,71.502
'[01:44:44.957 07/11/2076]',35.946,-62.515,29.695,89.866,49.231,-67.985,15.238,96.508,80.879,-46.886,-0.391,7.814,46.886,-42.979,69.548,-31.648,-44.542,-24.615,-28.913,0.391,52.357,-19.145,69.548
'[01:44:44.961 07/11/2076]',29.695,-66.813,32.821,89.866,46.496,-72.674,17.582,93.773,65.250,-50.012,1.954,16.410,32.039,-44.933,69.939,-23.053,-49.231,-18.755,-32.039,-1.172,46.886,-17.973,69.939
'[01:44:44.965 07/11/2076]',24.615,-66.422,35.556,89.866,44.542,-76.972,19.927,95.336,50.012,-48.059,8.987,-12.894,13.675,-36.337,70.720,-49.621,-53.919,-16.410,-34.774,-3.126,39.072,-12.503,70.720
'[01:44:44.969 07/11/2076]',20.317,-65.641,35.165,92.601,40.635,-81.661,20.317,102.759,34.774,-41.416,13.284,1.563,4.689,-29.304,71.502,-38.291,-57.827,-14.457,-34.383,-0.391,32.039,-7.424,71.502
'[01:44:44.973 07/11/2076]',20.317,-67.595,32.039,94.554,35.556,-87.521,18.755,112.527,19.145,-30.867,18.364,25.006,3.126,-25.788,71.502,-17.582,-60.171,-9.768,-31.258,9.768,23.443,-7.814,71.502
'[01:44:44.977 07/11/2076]',18.364,-70.330,27.350,96.508,30.085,-99.634,12.503,128.547,5.861,-19.536,7.814,-9.768,-7.033,-5.861,69.548,-72.283,-67.595,-8.596,-26.569,10.940,26.960,-0.781,69.548
'[01:44:44.980 07/11/2076]',21.490,-70.720,24.615,91.038,28.523,-105.104,11.331,131.282,-2.735,-10.940,15.629,-23.443,-3.907,1.954,66.032,-85.958,-66.813,-5.079,-23.834,19.536,26.569,-1.563,66.032
'[01:44:44.984 07/11/2076]',32.821,-71.111,19.927,89.084,28.523,-100.024,9.768,132.454,-5.470,-2.735,23.834,19.145,14.066,0.000,60.171,-39.072,-59.780,2.344,-19.145,32.821,17.973,-7.033,60.171
'[01:44:44.988 07/11/2076]',45.714,-69.548,13.284,89.084,29.695,-90.647,5.470,133.626,-4.689,2.344,34.383,44.151,31.648,-5.470,54.701,-4.689,-54.310,7.424,-12.503,43.370,6.252,-13.675,54.701
'[01:44:44.992 07/11/2076]',48.059,-61.343,8.205,83.614,23.834,-82.442,5.861,131.673,0.391,5.861,33.993,6.252,34.774,7.033,48.059,-43.370,-50.794,3.516,-7.424,37.900,6.642,-10.549,48.059
'[01:44:44.996 07/11/2076]',50.794,-50.012,-1.954,84.005,17.582,-75.018,5.470,134.799,7.424,10.940,23.053,-11.331,40.635,20.317,42.979,-72.674,-45.324,2.344,2.735,24.615,9.768,-1.954,42.979
'[01:44:45.000 07/11/2076]',62.515,-53.919,-3.516,86.349,14.066,-67.595,7.424,137.143,11.331,16.020,37.509,10.549,60.952,10.940,40.635,-36.728,-36.337,11.722,4.298,36.337,10.549,-13.284,40.635
'[01:44:45.004 07/11/2076]',67.595,-57.827,-0.781,84.005,12.894,-63.297,8.205,134.799,19.145,16.801,50.403,12.503,78.535,7.033,37.509,-23.053,-31.258,14.457,1.563,44.933,18.364,-18.755,37.509
'[01:44:45.008 07/11/2076]',67.204,-54.701,-3.126,83.223,12.503,-60.171,3.516,136.752,32.039,14.066,32.039,8.987,82.833,17.582,28.132,-41.026,-30.867,6.252,3.907,36.337,29.304,-5.079,28.132
'[01:44:45.012 07/11/2076]',70.720,-53.529,-4.689,82.442,17.582,-59.780,-1.563,138.706,46.496,10.940,14.066,7.033,88.303,24.615,20.317,-54.701,-31.648,2.735,5.470,32.039,38.291,5.470,20.317
'[01:44:45.016 07/11/2076]',72.674,-50.403,-7.814,77.753,22.271,-61.343,0.000,131.282,57.827,7.424,27.350,-17.973,98.852,20.317,17.192,-62.515,-33.602,4.689,8.596,34.383,44.151,0.781,17.192
'[01:44:45.020 07/11/2076]',73.065,-44.933,-10.549,71.111,26.569,-61.734,0.391,123.077,68.376,1.954,36.728,-28.523,107.839,18.755,14.457,-62.125,-35.165,3.907,11.331,34.383,53.138,0.781,14.457
'[01:44:45.023 07/11/2076]',76.190,-45.324,-16.801,72.283,31.258,-62.906,-4.689,122.295,77.363,-3.516,25.397,2.344,114.481,14.066,10.549,-38.291,-37.900,4.689,17.582,33.993,57.827,4.689,10.549
'[01:44:45.027 07/11/2076]',70.330,-46.496,-21.880,73.455,29.304,-67.204,-7.033,119.951,83.614,-10.940,19.145,-0.391,114.872,13.284,9.377,-45.714,-44.151,5.470,22.662,32.430,64.469,9.768,9.377
'[01:44:45.031 07/11/2076]',60.562,-44.933,-23.834,73.065,25.788,-72.283,-7.033,117.216,86.349,-15.238,14.066,-28.132,107.057,20.708,7.424,-78.535,-50.403,6.642,24.615,27.741,75.409,17.192,7.424
'[01:44:45.035 07/11/2076]',54.701,-45.324,-24.615,74.628,23.443,-76.581,-3.516,115.653,83.614,-14.066,12.112,-10.549,102.369,24.615,9.377,-66.032,-53.138,12.894,25.397,22.662,82.051,23.834,9.377
'[01:44:45.039 07/11/2076]',45.714,-48.059,-21.490,78.535,17.582,-84.786,1.954,119.170,74.237,-9.768,11.331,8.596,92.601,33.211,12.503,-54.701,-57.827,19.536,22.271,14.847,90.256,32.821,12.503
'[01:44:45.043 07/11/2076]',40.244,-45.324,-16.020,68.767,16.020,-84.786,9.768,106.276,63.687,-4.298,29.304,-31.648,86.349,37.118,15.238,-82.833,-58.217,32.821,16.801,13.675,94.164,30.476,15.238
'[01:44:45.047 07/11/2076]',37.118,-39.072,-15.629,57.827,16.020,-82.051,11.722,92.991,51.966,0.781,37.509,-64.860,76.190,42.589,15.629,-110.183,-57.827,47.668,16.410,9.377,90.647,30.476,15.629
'[01:44:45.051 07/11/2076]',38.681,-37.509,-21.880,58.217,13.675,-75.409,10.549,87.521,36.337,1.563,49.231,-17.192,76.581,28.523,16.801,-52.747,-56.654,62.125,22.662,16.020,73.455,21.099,16.801
'[01:44:45.055 07/11/2076]',38.681,-34.774,-24.225,55.873,8.596,-67.985,12.503,80.879,20.708,2.735,67.204,2.344,75.800,20.317,17.582,-20.317,-54.310,76.972,25.006,21.490,60.171,11.331,17.582
'[01:44:45.059 07/11/2076]',31.648,-21.099,-30.867,53.529,2.344,-63.687,12.894,80.488,10.159,7.814,58.217,-27.350,58.608,37.509,15.238,-62.125,-53.529,77.363,31.648,4.298,56.264,19.927,15.238
'[01:44:45.063 07/11/2076]',25.788,-18.364,-28.523,55.482,-7.033,-60.171,15.629,86.349,-0.781,17.582,46.496,-28.913,45.714,53.919,15.629,-81.661,-49.231,80.098,29.304,-6.252,53.529,29.695,15.629
'[01:44:45.066 07/11/2076]',27.350,-22.271,-17.582,57.436,-16.020,-53.529,27.350,86.740,-13.675,31.648,71.111,-7.424,52.747,50.403,20.317,-43.761,-38.291,96.508,18.364,5.470,44.933,16.020,20.317
'[01:44:45.070 07/11/2076]',30.867,-20.317,-9.768,55.482,-19.536,-44.542,34.774,85.568,-19.536,45.324,92.210,-1.954,60.562,53.919,26.569,-25.397,-26.569,107.839,10.549,8.596,37.118,8.987,26.569
'[01:44:45.074 07/11/2076]',30.867,-14.457,-9.377,57.436,-25.006,-38.291,33.602,94.554,-21.490,57.045,76.972,21.490,55.873,67.204,28.913,-20.317,-19.536,110.183,10.159,-1.172,26.569,17.192,28.913
'[01:44:45.078 07/11/2076]',34.383,-7.033,-10.940,60.171,-28.132,-33.602,36.728,102.369,-21.099,65.641,69.548,35.165,56.264,74.237,32.039,-14.847,-8.205,116.044,11.722,-7.814,13.284,19.927,32.039
'[01:44:45.082 07/11/2076]',41.807,3.126,-11.722,58.608,-26.569,-25.397,42.198,102.759,-19.536,75.800,84.396,8.205,58.217,80.879,39.072,-30.085,2.735,121.905,12.503,-12.894,3.907,14.066,39.072
'[01:44:45.086 07/11/2076]',50.403,12.894,-11.722,58.999,-21.490,-17.192,44.151,106.276,-16.801,85.568,90.256,10.940,62.906,83.614,44.933,-23.053,10.940,123.077,12.503,-16.801,-7.424,10.940,44.933
'[01:44:45.090 07/11/2076]',58.999,15.629,-8.987,66.032,-18.364,-10.549,46.886,115.653,-13.675,92.991,91.819,51.184,73.455,79.316,48.449,19.536,21.490,122.686,9.768,-18.364,-20.317,8.987,48.449
'[01:44:45.094 07/11/2076]',66.032,20.708,-5.861,71.893,-13.284,-6.252,50.794,123.077,-9.377,101.197,93.382,47.668,75.409,80.879,55.482,19.536,31.258,121.123,6.642,-25.788,-26.960,7.814,55.482
'[01:44:45.098 07/11/2076]',66.422,32.821,-3.516,75.800,-7.814,-2.735,55.873,127.766,-1.172,106.276,87.521,26.960,72.674,87.131,60.171,-0.781,43.370,117.216,4.298,-40.244,-29.695,12.503,60.171
'[01:44:45.102 07/11/2076]',66.813,39.853,0.781,85.177,-6.642,0.781,66.032,133.626,6.252,108.230,95.336,62.906,80.098,78.926,64.860,48.840,61.343,116.825,0.000,-52.357,-30.867,12.112,64.860
'[01:44:45.105 07/11/2076]',67.204,48.840,4.298,91.038,-1.954,9.377,71.502,134.017,14.457,108.620,88.694,75.409,80.098,77.363,66.032,63.297,76.190,114.872,-3.516,-63.687,-29.695,14.066,66.032
'[01:44:45.109 07/11/2076]',66.813,60.171,9.768,88.694,6.642,23.053,72.674,124.249,27.741,105.495,87.521,21.099,75.800,78.144,68.767,19.536,83.614,110.574,-8.987,-72.674,-28.913,15.629,68.767
'[01:44:45.113 07/11/2076]',66.422,67.985,7.033,91.819,14.847,28.132,68.767,120.733,37.509,97.289,83.223,-4.689,71.502,72.283,68.376,1.172,85.177,106.276,-6.252,-81.661,-30.867,17.973,68.376
'[01:44:45.117 07/11/2076]',67.595,66.422,4.689,95.336,19.927,32.039,62.906,119.170,42.198,90.256,88.694,26.960,77.363,51.184,71.502,47.668,87.521,109.011,-3.907,-76.190,-35.556,10.940,71.502
'[01:44:45.121 07/11/2076]',67.985,68.376,3.516,94.945,26.960,33.211,60.562,113.309,44.151,84.005,103.541,30.085,78.535,35.165,77.363,71.893,86.740,110.183,-2.735,-73.846,-37.900,4.298,77.363
'[01:44:45.125 07/11/2076]',58.217,78.535,-2.735,91.038,28.523,30.085,55.873,108.620,45.324,76.190,92.601,-3.907,59.389,39.853,76.581,34.383,82.051,98.852,3.516,-95.726,-30.867,16.801,76.581
'[01:44:45.129 07/11/2076]',47.668,79.707,-1.954,86.349,28.132,28.523,51.966,102.369,42.589,74.628,78.535,-23.443,43.761,43.761,75.409,10.159,81.661,91.819,2.735,-107.839,-26.569,28.523,75.409
'[01:44:45.133 07/11/2076]',45.324,75.409,3.126,80.488,31.648,31.258,51.966,89.084,35.946,75.800,96.117,-35.165,40.244,30.085,78.535,23.443,85.568,91.429,-2.344,-96.508,-29.304,17.582,78.535
'[01:44:45.137 07/11/2076]',40.635,71.502,4.298,73.065,32.430,32.821,48.059,76.190,30.867,75.409,110.574,-50.403,35.556,23.443,80.488,27.350,86.740,86.349,-3.516,-94.554,-28.523,13.284,80.488
'[01:44:45.141 07/11/2076]',30.867,68.767,-0.391,72.674,28.523,29.695,36.728,76.972,26.178,77.753,91.038,-37.118,23.834,28.913,77.753,27.350,84.786,74.628,1.172,-100.806,-28.132,23.443,77.753
'[01:44:45.145 07/11/2076]',24.225,67.985,-4.298,68.767,26.960,25.397,28.913,74.628,22.662,82.442,81.270,-44.542,14.066,36.728,79.316,11.331,84.005,65.641,5.079,-105.104,-27.350,30.867,79.316
'[01:44:45.148 07/11/2076]',18.364,71.893,-7.424,60.952,26.569,22.271,26.960,66.422,22.271,86.740,91.819,-89.084,8.596,43.761,84.005,-23.443,82.833,59.780,8.205,-108.620,-26.569,32.821,84.005
'[01:44:45.152 07/11/2076]',14.457,73.846,-10.159,56.264,26.960,21.099,23.834,60.952,23.053,92.601,98.462,-91.819,7.814,48.449,88.694,-22.662,83.223,51.966,10.940,-109.792,-26.569,34.774,88.694
'[01:44:45.156 07/11/2076]',16.020,69.548,-10.549,55.482,30.085,19.536,19.536,59.780,24.225,98.071,98.852,-69.548,12.503,51.575,92.991,-4.689,85.177,44.933,11.331,-107.839,-23.834,35.556,92.991
'[01:44:45.160 07/11/2076]',14.847,66.422,-6.252,52.357,32.430,19.536,17.192,56.654,28.523,104.713,100.415,-89.475,13.675,62.125,98.462,-29.304,88.303,38.681,7.033,-108.230,-16.020,39.072,98.462
'[01:44:45.164 07/11/2076]',11.331,62.125,-5.079,55.092,33.211,16.410,14.847,57.436,33.211,111.355,100.415,-106.667,12.112,77.753,103.150,-53.138,92.991,32.821,5.861,-110.183,-2.735,45.714,103.150
'[01:44:45.168 07/11/2076]',11.331,62.906,-4.298,56.654,35.165,18.364,12.894,59.389,39.072,118.779,86.740,-72.283,14.847,92.210,107.057,-42.589,97.680,25.397,5.079,-115.263,4.689,58.608,107.057
'[01:44:45.172 07/11/2076]',12.894,65.250,-3.907,55.873,36.728,25.788,11.722,54.701,48.449,124.249,92.601,-53.529,25.397,98.462,116.435,-28.523,104.322,23.443,4.689,-112.527,3.516,64.469,116.435
'[01:44:45.176 07/11/2076]',14.066,71.111,-5.861,52.747,39.463,33.602,8.205,50.012,58.608,126.203,91.429,-95.336,23.834,114.481,120.733,-78.144,104.713,13.675,6.642,-113.309,0.781,74.237,120.733
'[01:44:45.180 07/11/2076]',17.582,79.316,-12.112,48.840,43.370,38.681,2.735,48.059,68.767,126.593,80.098,-112.137,26.569,128.938,121.905,-113.700,106.667,7.033,12.894,-122.686,0.781,87.131,121.905
'[01:44:45.184 07/11/2076]',26.178,71.893,-8.987,49.621,45.714,44.542,1.563,45.714,73.455,126.984,92.601,-74.628,45.324,119.951,126.203,-73.065,114.090,10.549,9.768,-106.276,-2.735,79.316,126.203
'[01:44:45.188 07/11/2076]',30.085,62.125,-0.391,48.059,47.668,48.059,0.391,42.979,77.363,122.686,105.104,-59.389,58.999,114.872,126.203,-53.138,119.560,7.424,1.172,-90.647,-0.781,74.628,126.203
'[01:44:45.191 07/11/2076]',26.569,62.515,1.563,44.933,48.840,48.449,-3.907,42.979,84.396,118.388,80.098,-67.204,54.310,130.891,119.951,-89.475,118.388,-7.814,-0.781,-100.806,8.205,92.210,119.951
'[01:44:45.195 07/11/2076]',23.443,61.734,5.470,43.370,48.059,48.840,-6.642,42.979,88.694,112.918,57.827,-66.422,49.621,141.050,116.435,-114.481,116.435,-17.582,-4.689,-107.057,15.629,103.150,116.435
'[01:44:45.199 07/11/2076]',23.834,60.171,7.033,40.244,47.668,50.403,-2.344,36.728,86.740,105.885,71.502,-73.065,54.310,130.891,115.263,-110.574,114.090,-14.847,-6.252,-97.680,13.284,92.601,115.263
'[01:44:45.203 07/11/2076]',24.225,60.562,8.596,35.556,46.886,50.794,-0.391,31.648,82.442,96.508,75.018,-74.237,53.919,123.858,112.137,-110.965,105.885,-16.020,-7.814,-96.899,14.457,88.303,112.137
'[01:44:45.207 07/11/2076]',19.145,56.654,6.252,36.337,41.416,46.105,-3.516,34.774,74.628,83.614,57.045,-38.681,49.621,116.435,105.495,-94.945,96.117,-16.801,-5.470,-100.415,16.410,89.866,105.495
'[01:44:45.211 07/11/2076]',11.722,51.575,5.861,35.946,33.993,38.681,-3.516,35.165,64.078,71.893,49.621,-32.039,44.151,105.104,100.415,-96.899,83.614,-13.284,-5.079,-98.071,16.801,85.958,100.415
'[01:44:45.215 07/11/2076]',1.954,47.277,5.079,33.602,26.960,29.695,-2.735,35.165,51.184,57.045,46.886,-58.608,32.039,98.071,94.554,-127.375,69.548,-12.894,-4.298,-98.462,20.708,82.442,94.554
'[01:44:45.219 07/11/2076]',-10.159,39.853,6.642,33.602,16.801,18.755,-1.172,35.556,33.211,45.324,44.151,-46.496,20.708,86.740,89.475,-121.123,57.045,-12.503,-5.861,-99.634,25.397,79.707,89.475
'[01:44:45.223 07/11/2076]',-22.271,31.648,9.377,33.993,5.861,7.424,2.735,36.728,11.722,34.774,44.151,-21.490,13.284,71.502,84.786,-100.415,44.151,-7.814,-8.596,-96.899,29.304,71.502,84.786
'[01:44:45.227 07/11/2076]',-41.416,29.695,8.987,34.383,-9.377,-3.516,6.252,39.853,-16.020,26.569,31.258,-44.933,-9.377,69.939,76.190,-140.269,26.569,-4.298,-8.205,-106.276,40.244,69.939,76.190
'[01:44:45.230 07/11/2076]',-57.436,32.039,9.768,27.350,-21.880,-11.331,12.503,33.993,-39.853,17.192,37.118,-64.469,-25.788,63.297,68.376,-155.897,14.457,4.298,-8.987,-111.746,46.496,64.860,68.376
'[01:44:45.234 07/11/2076]',-67.985,33.211,9.768,22.271,-33.211,-12.112,15.629,28.132,-63.297,8.987,41.026,-16.410,-30.867,43.761,63.687,-106.276,6.642,16.801,-8.987,-106.276,42.198,52.357,63.687
'[01:44:45.238 07/11/2076]',-78.535,33.993,5.861,22.662,-44.542,-12.503,15.238,27.350,-85.958,-0.391,46.496,6.642,-42.198,26.178,57.045,-75.018,-1.172,19.536,-5.079,-101.197,33.993,41.416,57.045
'[01:44:45.242 07/11/2076]',-93.382,33.602,11.331,14.847,-56.264,-14.066,14.847,23.053,-101.587,-9.377,42.979,-35.946,-65.641,26.178,50.012,-115.263,-7.424,10.940,-10.549,-102.759,35.165,39.853,50.012
'[01:44:45.246 07/11/2076]',-110.574,30.085,17.582,12.503,-69.158,-16.410,12.503,23.834,-114.872,-13.284,25.397,-54.310,-87.521,28.523,44.151,-144.567,-10.159,1.172,-16.801,-103.150,33.993,43.761,44.151
'[01:44:45.250 07/11/2076]',-121.514,25.397,23.443,13.675,-82.833,-12.503,16.801,21.880,-130.891,-13.675,37.118,-30.867,-89.084,11.331,41.416,-104.322,-7.033,4.689,-22.662,-89.866,30.867,28.913,41.416
'[01:44:45.254 07/11/2076]',-133.236,27.350,29.695,11.331,-94.554,-7.814,20.317,19.145,-141.832,-17.582,48.449,-26.960,-95.726,2.735,39.463,-85.177,-8.205,9.377,-28.913,-84.786,30.867,19.536,39.463
'[01:44:45.258 07/11/2076]',-147.302,37.900,28.132,8.205,-107.057,-1.563,17.973,18.755,-146.911,-20.317,28.913,-28.913,-113.309,10.940,34.383,-100.806,-12.894,7.033,-27.350,-96.117,30.085,28.913,34.383
'[01:44:45.262 07/11/2076]',-157.851,45.714,24.615,7.033,-117.607,1.954,17.192,19.927,-148.083,-25.397,13.284,-28.523,-123.858,11.722,32.430,-109.792,-17.582,7.424,-23.834,-105.885,26.569,35.165,32.430
'[01:44:45.266 07/11/2076]',-160.977,52.747,24.615,3.907,-122.686,6.642,20.317,16.020,-150.037,-30.085,28.132,-53.529,-128.938,2.344,33.211,-113.700,-17.973,10.549,-23.834,-104.322,23.834,21.880,33.211
'[01:44:45.270 07/11/2076]',-161.758,53.919,29.695,-1.172,-125.031,11.722,22.662,10.549,-146.129,-31.648,34.774,-67.595,-128.938,-3.516,35.165,-114.090,-16.801,7.424,-28.913,-100.415,19.927,16.410,35.165
'[01:44:45.273 07/11/2076]',-163.321,54.310,31.648,1.563,-125.812,17.192,19.927,13.284,-137.534,-32.039,22.662,-38.681,-123.468,-13.284,36.337,-86.740,-13.284,5.861,-30.867,-97.289,14.066,15.629,36.337
'[01:44:45.277 07/11/2076]',-162.930,55.873,33.993,5.079,-125.421,23.443,18.364,16.020,-127.766,-30.476,13.675,-39.463,-121.514,-14.847,36.337,-85.177,-10.159,4.689,-33.211,-97.289,12.112,15.629,36.337
'[01:44:45.281 07/11/2076]',-167.228,62.125,34.774,8.596,-127.375,26.960,21.490,17.192,-117.216,-25.788,6.252,-66.813,-125.031,-6.252,36.337,-109.792,-7.033,1.954,-33.993,-103.150,17.582,20.317,36.337
'[01:44:45.285 07/11/2076]',-171.136,64.860,33.602,12.894,-128.938,27.350,22.662,20.317,-104.322,-23.443,0.000,-46.105,-118.779,-3.516,35.946,-89.866,-2.344,0.391,-32.821,-107.057,21.880,26.178,35.946
'[01:44:45.289 07/11/2076]',-169.573,67.985,30.476,21.490,-126.984,24.615,22.662,29.304,-93.382,-21.490,-9.768,-25.006,-112.137,0.391,33.993,-74.237,0.781,-7.814,-29.695,-117.216,33.602,30.867,33.993
'[01:44:45.293 07/11/2076]',-164.493,67.595,34.774,17.192,-121.123,24.615,25.788,25.397,-79.707,-18.364,-1.563,-67.204,-101.978,3.907,33.993,-105.495,5.470,-8.205,-33.993,-112.527,40.244,27.741,33.993
'[01:44:45.297 07/11/2076]',-156.288,64.860,38.681,12.894,-110.965,26.569,23.053,22.271,-62.515,-17.192,-3.516,-101.197,-91.429,8.205,33.993,-137.924,8.596,-8.205,-37.900,-106.667,41.416,31.258,33.993
'[01:44:45.301 07/11/2076]',-141.050,56.654,39.072,19.145,-100.806,32.039,15.629,26.569,-50.403,-16.020,-1.172,-57.827,-68.767,-5.079,33.211,-85.958,15.629,-3.907,-38.291,-87.521,31.648,25.788,33.211
'[01:44:45.305 07/11/2076]',-128.547,49.231,39.072,20.317,-92.601,35.556,12.112,25.788,-41.026,-14.066,8.987,-41.416,-51.966,-13.675,32.821,-56.654,18.755,0.781,-38.291,-72.674,28.913,18.755,32.821
'[01:44:45.309 07/11/2076]',-124.640,50.794,32.039,19.145,-86.349,34.774,4.689,25.788,-32.039,-15.238,-3.907,-76.190,-54.310,-2.344,28.913,-101.978,15.238,-7.033,-31.258,-78.926,34.774,29.695,28.913
'[01:44:45.313 07/11/2076]',-121.905,50.403,22.271,21.099,-83.614,30.085,-1.563,28.132,-27.741,-14.457,-23.443,-87.521,-57.436,7.033,25.006,-130.501,16.410,-15.629,-21.490,-85.568,42.198,39.072,25.006
'[01:44:45.316 07/11/2076]',-113.700,40.244,16.410,21.099,-82.442,28.132,-1.563,21.490,-30.085,-13.284,-7.033,-73.065,-44.151,-5.861,25.397,-100.806,22.271,-12.894,-15.629,-69.548,43.761,25.397,25.397
'[01:44:45.320 07/11/2076]',-106.276,30.867,13.284,16.410,-79.316,26.960,-3.907,12.112,-31.648,-15.629,6.252,-78.535,-38.291,-12.503,25.788,-96.508,24.615,-14.847,-12.503,-57.045,46.496,18.755,25.788
'[01:44:45.324 07/11/2076]',-108.230,28.523,5.470,16.801,-81.270,24.225,-12.112,13.675,-29.695,-18.755,-14.066,-69.939,-42.589,-5.861,21.099,-107.839,24.225,-25.006,-4.689,-58.217,49.621,27.350,21.099
'[01:44:45.328 07/11/2076]',-109.792,24.225,0.000,16.410,-85.958,21.099,-17.582,14.847,-29.304,-24.225,-27.350,-65.641,-46.496,-3.516,18.364,-117.216,21.880,-26.569,0.781,-57.045,53.138,30.867,18.364
'[01:44:45.332 07/11/2076]',-110.183,23.053,-1.954,10.940,-87.912,21.490,-17.582,6.252,-33.211,-27.741,-14.457,-97.289,-51.184,-5.470,18.755,-138.315,16.410,-22.271,2.735,-49.621,58.999,20.708,18.755
'[01:44:45.336 07/11/2076]',-110.183,25.397,-7.424,5.861,-89.475,24.225,-19.145,0.000,-35.165,-31.258,-8.205,-101.978,-51.184,-9.377,19.536,-138.706,12.894,-22.662,8.205,-46.105,58.217,16.020,19.536
'[01:44:45.340 07/11/2076]',-105.885,13.675,-5.861,7.033,-92.210,25.397,-21.880,-0.781,-42.198,-33.602,-8.987,-66.813,-48.840,-17.582,17.582,-104.713,10.549,-18.755,6.642,-35.165,56.654,11.331,17.582
'[01:44:45.344 07/11/2076]',-102.369,5.470,-3.126,6.252,-92.601,25.397,-23.834,-1.954,-48.059,-36.728,-8.596,-72.283,-52.747,-17.973,15.629,-113.700,8.205,-16.410,3.907,-31.258,58.608,10.940,15.629
'[01:44:45.348 07/11/2076]',-101.197,5.079,-2.344,5.079,-91.429,22.271,-23.053,0.000,-50.012,-37.900,-11.331,-93.773,-59.780,-8.205,13.675,-141.441,5.079,-14.847,3.126,-35.165,61.734,16.410,13.675
'[01:44:45.352 07/11/2076]',-95.726,1.563,-1.954,6.642,-91.038,17.973,-19.927,4.298,-53.919,-41.416,-1.563,-57.045,-58.999,-9.377,13.284,-101.587,3.126,-8.596,2.735,-35.556,64.469,13.284,13.284
'[01:44:45.355 07/11/2076]',-91.819,1.954,-4.689,6.252,-89.866,17.582,-21.490,5.861,-55.092,-46.105,-11.331,-42.589,-63.687,-4.689,10.940,-99.634,-1.563,-5.861,5.470,-40.244,64.469,16.410,10.940
'[01:44:45.359 07/11/2076]',-91.038,8.205,-6.252,-2.735,-90.256,20.708,-20.317,-1.563,-52.747,-48.449,-7.424,-88.694,-70.720,0.781,10.940,-142.222,-7.814,-3.907,7.033,-42.589,61.734,14.457,10.940
'[01:44:45.363 07/11/2076]',-88.303,8.987,-9.768,-8.596,-89.866,23.053,-25.006,-5.861,-48.449,-55.873,-11.331,-113.700,-73.846,1.172,8.987,-168.791,-14.847,-1.563,10.549,-40.244,53.919,15.238,8.987
'[01:44:45.367 07/11/2076]',-80.488,3.126,-10.549,-8.596,-90.647,26.960,-25.397,-7.033,-49.231,-60.952,-5.470,-73.455,-63.687,-10.940,7.424,-123.468,-16.020,7.033,11.331,-26.960,46.105,7.033,7.424
'[01:44:45.371 07/11/2076]',-73.455,-3.126,-6.642,-9.768,-90.256,30.085,-23.834,-9.377,-48.449,-67.204,9.768,-58.217,-55.092,-20.317,6.642,-97.289,-19.145,16.410,7.424,-14.457,41.807,0.391,6.642
'[01:44:45.375 07/11/2076]',-73.455,-3.126,-7.033,-13.675,-90.256,27.350,-25.397,-9.377,-44.933,-75.018,-1.954,-84.396,-62.515,-9.377,1.563,-136.361,-27.350,12.894,7.814,-22.271,46.886,11.331,1.563
'[01:44:45.379 07/11/2076]',-70.720,-1.563,-9.768,-16.410,-88.303,25.788,-25.006,-10.940,-42.589,-78.535,-17.192,-94.945,-69.548,-1.563,-2.344,-161.368,-32.821,15.629,10.549,-33.602,51.575,19.536,-2.344
'[01:44:45.383 07/11/2076]',-61.343,-4.298,-9.768,-21.490,-84.396,27.741,-20.317,-20.317,-45.324,-79.316,0.000,-98.852,-62.515,-13.284,-1.563,-146.129,-30.476,22.662,10.549,-24.225,50.012,3.907,-1.563
'[01:44:45.387 07/11/2076]',-56.264,-4.298,-9.377,-27.741,-81.661,29.695,-16.410,-30.085,-50.012,-77.363,13.675,-108.620,-59.389,-20.317,-3.907,-140.269,-32.821,27.350,10.159,-21.880,51.966,-3.126,-3.907
'[01:44:45.391 07/11/2076]',-57.045,-1.563,-14.457,-27.350,-83.223,30.085,-18.755,-28.523,-55.092,-73.065,-5.079,-89.475,-64.078,-12.112,-11.331,-135.189,-34.383,25.397,15.238,-29.304,56.264,4.689,-11.331
'[01:44:45.395 07/11/2076]',-56.654,-7.033,-10.940,-29.695,-82.051,29.304,-19.145,-32.821,-60.171,-66.813,-14.847,-90.647,-67.595,-4.298,-17.192,-144.957,-34.774,25.006,11.722,-24.225,59.389,8.987,-17.192
'[01:44:45.398 07/11/2076]',-58.217,-10.549,-5.470,-35.556,-82.051,30.867,-17.192,-42.979,-67.595,-62.125,-2.344,-128.547,-71.893,1.563,-21.880,-169.573,-34.383,26.569,6.252,-17.582,60.952,7.814,-21.880
'[01:44:45.402 07/11/2076]',-56.264,-12.503,-5.079,-41.026,-78.535,30.867,-17.192,-50.794,-74.628,-57.436,1.954,-130.501,-75.018,5.079,-26.569,-164.493,-35.165,26.178,5.861,-14.847,60.952,7.033,-26.569
'[01:44:45.406 07/11/2076]',-52.357,-15.238,-5.470,-44.151,-75.018,29.304,-17.192,-54.701,-85.177,-51.966,1.172,-108.620,-77.753,4.689,-28.913,-142.613,-34.383,24.615,6.252,-14.457,60.171,3.516,-28.913
'[01:44:45.410 07/11/2076]',-49.231,-13.284,-7.814,-50.794,-72.674,28.913,-16.801,-60.952,-94.945,-44.151,3.907,-127.766,-83.614,8.205,-30.867,-157.851,-34.383,25.788,8.596,-19.927,61.343,1.563,-30.867
'[01:44:45.414 07/11/2076]',-48.840,-11.722,-10.940,-53.138,-72.674,24.225,-15.629,-60.562,-101.197,-36.728,2.344,-147.692,-91.429,17.973,-32.430,-178.559,-35.946,28.913,11.722,-30.085,66.422,3.907,-32.430
'[01:44:45.418 07/11/2076]',-46.105,-11.331,-7.424,-58.608,-72.283,23.053,-12.503,-62.906,-102.759,-27.350,-6.252,-119.560,-88.694,24.225,-33.211,-159.805,-33.993,31.648,8.205,-32.039,66.813,8.596,-33.211
'[01:44:45.422 07/11/2076]',-39.463,-9.768,-7.424,-64.860,-67.595,28.132,-11.722,-71.502,-97.680,-22.662,-3.126,-100.806,-79.707,22.271,-32.430,-136.361,-32.430,35.556,8.205,-26.960,59.389,5.079,-32.430
'[01:44:45.426 07/11/2076]',-34.774,-4.298,-10.940,-75.018,-63.297,33.602,-13.675,-83.223,-87.912,-22.271,-4.298,-146.129,-79.707,28.913,-34.383,-177.778,-34.774,30.476,11.722,-29.695,52.357,6.252,-34.383
'[01:44:45.430 07/11/2076]',-30.085,0.781,-13.675,-84.396,-57.436,37.900,-16.020,-91.819,-78.144,-22.662,-20.708,-170.745,-80.488,36.337,-39.072,-210.208,-34.383,23.443,14.457,-36.728,48.840,11.331,-39.072
'[01:44:45.434 07/11/2076]',-20.317,3.126,-18.364,-85.958,-52.747,44.933,-14.066,-100.024,-71.111,-21.099,-8.596,-134.017,-60.952,20.317,-38.291,-156.679,-25.397,24.615,19.145,-30.867,40.244,-2.344,-38.291
'[01:44:45.438 07/11/2076]',-10.549,0.391,-17.192,-88.303,-46.105,50.403,-14.457,-105.495,-60.171,-21.880,4.689,-123.077,-44.542,10.549,-37.900,-129.719,-17.192,23.443,17.973,-25.006,35.946,-12.112,-37.900
'[01:44:45.441 07/11/2076]',-5.470,0.391,-12.503,-90.647,-38.681,50.012,-16.020,-103.932,-45.714,-21.490,-17.192,-137.924,-43.761,23.443,-43.761,-159.414,-15.629,10.549,13.284,-33.211,38.681,-1.563,-43.761
'[01:44:45.445 07/11/2076]',-0.391,0.000,-10.940,-89.475,-30.476,48.059,-19.536,-100.024,-29.695,-21.880,-34.774,-140.659,-38.291,28.132,-45.714,-173.089,-13.675,2.735,11.722,-36.728,38.291,3.516,-45.714
'[01:44:45.449 07/11/2076]',7.814,-3.516,-10.159,-89.084,-21.099,47.668,-19.145,-101.978,-17.192,-24.225,-19.536,-149.646,-23.443,14.457,-42.979,-160.977,-11.331,2.735,10.940,-23.834,32.821,-10.940,-42.979
'[01:44:45.453 07/11/2076]',13.675,-4.298,-8.596,-90.647,-12.503,46.886,-18.364,-106.276,-5.861,-26.960,-14.066,-155.897,-13.675,7.033,-42.198,-156.288,-12.112,-2.344,9.377,-20.708,30.085,-16.410,-42.198
'[01:44:45.457 07/11/2076]',15.629,-3.516,-9.768,-86.349,-5.861,46.886,-21.880,-103.541,3.907,-30.085,-28.132,-128.547,-8.987,2.344,-41.416,-135.580,-10.940,-10.549,10.549,-25.006,27.741,-12.503,-41.416
'[01:44:45.461 07/11/2076]',18.364,-1.563,-11.331,-82.051,0.781,49.231,-23.443,-103.150,15.629,-35.165,-30.085,-124.640,-1.563,-4.689,-38.681,-128.938,-10.159,-12.503,12.112,-26.178,24.615,-14.066,-38.681
'[01:44:45.465 07/11/2076]',21.490,-1.563,-7.424,-79.316,8.987,46.496,-22.271,-101.587,23.053,-39.463,-27.350,-153.944,-1.172,-8.205,-37.118,-151.990,-11.331,-14.066,8.205,-28.523,23.053,-12.503,-37.118
'[01:44:45.469 07/11/2076]',21.490,-4.689,-2.735,-72.674,12.112,42.979,-21.490,-92.601,28.913,-42.198,-26.960,-141.832,1.954,-12.894,-34.383,-137.534,-14.457,-15.629,3.516,-30.085,25.006,-10.549,-34.383
'[01:44:45.473 07/11/2076]',19.145,-7.033,-0.781,-62.125,14.847,37.900,-21.490,-82.442,32.039,-44.151,-25.788,-118.779,8.596,-21.099,-33.602,-111.355,-16.020,-15.629,1.563,-27.741,28.523,-14.066,-33.602
'[01:44:45.477 07/11/2076]',15.629,-7.424,0.000,-52.357,16.801,29.304,-22.662,-69.939,32.430,-47.668,-39.463,-145.348,1.563,-19.145,-35.556,-147.302,-21.099,-19.536,0.781,-37.509,37.900,-12.112,-35.556
'[01:44:45.480 07/11/2076]',13.284,-4.298,3.126,-49.621,19.536,25.006,-16.801,-66.032,32.039,-45.714,-34.383,-166.447,-1.563,-16.801,-34.774,-161.758,-21.880,-18.755,-2.344,-43.370,44.933,-13.675,-34.774
'[01:44:45.484 07/11/2076]',18.364,-1.563,3.907,-45.324,28.523,28.913,-15.629,-65.641,32.430,-43.370,-27.741,-128.938,5.079,-26.178,-31.648,-115.263,-18.755,-13.675,-3.126,-40.244,36.728,-18.755,-31.648
'[01:44:45.488 07/11/2076]',26.960,-4.689,7.033,-38.291,37.900,31.258,-17.582,-61.734,28.913,-46.496,-15.629,-99.634,7.814,-39.853,-26.178,-73.455,-19.145,-10.159,-6.252,-30.476,23.443,-27.741,-26.178
'[01:44:45.492 07/11/2076]',28.523,-5.861,14.457,-39.072,45.714,29.304,-19.145,-57.827,27.350,-46.886,-11.722,-133.236,-2.735,-32.039,-21.099,-108.230,-22.662,-13.284,-13.675,-29.304,17.582,-24.225,-21.099
'[01:44:45.496 07/11/2076]',26.960,-5.470,15.629,-35.946,49.621,26.960,-23.443,-51.184,25.788,-45.714,-20.708,-146.129,-14.066,-21.099,-17.582,-133.236,-24.615,-16.020,-14.847,-34.383,13.675,-17.192,-17.582
'[01:44:45.500 07/11/2076]',32.039,-10.159,16.410,-29.695,52.747,22.271,-23.053,-43.761,18.755,-44.151,-2.344,-116.435,-8.205,-31.648,-11.331,-91.429,-23.443,-6.252,-15.629,-23.834,8.205,-29.304,-11.331
'[01:44:45.504 07/11/2076]',36.337,-15.629,17.582,-27.741,57.045,17.582,-23.053,-42.198,11.722,-42.589,15.238,-107.448,-6.252,-35.556,-7.814,-72.674,-23.053,-2.344,-16.801,-17.973,6.642,-36.728,-7.814
'[01:44:45.508 07/11/2076]',32.430,-16.410,11.722,-24.225,56.654,10.940,-26.178,-38.291,8.987,-39.853,0.781,-110.183,-17.582,-19.536,-10.549,-89.866,-23.834,-10.940,-10.940,-28.913,8.596,-23.834,-10.549
'[01:44:45.512 07/11/2076]',33.211,-21.880,7.424,-18.364,61.734,2.344,-30.476,-33.211,7.033,-35.556,-10.159,-106.667,-24.615,-11.722,-11.722,-96.899,-22.662,-16.020,-6.642,-33.211,8.205,-16.801,-11.722
'[01:44:45.516 07/11/2076]',37.900,-30.085,8.205,-15.238,67.204,-2.344,-28.523,-34.774,0.781,-31.258,11.722,-118.779,-23.834,-14.847,-7.424,-89.866,-17.192,-12.503,-7.424,-21.880,3.907,-26.569,-7.424
'[01:44:45.520 07/11/2076]',41.807,-34.383,9.768,-13.675,70.330,-5.079,-24.615,-36.728,-1.172,-26.960,26.960,-122.686,-23.834,-13.675,-3.907,-82.442,-14.457,-10.549,-8.987,-16.410,2.344,-31.648,-3.907
'[01:44:45.523 07/11/2076]',46.886,-38.681,6.252,-10.159,73.455,-6.252,-29.304,-31.258,-1.172,-24.615,17.582,-87.912,-21.490,-14.066,-5.079,-55.482,-11.722,-8.205,-5.470,-14.847,-3.907,-27.741,-5.079
'[01:44:45.527 07/11/2076]',49.621,-40.635,1.954,-10.159,73.455,-11.331,-32.039,-29.304,-0.391,-24.615,8.205,-85.958,-22.271,-12.894,-7.033,-60.171,-11.722,-9.377,-1.172,-16.801,-8.596,-23.053,-7.033
'[01:44:45.531 07/11/2076]',49.231,-39.072,-2.735,-13.284,72.674,-17.582,-31.648,-29.304,4.298,-28.523,2.344,-113.700,-28.523,-4.689,-12.503,-89.084,-11.331,-17.192,3.516,-23.053,-5.861,-18.364,-12.503
'[01:44:45.535 07/11/2076]',47.277,-40.244,-6.642,-16.801,71.893,-27.350,-32.430,-28.132,8.596,-30.867,-8.987,-98.852,-28.132,-2.735,-20.317,-78.144,-14.847,-25.788,7.424,-28.913,-3.126,-12.112,-20.317
'[01:44:45.539 07/11/2076]',44.542,-42.589,-12.112,-16.801,70.330,-39.463,-33.211,-24.225,10.940,-35.556,-23.443,-81.661,-30.085,-1.954,-28.132,-68.767,-19.536,-35.556,12.894,-33.602,0.391,-8.205,-28.132
'[01:44:45.543 07/11/2076]',41.807,-46.496,-6.642,-26.178,68.767,-45.714,-28.132,-31.648,11.722,-38.681,-14.847,-117.998,-32.430,-0.391,-33.993,-92.991,-21.490,-40.635,7.424,-29.304,7.814,-13.284,-33.993
'[01:44:45.547 07/11/2076]',39.072,-48.449,-2.735,-36.728,68.376,-46.105,-30.867,-39.853,13.675,-41.416,-19.536,-151.209,-35.946,2.735,-42.589,-122.295,-23.443,-47.277,3.516,-25.006,6.642,-12.112,-42.589
'[01:44:45.551 07/11/2076]',45.714,-55.092,-3.126,-38.291,71.502,-43.761,-36.337,-41.807,10.940,-45.714,-19.927,-104.322,-28.913,-12.112,-48.840,-67.985,-21.490,-53.919,3.907,-11.722,-7.424,-17.582,-48.840
'[01:44:45.555 07/11/2076]',50.403,-58.999,-1.563,-44.933,70.720,-41.026,-39.072,-44.933,6.252,-51.184,-8.205,-85.958,-26.569,-23.443,-52.357,-36.337,-21.880,-58.999,2.344,-2.735,-15.238,-26.960,-52.357
'[01:44:45.559 07/11/2076]',48.449,-54.310,-3.516,-53.919,66.422,-41.807,-42.198,-45.714,0.391,-57.436,-19.145,-122.295,-44.933,-8.205,-59.780,-84.396,-33.211,-68.376,4.298,-13.675,-16.020,-17.192,-59.780
'[01:44:45.563 07/11/2076]',46.105,-46.496,-6.642,-61.343,61.343,-42.589,-42.979,-44.542,-3.516,-60.171,-36.337,-137.143,-59.780,3.516,-64.078,-117.607,-42.589,-70.720,7.424,-23.053,-17.973,-9.377,-64.078
'[01:44:45.566 07/11/2076]',51.575,-46.886,-7.424,-67.595,55.873,-40.635,-36.728,-48.449,-16.801,-60.952,-17.582,-123.077,-58.999,-5.079,-64.860,-89.084,-43.370,-60.171,8.205,-8.987,-25.006,-23.443,-64.860
'[01:44:45.570 07/11/2076]',55.873,-46.496,-9.377,-75.800,51.966,-36.337,-33.993,-57.045,-28.523,-60.171,-0.781,-130.110,-62.125,-6.642,-68.767,-82.051,-41.807,-56.654,10.159,-0.391,-28.132,-33.993,-68.767
'[01:44:45.574 07/11/2076]',57.045,-46.496,-16.020,-79.316,49.621,-34.774,-41.807,-57.436,-35.946,-57.045,-22.271,-124.640,-74.237,4.298,-78.535,-91.819,-39.853,-66.813,16.801,-4.298,-30.867,-26.960,-78.535
'[01:44:45.578 07/11/2076]',58.999,-51.575,-22.271,-80.098,44.933,-37.900,-46.105,-55.482,-45.714,-55.873,-34.383,-123.858,-82.442,7.033,-85.958,-97.680,-40.244,-70.330,23.053,-8.205,-30.867,-25.006,-85.958
'[01:44:45.582 07/11/2076]',60.562,-53.138,-28.913,-86.349,37.900,-38.291,-45.324,-62.125,-54.310,-53.529,-19.145,-156.288,-86.349,5.861,-91.038,-111.355,-42.589,-64.469,29.695,-13.284,-23.443,-37.118,-91.038
'[01:44:45.586 07/11/2076]',64.469,-51.184,-37.118,-92.210,35.165,-34.774,-46.496,-69.158,-58.217,-51.575,-10.940,-166.056,-87.521,5.079,-91.429,-112.918,-44.542,-64.078,37.900,-25.397,-21.099,-41.026,-91.429
'[01:44:45.590 07/11/2076]',68.767,-53.919,-42.198,-91.429,31.258,-31.648,-48.840,-69.548,-60.562,-51.184,-14.066,-131.673,-84.786,-1.172,-91.819,-78.926,-42.979,-61.734,42.979,-29.304,-25.006,-43.761,-91.819
'[01:44:45.594 07/11/2076]',72.283,-51.575,-50.794,-90.256,28.132,-28.913,-49.621,-70.330,-58.999,-52.357,-16.020,-134.799,-85.958,-1.563,-91.819,-82.833,-38.291,-62.515,51.575,-38.291,-28.132,-44.933,-91.819
'[01:44:45.598 07/11/2076]',73.065,-51.966,-50.012,-91.429,28.523,-27.741,-50.403,-69.939,-54.701,-50.403,-20.708,-157.070,-90.647,3.907,-90.256,-106.276,-30.867,-67.204,50.794,-39.853,-34.774,-42.589,-90.256
'[01:44:45.602 07/11/2076]',74.237,-60.562,-42.979,-84.786,28.523,-29.304,-48.449,-64.078,-50.012,-47.668,-20.708,-117.998,-82.442,-1.954,-89.475,-61.734,-25.397,-66.813,43.761,-28.913,-42.198,-43.761,-89.475
'[01:44:45.605 07/11/2076]',73.455,-61.734,-39.853,-80.879,29.304,-30.085,-47.277,-61.343,-42.198,-46.496,-27.741,-108.620,-76.581,-5.079,-88.694,-53.919,-25.788,-63.687,40.635,-23.443,-48.840,-42.979,-88.694
'[01:44:45.609 07/11/2076]',73.455,-57.045,-37.900,-86.349,35.556,-26.178,-44.933,-72.283,-28.132,-43.761,-26.569,-158.632,-72.674,-4.689,-86.349,-93.773,-25.788,-62.906,38.681,-17.192,-59.780,-40.244,-86.349
'[01:44:45.613 07/11/2076]',73.455,-54.310,-41.807,-83.223,42.589,-22.662,-48.840,-76.972,-15.238,-44.933,-33.211,-185.201,-68.376,-9.377,-84.786,-115.263,-26.178,-65.250,42.589,-14.066,-71.502,-36.728,-84.786
'[01:44:45.617 07/11/2076]',75.800,-57.045,-48.840,-75.018,46.886,-20.317,-50.794,-80.879,-4.298,-48.840,-29.695,-142.222,-52.357,-28.523,-82.442,-61.343,-21.099,-61.343,49.621,-3.126,-83.614,-42.198,-82.442
'[01:44:45.621 07/11/2076]',76.581,-60.171,-53.138,-69.158,51.966,-19.927,-51.966,-84.786,3.516,-55.092,-17.973,-126.593,-41.807,-45.714,-79.707,-28.523,-17.973,-64.860,53.919,7.033,-91.819,-49.621,-79.707
'[01:44:45.625 07/11/2076]',69.158,-60.562,-57.827,-66.032,51.966,-24.225,-59.389,-83.223,12.503,-61.734,-35.946,-148.083,-49.231,-41.807,-83.223,-58.608,-25.788,-80.488,58.608,-3.907,-85.568,-40.244,-83.223
'[01:44:45.629 07/11/2076]',61.734,-62.515,-62.906,-60.562,51.184,-32.821,-62.515,-79.707,18.364,-67.204,-58.999,-153.944,-56.654,-42.198,-86.740,-75.018,-37.900,-86.740,63.687,-14.457,-79.316,-32.821,-86.740
'[01:44:45.633 07/11/2076]',61.343,-66.813,-61.734,-58.217,53.529,-35.946,-60.952,-81.661,19.536,-70.330,-44.933,-150.427,-49.621,-61.734,-84.396,-50.403,-44.542,-84.396,62.515,-3.516,-82.051,-45.324,-84.396
'[01:44:45.637 07/11/2076]',61.734,-68.767,-62.906,-56.264,58.608,-38.681,-61.343,-85.177,22.271,-76.190,-34.383,-152.772,-46.886,-77.753,-81.661,-33.602,-51.184,-87.131,63.687,-2.735,-81.270,-54.310,-81.661
'[01:44:45.641 07/11/2076]',56.264,-66.813,-73.065,-48.059,60.562,-44.542,-69.939,-78.535,23.053,-78.144,-55.092,-133.626,-54.310,-78.144,-83.223,-27.741,-57.436,-95.726,73.846,-12.894,-80.098,-47.277,-83.223
'[01:44:45.645 07/11/2076]',51.184,-65.641,-80.879,-44.542,63.687,-50.794,-75.800,-76.581,22.271,-80.488,-66.813,-135.971,-61.343,-77.363,-84.396,-35.946,-61.734,-102.759,81.661,-17.192,-78.926,-42.589,-84.396
'[01:44:45.648 07/11/2076]',47.277,-63.297,-86.740,-48.059,65.641,-54.310,-78.926,-82.833,18.364,-82.833,-53.529,-175.043,-69.939,-79.707,-83.223,-58.608,-68.376,-108.230,87.521,-17.973,-76.972,-45.714,-83.223
'[01:44:45.652 07/11/2076]',42.198,-63.687,-95.726,-48.840,62.906,-61.343,-83.223,-84.396,8.596,-80.879,-50.403,-175.824,-78.535,-82.833,-83.223,-51.966,-79.316,-112.527,96.508,-18.755,-75.018,-48.449,-83.223
'[01:44:45.656 07/11/2076]',40.244,-73.846,-96.899,-48.449,60.952,-69.158,-87.912,-82.442,-3.516,-80.488,-50.794,-150.427,-85.177,-87.521,-84.005,-27.350,-88.694,-113.700,97.680,-10.549,-73.846,-50.403,-84.005
'[01:44:45.660 07/11/2076]',37.118,-80.098,-97.680,-53.138,58.608,-76.972,-90.647,-85.177,-18.364,-78.535,-48.059,-165.275,-96.117,-87.131,-83.614,-41.807,-94.554,-115.653,98.462,-7.424,-69.548,-53.138,-83.614
'[01:44:45.664 07/11/2076]',32.821,-82.051,-104.713,-53.919,56.264,-89.084,-93.382,-82.051,-35.165,-74.628,-48.449,-177.778,-109.011,-81.270,-84.396,-60.952,-96.899,-116.435,105.495,-12.894,-63.687,-54.701,-84.396
'[01:44:45.668 07/11/2076]',31.258,-81.661,-107.839,-60.562,56.264,-94.945,-95.336,-84.786,-47.668,-68.767,-53.919,-155.507,-114.872,-71.893,-85.177,-52.747,-96.117,-117.607,108.620,-18.755,-60.952,-47.668,-85.177
'[01:44:45.672 07/11/2076]',35.946,-82.051,-110.965,-68.767,60.171,-95.336,-99.634,-91.038,-58.217,-64.469,-45.324,-143.394,-113.700,-71.893,-87.521,-36.337,-96.117,-116.825,111.746,-15.629,-66.032,-49.231,-87.521
'[01:44:45.676 07/11/2076]',35.946,-78.535,-114.481,-79.316,61.343,-97.680,-103.932,-96.117,-63.297,-62.515,-41.807,-189.499,-119.170,-65.250,-91.038,-80.879,-100.806,-120.733,115.263,-18.364,-70.720,-44.542,-91.038
'[01:44:45.680 07/11/2076]',37.118,-76.190,-118.779,-86.349,61.343,-100.415,-106.276,-98.071,-65.641,-57.436,-53.529,-215.678,-123.077,-55.092,-96.508,-117.998,-103.150,-123.077,119.560,-24.225,-70.330,-37.900,-96.508
'[01:44:45.684 07/11/2076]',46.105,-80.488,-119.170,-89.084,61.343,-100.024,-103.150,-101.197,-71.893,-53.529,-39.463,-178.168,-106.667,-68.376,-97.680,-69.548,-96.508,-114.090,119.951,-10.940,-75.800,-49.621,-97.680
'[01:44:45.688 07/11/2076]',50.012,-82.051,-117.216,-95.336,59.780,-99.634,-100.806,-104.322,-73.846,-51.575,-26.569,-162.149,-92.210,-77.363,-99.243,-45.324,-87.131,-113.309,117.998,-3.516,-77.363,-58.217,-99.243
'[01:44:45.691 07/11/2076]',50.794,-73.846,-119.951,-102.759,60.171,-100.024,-101.978,-103.932,-69.939,-48.059,-46.886,-179.341,-93.382,-61.343,-103.150,-86.349,-84.396,-124.249,120.733,-18.364,-73.846,-42.198,-103.150
'[01:44:45.695 07/11/2076]',53.529,-64.078,-121.514,-109.792,62.515,-96.899,-100.806,-107.057,-64.469,-42.198,-62.125,-185.983,-89.866,-51.184,-103.541,-109.011,-78.535,-126.984,122.295,-32.039,-73.455,-30.085,-103.541
'[01:44:45.699 07/11/2076]',63.297,-58.999,-119.170,-117.607,67.204,-90.256,-95.336,-113.309,-58.608,-35.946,-44.542,-196.532,-72.283,-57.436,-101.978,-103.541,-69.939,-120.342,119.951,-25.788,-78.535,-37.118,-101.978
'[01:44:45.703 07/11/2076]',73.846,-51.575,-118.388,-124.640,73.065,-84.786,-88.303,-120.733,-49.621,-29.695,-34.383,-203.956,-56.654,-57.436,-100.024,-103.150,-66.422,-115.653,119.170,-30.085,-78.926,-36.728,-100.024
'[01:44:45.707 07/11/2076]',80.488,-46.105,-117.998,-126.203,76.972,-78.535,-86.740,-120.342,-41.026,-23.443,-47.277,-175.433,-46.496,-51.184,-103.150,-86.349,-63.687,-114.090,118.779,-38.291,-75.018,-27.350,-103.150
'[01:44:45.711 07/11/2076]',90.647,-49.621,-110.574,-130.110,83.223,-73.455,-87.131,-122.295,-29.695,-21.880,-52.747,-173.480,-34.774,-49.231,-106.667,-87.912,-60.171,-111.746,111.355,-33.993,-72.283,-24.615,-106.667
'[01:44:45.715 07/11/2076]',94.945,-51.184,-106.276,-133.626,87.131,-69.548,-86.740,-125.812,-18.364,-23.053,-53.138,-210.208,-27.350,-45.324,-110.965,-120.733,-58.217,-116.044,107.057,-32.039,-67.595,-19.927,-110.965
'[01:44:45.719 07/11/2076]',99.243,-47.668,-105.885,-134.799,91.429,-66.032,-86.740,-126.593,-7.814,-21.099,-59.389,-203.565,-17.192,-43.761,-114.872,-115.653,-55.092,-121.905,106.667,-35.165,-62.125,-13.284,-114.872
'[01:44:45.723 07/11/2076]',103.150,-47.277,-106.667,-135.189,91.819,-62.515,-86.349,-128.547,0.391,-18.364,-65.641,-188.327,-3.907,-48.059,-119.560,-100.806,-51.184,-123.468,107.448,-35.165,-55.482,-11.331,-119.560
'[01:44:45.727 07/11/2076]',100.415,-40.635,-107.839,-135.580,88.694,-62.125,-83.223,-127.375,8.987,-13.675,-86.349,-224.274,-0.391,-36.728,-124.640,-152.381,-52.357,-126.203,108.620,-48.059,-40.635,-0.781,-124.640
'[01:44:45.730 07/11/2076]',100.806,-33.211,-105.885,-139.096,88.303,-58.999,-75.800,-130.891,16.020,-8.596,-80.488,-238.730,7.424,-30.867,-126.203,-162.149,-51.184,-123.077,106.667,-52.747,-29.304,1.563,-126.203
'[01:44:45.734 07/11/2076]',105.495,-32.430,-100.024,-141.441,90.647,-54.310,-71.502,-133.236,19.927,-4.689,-75.800,-203.565,19.927,-33.211,-125.812,-125.031,-49.231,-115.263,100.806,-44.542,-27.741,1.172,-125.812
'[01:44:45.738 07/11/2076]',111.355,-36.337,-95.726,-136.752,92.210,-46.496,-73.065,-130.110,21.099,-5.470,-67.595,-174.261,29.695,-41.026,-124.640,-89.475,-48.059,-111.355,96.508,-29.695,-33.993,-1.954,-124.640
'[01:44:45.742 07/11/2076]',111.355,-29.695,-96.899,-137.534,91.429,-41.807,-72.674,-129.328,22.271,-3.907,-67.985,-208.645,23.443,-30.476,-125.812,-125.421,-48.059,-117.216,97.680,-32.430,-29.695,2.344,-125.812
'[01:44:45.746 07/11/2076]',111.746,-22.662,-100.806,-137.534,91.038,-38.291,-76.190,-125.812,22.271,-2.735,-82.833,-220.757,16.020,-19.927,-128.547,-151.600,-49.621,-119.170,101.587,-41.026,-25.397,11.722,-128.547
'[01:44:45.750 07/11/2076]',116.825,-23.053,-103.932,-131.282,86.740,-32.430,-73.455,-122.686,17.192,0.781,-72.283,-197.314,25.788,-30.867,-127.766,-117.607,-44.542,-109.792,104.713,-32.821,-25.006,1.954,-127.766
'[01:44:45.754 07/11/2076]',119.951,-21.099,-104.713,-129.719,83.614,-28.132,-68.767,-122.295,13.675,5.079,-59.389,-190.672,33.211,-35.165,-127.375,-100.806,-41.807,-100.415,105.495,-30.085,-18.755,-5.861,-127.375
'[01:44:45.758 07/11/2076]',115.653,-18.364,-102.759,-130.110,78.926,-24.615,-70.330,-119.170,14.847,8.987,-75.018,-194.579,26.960,-19.927,-130.110,-121.514,-42.589,-102.759,103.541,-35.946,-14.457,5.861,-130.110
'[01:44:45.762 07/11/2076]',112.918,-23.443,-96.117,-125.421,74.628,-23.053,-70.720,-112.918,14.066,13.284,-86.740,-193.797,23.443,-11.722,-128.547,-134.799,-39.463,-101.978,96.899,-36.728,-14.066,13.675,-128.547
'[01:44:45.766 07/11/2076]',116.044,-26.960,-90.256,-124.640,73.065,-15.629,-66.422,-116.435,12.894,19.536,-66.813,-207.863,26.960,-13.284,-121.905,-133.236,-29.695,-92.991,91.038,-25.788,-13.675,1.954,-121.905
'[01:44:45.770 07/11/2076]',118.388,-23.443,-87.131,-126.593,73.065,-8.596,-62.125,-120.733,13.675,26.178,-55.092,-206.300,30.867,-9.768,-118.388,-122.686,-21.880,-92.210,87.912,-23.834,-14.847,-0.391,-118.388
'[01:44:45.773 07/11/2076]',125.031,-22.662,-91.429,-121.905,75.018,-1.954,-66.032,-118.388,17.192,31.258,-65.641,-173.089,37.900,-10.159,-117.998,-99.634,-13.284,-92.601,92.210,-25.397,-16.801,2.344,-117.998
'[01:44:45.777 07/11/2076]',130.110,-20.317,-96.117,-119.560,75.409,4.298,-67.204,-119.170,22.662,35.556,-73.065,-182.076,45.324,-5.470,-119.170,-115.653,-5.470,-91.819,96.899,-28.523,-14.457,5.861,-119.170
'[01:44:45.781 07/11/2076]',128.547,-16.801,-95.336,-118.779,73.455,6.252,-64.860,-117.607,29.695,39.072,-74.237,-214.896,48.449,3.516,-122.295,-148.864,-1.563,-93.382,96.117,-31.648,-9.768,9.768,-122.295
'[01:44:45.785 07/11/2076]',132.063,-19.927,-89.475,-117.998,73.846,8.987,-62.515,-116.044,37.509,41.416,-77.753,-184.029,57.436,6.642,-121.905,-124.249,3.907,-94.554,90.256,-33.211,-3.907,14.457,-121.905
'[01:44:45.789 07/11/2076]',128.938,-19.927,-84.396,-112.137,69.939,9.377,-58.608,-110.183,44.933,42.979,-80.879,-159.805,66.032,10.159,-119.951,-107.057,7.814,-95.726,85.177,-39.853,3.126,19.536,-119.951
'[01:44:45.793 07/11/2076]',126.593,-14.457,-77.753,-116.044,66.813,13.675,-49.621,-114.090,52.357,47.668,-67.595,-192.234,70.330,14.457,-112.918,-130.110,14.847,-90.256,78.535,-40.635,5.861,16.801,-112.918
'[01:44:45.797 07/11/2076]',129.328,-10.159,-75.800,-120.342,69.939,20.708,-47.277,-121.514,64.860,50.403,-67.595,-186.374,76.972,17.192,-109.011,-123.077,19.536,-86.740,76.581,-41.416,2.735,18.755,-109.011
'[01:44:45.801 07/11/2076]',135.580,-7.814,-80.098,-114.481,73.455,26.178,-46.886,-121.123,73.846,49.621,-63.687,-164.884,94.164,5.079,-106.667,-96.117,26.178,-80.098,80.879,-36.337,-5.470,16.410,-106.667
'[01:44:45.805 07/11/2076]',140.269,-14.066,-73.065,-112.137,76.581,30.476,-45.324,-121.514,80.488,46.496,-53.919,-146.520,109.402,-5.861,-106.276,-68.767,28.913,-74.628,73.846,-22.662,-9.768,10.940,-106.276
'[01:44:45.809 07/11/2076]',137.534,-15.238,-67.985,-114.090,79.316,31.648,-48.840,-122.295,91.038,38.291,-66.032,-178.559,107.057,3.516,-112.137,-111.746,22.271,-81.270,68.767,-26.960,-0.781,21.490,-112.137
'[01:44:45.813 07/11/2076]',133.626,-12.894,-66.422,-114.481,78.926,28.913,-51.966,-117.216,99.243,30.867,-84.786,-171.136,105.495,12.894,-119.560,-122.686,16.410,-85.958,67.204,-37.900,8.596,34.383,-119.560
'[01:44:45.816 07/11/2076]',133.626,-14.066,-63.297,-113.309,77.363,27.741,-47.277,-116.044,98.462,25.788,-69.158,-180.513,117.998,-1.563,-122.295,-118.388,12.503,-75.800,64.078,-28.523,14.066,23.053,-122.295
'[01:44:45.820 07/11/2076]',130.110,-13.675,-60.171,-117.216,73.455,28.523,-43.761,-120.342,97.289,18.755,-56.654,-175.043,122.686,-11.722,-123.468,-101.587,5.079,-68.767,60.952,-23.053,19.927,16.020,-123.468
'[01:44:45.824 07/11/2076]',119.951,-9.768,-62.906,-113.309,63.687,26.960,-46.496,-111.746,95.726,12.112,-75.800,-167.228,117.216,-7.033,-130.891,-112.918,-3.907,-71.111,63.687,-31.648,27.741,25.397,-130.891
'[01:44:45.828 07/11/2076]',112.527,-10.159,-64.860,-108.230,56.654,21.099,-46.105,-103.150,89.866,4.689,-87.912,-185.592,111.355,-8.596,-134.017,-146.129,-14.457,-67.985,65.641,-37.118,35.165,29.695,-134.017
'[01:44:45.832 07/11/2076]',104.713,-12.503,-59.780,-107.839,46.886,19.536,-38.681,-104.713,78.926,-1.172,-69.939,-214.505,107.839,-17.973,-133.626,-162.930,-22.271,-58.999,60.562,-28.132,41.026,18.364,-133.626
'[01:44:45.836 07/11/2076]',97.680,-12.894,-57.827,-106.667,38.291,17.582,-36.337,-100.806,70.720,-10.549,-59.780,-193.016,105.104,-23.053,-135.580,-138.315,-30.085,-58.608,58.608,-24.225,44.933,13.284,-135.580
'[01:44:45.840 07/11/2076]',92.210,-18.364,-55.092,-99.243,29.304,13.284,-35.165,-89.475,57.827,-17.582,-62.515,-149.255,101.978,-33.211,-138.315,-101.978,-38.291,-56.264,55.873,-20.708,44.933,11.331,-138.315
'[01:44:45.844 07/11/2076]',82.051,-26.569,-45.714,-94.164,17.973,6.642,-30.867,-80.879,44.151,-22.662,-63.297,-161.758,92.210,-35.165,-140.269,-119.560,-46.105,-53.138,46.496,-15.629,53.529,7.814,-140.269
'[01:44:45.848 07/11/2076]',67.595,-29.304,-38.681,-89.475,5.470,1.563,-27.350,-70.330,34.774,-27.350,-65.250,-144.567,79.316,-29.695,-139.487,-111.355,-51.184,-53.138,39.463,-16.410,62.515,8.987,-139.487
'[01:44:45.852 07/11/2076]',56.654,-34.383,-33.602,-78.144,-6.642,-6.642,-20.708,-55.482,23.834,-29.695,-58.608,-122.686,76.972,-33.602,-136.752,-93.382,-54.701,-51.184,34.383,-15.629,69.939,6.252,-136.752
'[01:44:45.855 07/11/2076]',44.933,-36.728,-30.476,-70.720,-17.192,-12.503,-16.020,-46.496,14.457,-32.039,-58.217,-106.276,72.674,-33.211,-133.236,-87.521,-55.482,-50.794,31.258,-15.629,76.190,4.298,-133.236
'[01:44:45.859 07/11/2076]',34.383,-33.211,-30.476,-70.720,-24.615,-13.284,-14.847,-46.105,11.722,-36.337,-49.621,-144.957,65.250,-28.132,-130.891,-125.421,-59.780,-53.138,31.258,-12.503,73.846,1.172,-130.891
'[01:44:45.863 07/11/2076]',25.397,-32.039,-32.430,-63.687,-28.523,-16.801,-18.364,-37.118,8.987,-39.072,-50.794,-119.170,59.780,-26.569,-130.501,-102.759,-65.250,-54.701,33.211,-11.331,68.376,0.781,-130.501
'[01:44:45.867 07/11/2076]',21.880,-37.900,-31.648,-51.184,-32.430,-18.755,-17.973,-28.913,4.298,-39.072,-43.370,-111.746,66.813,-38.681,-127.375,-90.647,-66.422,-46.105,32.430,0.781,57.827,-7.814,-127.375
'[01:44:45.871 07/11/2076]',16.410,-44.933,-25.788,-39.853,-35.946,-17.973,-16.801,-23.053,0.391,-38.291,-26.178,-88.303,73.455,-48.449,-122.686,-54.701,-65.250,-40.635,26.569,14.847,53.529,-17.973,-122.686
'[01:44:45.875 07/11/2076]',3.907,-44.933,-19.927,-31.258,-40.635,-19.145,-16.410,-15.629,2.344,-35.165,-35.165,-107.057,65.641,-35.556,-119.951,-85.177,-64.078,-48.059,20.708,8.205,60.171,-9.768,-119.951
'[01:44:45.879 07/11/2076]',-5.079,-41.416,-16.801,-21.880,-46.105,-17.582,-11.331,-11.331,5.470,-31.258,-44.542,-102.759,62.515,-24.225,-116.825,-94.164,-57.827,-48.840,17.582,-1.172,69.158,-0.391,-116.825
'[01:44:45.883 07/11/2076]',-9.377,-41.416,-10.159,-15.629,-49.621,-10.159,-2.344,-15.238,5.470,-26.569,-18.755,-121.123,74.237,-31.258,-109.792,-92.991,-44.933,-38.291,10.940,10.940,73.065,-15.238,-109.792
'[01:44:45.887 07/11/2076]',-13.675,-38.681,-2.735,-13.284,-50.403,-3.516,5.079,-20.708,9.377,-24.615,0.781,-110.574,85.177,-35.165,-105.495,-67.985,-38.681,-30.085,3.516,16.410,80.879,-22.662,-105.495
'[01:44:45.891 07/11/2076]',-24.225,-32.039,-2.735,-5.079,-56.264,-1.172,6.252,-14.457,13.284,-23.834,-14.847,-92.991,84.786,-28.132,-107.057,-67.204,-37.900,-25.788,3.516,6.252,90.647,-14.847,-107.057
'[01:44:45.895 07/11/2076]',-33.602,-31.648,2.735,1.172,-60.562,0.391,9.377,-10.549,16.410,-24.615,-18.755,-111.355,87.912,-29.304,-105.495,-91.429,-36.728,-18.364,-1.954,7.814,97.680,-14.847,-105.495
'[01:44:45.898 07/11/2076]',-38.681,-33.211,14.066,3.516,-61.734,4.298,14.847,-11.331,17.973,-25.006,-0.781,-139.878,93.773,-34.774,-100.415,-105.495,-34.383,-11.331,-13.284,17.973,105.495,-21.880,-100.415
'[01:44:45.902 07/11/2076]',-41.807,-32.821,22.662,8.987,-64.078,10.549,18.364,-8.205,20.708,-26.569,6.252,-113.309,101.587,-38.291,-98.462,-77.753,-30.476,-6.252,-21.880,20.708,115.653,-24.225,-98.462
'[01:44:45.906 07/11/2076]',-44.933,-32.430,30.085,17.192,-66.422,17.192,21.490,-1.954,22.662,-26.960,8.987,-80.488,113.309,-43.370,-94.554,-49.621,-23.443,-1.563,-29.304,24.225,125.812,-25.788,-94.554
'[01:44:45.910 07/11/2076]',-46.886,-28.132,35.556,21.490,-65.641,23.053,25.788,-1.954,25.397,-26.178,12.503,-101.197,119.560,-41.416,-92.991,-73.455,-15.238,1.172,-34.774,23.053,139.487,-26.178,-92.991
'[01:44:45.914 07/11/2076]',-53.529,-22.271,38.681,28.523,-66.422,24.615,30.476,1.954,28.523,-25.006,8.205,-94.945,123.077,-36.337,-93.773,-75.018,-9.377,5.861,-37.900,14.066,160.195,-23.053,-93.773
'[01:44:45.918 07/11/2076]',-56.264,-16.801,43.761,32.430,-64.469,27.350,36.728,2.344,33.211,-23.834,3.516,-77.363,129.328,-35.165,-91.819,-66.032,-6.642,9.768,-42.979,8.987,172.308,-18.364,-91.819
'[01:44:45.922 07/11/2076]',-55.092,-16.801,49.231,35.946,-60.171,34.774,36.728,0.391,36.728,-27.350,9.377,-58.608,138.706,-45.324,-91.819,-40.244,-7.424,17.192,-48.449,16.020,175.433,-21.490,-91.819
'[01:44:45.926 07/11/2076]',-57.827,-15.238,52.747,37.900,-59.780,41.026,36.337,-0.391,39.853,-31.258,8.596,-92.601,135.189,-44.933,-93.382,-71.111,-14.457,19.145,-51.966,16.801,182.857,-21.490,-93.382
'[01:44:45.930 07/11/2076]',-62.125,-9.768,51.575,39.463,-60.562,45.714,33.602,0.000,44.933,-35.946,-3.516,-83.614,131.282,-42.198,-95.726,-70.720,-19.927,18.755,-50.794,10.940,189.499,-15.629,-95.726
'[01:44:45.934 07/11/2076]',-63.297,-11.331,50.012,45.714,-64.469,51.575,33.211,0.000,42.198,-37.118,7.424,-79.707,142.613,-60.171,-94.164,-54.310,-14.847,25.788,-49.231,23.053,187.546,-26.569,-94.164
'[01:44:45.938 07/11/2076]',-63.687,-12.894,48.840,51.966,-66.422,55.873,33.211,0.391,39.072,-37.900,17.973,-64.469,146.911,-72.283,-91.429,-28.523,-9.768,25.788,-48.059,30.085,190.672,-35.165,-91.429
'[01:44:45.941 07/11/2076]',-70.720,-6.642,44.151,55.092,-69.939,58.999,28.913,3.126,40.244,-36.728,-0.391,-84.396,135.971,-61.343,-89.866,-66.032,-8.596,14.066,-43.370,16.020,198.877,-21.880,-89.866
'[01:44:45.945 07/11/2076]',-74.628,-11.331,49.621,60.171,-71.502,61.734,23.834,8.596,40.244,-33.211,-14.457,-95.336,127.375,-53.919,-86.349,-90.256,-3.516,9.377,-48.840,14.457,203.565,-12.112,-86.349
'[01:44:45.949 07/11/2076]',-71.111,-18.755,55.482,65.250,-71.111,67.985,24.225,8.596,35.165,-28.913,3.907,-98.852,131.282,-62.515,-79.316,-77.753,2.735,15.629,-54.701,29.695,204.347,-23.053,-79.316
'[01:44:45.953 07/11/2076]',-71.111,-19.927,60.952,66.813,-71.502,72.283,25.788,8.987,35.165,-26.569,14.457,-90.647,132.063,-62.515,-74.628,-61.734,9.768,15.238,-60.171,34.383,208.254,-24.225,-74.628
'[01:44:45.957 07/11/2076]',-69.939,-22.271,61.734,71.111,-71.502,74.628,22.271,13.675,38.291,-25.006,1.954,-63.297,129.719,-56.654,-71.893,-48.449,13.675,12.894,-60.952,33.211,209.426,-15.238,-71.893
'[01:44:45.961 07/11/2076]',-69.158,-21.490,59.389,73.065,-71.502,76.581,20.708,14.457,41.026,-24.615,-3.126,-69.939,126.593,-53.919,-66.813,-61.343,17.192,12.112,-58.608,34.774,207.082,-12.894,-66.813
'[01:44:45.965 07/11/2076]',-70.330,-19.536,55.873,73.065,-70.720,74.628,20.708,12.894,45.714,-25.397,-2.344,-103.932,117.607,-46.886,-62.515,-93.382,17.582,10.159,-55.092,33.602,203.956,-8.596,-62.515
'[01:44:45.969 07/11/2076]',-73.455,-23.443,54.701,73.846,-75.018,72.674,18.755,13.675,49.231,-23.834,-4.298,-83.614,112.527,-39.853,-56.264,-78.926,19.145,9.768,-53.919,32.039,206.300,-5.470,-56.264
'[01:44:45.973 07/11/2076]',-73.846,-26.960,55.092,76.190,-76.581,71.893,16.801,16.410,50.012,-20.708,-3.907,-60.171,111.746,-36.728,-50.012,-58.999,23.053,8.987,-54.310,35.165,205.519,-4.689,-50.012
'[01:44:45.977 07/11/2076]',-80.879,-25.788,55.092,78.926,-80.098,66.422,14.066,26.178,50.794,-18.364,-17.582,-87.521,100.806,-21.880,-48.059,-103.150,24.225,6.642,-54.310,26.960,213.724,2.735,-48.059
'[01:44:45.980 07/11/2076]',-85.177,-23.053,59.389,73.455,-82.833,65.250,15.238,25.006,53.529,-17.192,-10.549,-82.833,98.462,-16.020,-41.416,-96.508,28.132,6.252,-58.608,24.615,219.194,2.344,-41.416
'[01:44:45.984 07/11/2076]',-82.442,-20.708,61.734,69.158,-79.316,67.985,14.457,23.053,57.436,-17.582,-3.907,-64.078,105.885,-21.490,-33.211,-79.316,32.039,9.768,-60.952,30.085,210.989,0.781,-33.211
'[01:44:45.988 07/11/2076]',-78.926,-19.536,60.171,70.330,-75.409,68.767,10.549,25.788,58.999,-24.225,4.689,-38.291,110.183,-32.430,-25.397,-50.012,29.695,11.331,-59.389,37.509,198.095,-3.907,-25.397
'[01:44:45.992 07/11/2076]',-81.661,-16.020,60.562,64.078,-75.018,66.422,10.159,23.834,64.078,-30.476,7.033,-73.455,100.806,-25.788,-16.410,-90.256,23.834,6.252,-59.780,32.430,194.969,-1.563,-16.410
'[01:44:45.996 07/11/2076]',-84.786,-12.503,57.827,61.343,-74.237,62.125,7.424,25.397,68.767,-33.211,-3.907,-77.363,89.475,-16.020,-7.424,-112.137,20.708,1.563,-57.045,24.225,188.718,6.642,-7.424
'[01:44:46.000 07/11/2076]',-81.270,-11.331,56.654,61.343,-71.502,58.608,8.987,28.523,66.422,-32.039,9.377,-60.171,94.945,-25.397,2.735,-88.694,22.662,8.596,-55.873,29.304,177.387,-1.563,2.735
'[01:44:46.004 07/11/2076]',-82.051,-14.847,62.515,57.436,-71.502,56.264,10.159,27.350,64.860,-32.430,24.225,-46.886,96.508,-31.258,12.503,-68.376,22.271,14.457,-61.734,35.946,172.308,-10.549,12.503
'[01:44:46.008 07/11/2076]',-87.521,-12.503,66.422,53.529,-71.111,53.529,5.861,29.695,66.813,-31.648,7.424,-50.403,86.740,-17.973,14.457,-91.429,20.317,7.033,-65.641,26.960,171.136,0.391,14.457
'[01:44:46.012 07/11/2076]',-89.084,-12.112,66.813,55.873,-69.548,48.840,4.298,36.337,65.641,-32.821,-3.907,-54.310,80.488,-13.675,17.192,-110.574,19.145,5.079,-66.032,20.317,170.745,6.252,17.192
'[01:44:46.016 07/11/2076]',-88.303,-11.722,68.767,58.999,-69.158,45.714,10.549,38.681,62.125,-33.993,14.847,-58.217,81.661,-23.053,22.662,-96.899,23.053,8.205,-67.985,26.960,168.791,-7.814,22.662
'[01:44:46.020 07/11/2076]',-88.303,-8.987,71.502,60.171,-66.422,42.589,16.801,39.853,60.952,-34.774,26.178,-55.092,81.661,-26.569,27.741,-85.958,26.178,5.079,-70.720,26.960,169.573,-12.112,27.741
'[01:44:46.023 07/11/2076]',-88.694,-7.033,69.939,68.376,-66.422,41.026,16.020,50.403,57.827,-34.774,13.675,-16.410,80.098,-29.304,29.304,-60.562,26.569,3.126,-69.158,25.397,162.540,-8.596,29.304
'[01:44:46.027 07/11/2076]',-89.084,-7.424,69.939,75.409,-64.469,38.291,15.238,58.999,53.138,-36.337,9.377,-12.503,74.628,-29.695,29.695,-62.125,23.834,4.689,-69.158,25.788,158.242,-8.596,29.695
'[01:44:46.031 07/11/2076]',-91.429,-5.470,69.548,80.879,-61.734,32.430,16.020,65.250,47.668,-35.946,10.159,-35.946,63.297,-21.880,30.867,-87.131,20.708,5.079,-68.767,21.490,157.070,-5.861,30.867
'[01:44:46.035 07/11/2076]',-93.773,-3.126,67.204,88.303,-61.343,25.788,17.582,75.018,39.463,-36.337,10.549,-14.457,55.873,-17.582,32.039,-71.502,17.192,5.861,-66.422,17.582,154.335,-3.516,32.039
'[01:44:46.039 07/11/2076]',-96.117,-5.861,64.469,100.806,-61.343,14.847,18.364,90.647,28.523,-37.118,8.987,9.768,44.542,-14.066,32.430,-53.138,11.722,4.689,-63.687,14.066,154.725,-4.298,32.430
'[01:44:46.043 07/11/2076]',-98.462,-0.391,63.297,102.759,-61.343,7.424,26.178,93.382,18.364,-32.430,21.880,-15.238,31.258,-6.642,37.900,-71.111,10.159,5.470,-62.515,10.549,153.553,-7.424,37.900
'[01:44:46.047 07/11/2076]',-102.759,1.172,64.860,105.104,-63.297,5.470,26.960,98.071,11.331,-30.085,23.443,-32.821,18.755,0.391,39.853,-88.303,9.768,5.470,-64.078,12.894,146.129,-7.033,39.853
'[01:44:46.051 07/11/2076]',-99.243,-9.377,69.939,117.607,-63.687,7.814,23.834,109.402,-0.781,-26.569,28.523,24.615,14.847,-8.596,42.198,-23.834,9.768,9.377,-69.158,31.258,130.501,-14.847,42.198
'[01:44:46.055 07/11/2076]',-96.117,-16.020,74.237,127.375,-61.734,10.940,23.443,115.653,-14.066,-24.225,42.589,57.045,9.377,-16.410,46.105,19.927,11.722,14.847,-73.455,44.151,119.560,-25.006,46.105
'[01:44:46.059 07/11/2076]',-101.197,-10.940,73.455,133.236,-63.687,9.377,21.099,125.421,-23.443,-23.443,34.774,29.695,-10.549,-3.516,47.277,-16.020,6.642,9.768,-72.674,34.774,116.044,-17.582,47.277
'[01:44:46.063 07/11/2076]',-106.276,-6.252,71.111,140.659,-66.813,7.033,20.317,137.534,-32.039,-23.053,20.317,24.225,-29.304,6.642,48.840,-37.900,0.781,9.377,-70.330,25.397,114.090,-12.503,48.840
'[01:44:46.066 07/11/2076]',-104.322,-6.252,72.674,146.911,-68.767,4.298,27.350,143.785,-44.933,-20.317,40.635,48.449,-29.304,-4.689,58.608,-1.563,1.563,20.708,-71.893,35.556,105.104,-25.397,58.608
'[01:44:46.070 07/11/2076]',-103.932,-5.470,75.409,149.255,-70.720,5.079,33.602,145.739,-53.529,-18.755,60.171,52.357,-30.476,-10.549,67.985,12.894,1.563,29.304,-74.628,42.589,98.852,-33.602,67.985
'[01:44:46.074 07/11/2076]',-108.620,-3.516,71.893,156.679,-75.800,4.298,29.695,155.897,-58.608,-17.973,43.761,66.032,-44.151,-0.391,71.111,5.861,0.391,25.788,-71.111,34.774,97.289,-23.834,71.111
'[01:44:46.078 07/11/2076]',-112.918,-5.861,71.502,164.493,-80.098,1.563,29.304,164.884,-65.250,-16.801,33.602,73.455,-54.701,1.954,75.018,0.781,1.954,25.397,-70.720,32.039,94.164,-17.582,75.018
'[01:44:46.082 07/11/2076]',-112.527,-5.470,71.502,167.619,-80.879,2.344,34.383,164.103,-72.674,-15.238,50.794,47.668,-61.734,0.391,81.661,-10.159,3.907,29.304,-70.720,35.946,93.773,-25.006,81.661
'[01:44:46.086 07/11/2076]',-114.090,-0.391,67.204,168.010,-83.223,3.126,35.946,163.712,-73.065,-17.192,57.045,41.416,-64.860,-1.954,85.958,-11.722,2.735,26.178,-66.422,32.821,90.256,-26.178,85.958
'[01:44:46.090 07/11/2076]',-113.309,-5.470,70.720,174.261,-85.568,3.516,35.556,171.917,-75.409,-17.973,49.621,76.972,-63.687,-7.424,87.912,15.629,3.126,27.741,-69.939,37.509,86.349,-23.443,87.912
'[01:44:46.094 07/11/2076]',-113.700,-8.596,76.972,177.778,-86.349,2.735,37.900,177.387,-75.018,-18.364,46.105,72.674,-63.297,-5.861,89.475,4.689,2.344,30.867,-76.190,42.979,87.912,-20.708,89.475
'[01:44:46.098 07/11/2076]',-113.700,-9.377,80.488,179.731,-85.177,0.391,38.291,182.857,-71.893,-17.973,42.198,51.966,-65.250,0.781,89.866,-22.662,2.735,31.258,-79.707,41.807,93.382,-16.801,89.866
'[01:44:46.102 07/11/2076]',-112.137,-8.987,78.926,187.937,-84.786,-2.735,39.853,192.625,-73.846,-16.801,43.370,90.647,-60.952,0.391,91.038,11.331,6.642,33.602,-78.144,38.291,98.071,-12.503,91.038
'[01:44:46.105 07/11/2076]',-110.574,-7.424,77.753,191.844,-82.833,-5.079,42.198,196.923,-74.628,-16.410,41.416,104.322,-58.999,2.735,94.164,15.629,9.377,33.602,-76.972,37.900,100.415,-9.377,94.164
'[01:44:46.109 07/11/2076]',-104.322,-0.781,72.283,188.327,-75.018,-2.344,42.589,190.672,-69.548,-17.192,47.668,61.343,-62.125,8.205,100.024,-25.397,9.768,33.211,-71.502,35.165,97.289,-8.205,100.024
'[01:44:46.113 07/11/2076]',-96.508,2.344,63.687,187.155,-64.860,-0.391,36.337,185.983,-64.078,-18.364,42.589,37.118,-65.641,10.940,103.932,-53.529,8.987,30.476,-62.906,35.556,87.521,-4.689,103.932
'[01:44:46.117 07/11/2076]',-85.568,-0.391,59.389,188.327,-57.045,1.563,32.821,183.248,-62.906,-16.801,48.449,78.535,-55.092,-0.781,108.620,-5.470,14.066,37.509,-58.608,46.886,72.283,-9.377,108.620
'[01:44:46.121 07/11/2076]',-74.237,-1.563,54.310,187.546,-45.714,2.735,30.085,178.168,-60.952,-17.192,60.952,96.117,-49.231,-10.549,113.700,23.443,17.582,39.072,-53.529,53.919,61.343,-17.582,113.700
'[01:44:46.125 07/11/2076]',-70.720,1.954,47.277,185.201,-36.337,-1.563,25.397,175.043,-54.310,-16.410,48.449,69.548,-58.999,1.172,113.309,-9.377,19.927,25.006,-46.496,39.853,58.217,-6.642,113.309
'[01:44:46.129 07/11/2076]',-71.111,8.205,41.807,185.201,-29.695,-5.861,23.834,175.043,-50.794,-12.112,35.165,64.078,-67.204,13.675,113.309,-24.615,25.006,19.536,-41.026,25.006,54.310,5.470,113.309
'[01:44:46.133 07/11/2076]',-64.078,8.596,42.589,187.937,-17.192,-6.642,29.695,168.010,-46.886,-8.987,57.827,73.846,-58.608,3.907,119.951,8.596,34.774,26.960,-41.807,33.993,46.105,-5.470,119.951
'[01:44:46.137 07/11/2076]',-56.264,5.470,47.668,188.327,-4.298,-5.079,32.430,161.368,-42.198,-6.252,75.018,76.972,-54.310,2.344,124.640,29.695,39.072,32.821,-46.886,39.072,40.635,-9.768,124.640
'[01:44:46.141 07/11/2076]',-53.138,5.861,49.621,191.844,3.907,-4.689,28.132,164.493,-37.118,-1.954,58.217,100.806,-57.827,13.675,123.468,39.853,37.900,36.728,-48.840,31.648,34.383,3.126,123.468
'[01:44:46.145 07/11/2076]',-48.059,7.424,50.794,192.625,11.722,-4.689,28.523,165.665,-33.993,0.781,50.403,105.885,-62.125,22.662,124.249,37.118,33.993,48.449,-50.012,25.397,28.523,10.549,124.249
'[01:44:46.148 07/11/2076]',-40.244,10.940,54.701,186.764,21.099,-3.907,35.165,158.632,-30.085,2.735,66.032,75.409,-63.687,28.132,126.984,22.271,30.867,55.873,-53.919,23.053,21.880,7.424,126.984
'[01:44:46.152 07/11/2076]',-35.946,14.066,59.780,180.904,26.960,-3.516,40.244,154.335,-26.178,3.907,76.581,77.363,-64.078,32.039,125.812,37.118,30.085,60.171,-58.999,19.927,13.675,7.424,125.812
'[01:44:46.156 07/11/2076]',-33.602,16.801,61.343,180.513,31.258,-5.861,44.933,153.553,-23.443,5.861,74.237,107.839,-61.343,30.476,125.812,68.767,30.476,64.078,-60.562,15.238,7.814,8.205,125.812
'[01:44:46.160 07/11/2076]',-32.039,21.099,63.297,177.778,35.946,-8.596,51.184,150.427,-20.317,8.987,73.846,94.164,-63.297,34.383,126.593,58.999,34.383,62.515,-62.515,8.596,6.252,9.377,126.593
'[01:44:46.164 07/11/2076]',-34.774,23.443,64.469,175.824,33.993,-14.066,55.873,151.600,-20.317,13.675,72.674,82.833,-68.376,42.979,126.203,47.277,40.635,62.125,-63.687,-0.391,7.424,12.112,126.203
'[01:44:46.168 07/11/2076]',-34.774,27.741,65.250,172.308,33.993,-14.066,59.389,150.037,-18.755,20.317,58.999,105.104,-70.720,55.482,125.812,54.701,44.151,59.389,-64.469,-10.940,5.470,24.615,125.812
'[01:44:46.172 07/11/2076]',-29.304,30.085,67.985,167.228,39.463,-9.768,61.343,143.785,-17.192,24.225,64.078,120.342,-67.595,58.217,126.203,73.455,46.496,59.780,-67.204,-7.814,-2.344,25.006,126.203
'[01:44:46.176 07/11/2076]',-27.350,28.523,76.190,155.507,45.324,-6.642,60.562,133.236,-15.629,23.053,65.641,75.800,-73.455,66.422,122.686,32.821,41.026,53.138,-75.409,-4.689,-8.987,28.523,122.686
'[01:44:46.180 07/11/2076]',-28.523,28.913,81.270,146.520,48.840,-6.642,58.999,126.203,-13.675,21.880,54.701,51.184,-80.098,76.581,117.216,-0.391,33.211,50.403,-80.488,-8.987,-11.331,38.291,117.216
'[01:44:46.184 07/11/2076]',-19.536,21.880,85.568,143.785,54.701,-7.424,60.952,122.686,-17.582,21.490,66.032,89.084,-67.985,61.734,116.044,48.449,31.648,57.045,-84.786,3.907,-17.582,26.960,116.044
'[01:44:46.188 07/11/2076]',-15.238,16.801,88.694,140.269,57.827,-11.331,63.297,120.342,-23.443,20.708,79.316,105.885,-60.171,52.357,117.216,72.674,27.741,60.171,-87.912,10.549,-19.536,19.145,117.216
'[01:44:46.191 07/11/2076]',-17.192,23.834,84.786,135.580,54.310,-14.066,61.734,124.249,-23.053,19.536,60.562,87.131,-69.158,67.204,112.918,31.648,20.317,55.873,-84.005,-4.298,-14.457,31.258,112.918
'[01:44:46.195 07/11/2076]',-17.973,30.085,79.707,131.282,50.012,-16.020,61.343,126.593,-25.006,20.317,48.059,80.098,-73.065,76.581,113.309,6.252,16.801,54.310,-78.926,-14.847,-13.675,39.072,113.309
'[01:44:46.199 07/11/2076]',-13.675,32.039,78.535,127.766,46.496,-14.066,66.032,125.031,-32.430,21.880,70.720,80.098,-62.515,64.078,117.216,20.708,16.410,64.078,-77.753,-5.470,-18.364,25.788,117.216
'[01:44:46.203 07/11/2076]',-14.457,35.946,78.144,121.514,35.556,-9.768,71.893,123.468,-36.337,21.880,86.349,75.018,-56.264,61.343,121.123,21.099,14.457,71.111,-77.363,-5.079,-21.099,22.271,121.123
'[01:44:46.207 07/11/2076]',-13.675,33.602,79.316,122.295,26.569,-8.596,72.283,130.501,-39.072,21.880,76.190,103.932,-54.310,66.032,119.170,31.648,13.284,72.674,-78.535,-3.516,-25.006,29.304,119.170
'[01:44:46.211 07/11/2076]',-12.503,27.350,82.833,120.733,21.490,-8.205,70.720,134.799,-42.589,21.490,73.455,110.965,-51.575,67.204,117.216,30.476,12.503,74.237,-82.051,6.642,-30.476,28.913,117.216
'[01:44:46.215 07/11/2076]',-13.675,24.225,85.568,117.216,13.675,-8.596,70.720,137.534,-45.714,19.927,80.488,81.270,-52.747,70.720,116.825,0.391,8.596,73.846,-84.786,12.503,-30.476,26.569,116.825
'[01:44:46.219 07/11/2076]',-13.675,21.880,85.177,114.090,6.252,-10.549,71.111,140.659,-49.231,20.317,86.740,87.912,-51.184,76.190,115.653,3.907,8.205,71.502,-84.396,12.503,-26.569,26.569,115.653
'[01:44:46.223 07/11/2076]',-11.722,19.536,81.270,114.090,-0.781,-13.284,69.939,148.474,-57.827,23.834,89.866,113.309,-45.324,73.065,116.044,24.615,8.205,72.283,-80.488,8.987,-19.927,21.490,116.044
'[01:44:46.227 07/11/2076]',-12.503,21.490,75.409,117.998,-11.331,-17.973,70.330,161.758,-65.641,28.523,86.349,92.601,-48.840,82.051,116.044,-7.814,7.814,71.502,-74.628,-9.377,-1.954,21.099,116.044
'[01:44:46.230 07/11/2076]',-14.066,23.834,71.502,116.435,-20.317,-20.708,75.409,164.884,-70.720,32.821,93.773,69.548,-50.012,91.429,116.435,-33.211,10.940,72.283,-70.720,-22.662,11.722,21.880,116.435
'[01:44:46.234 07/11/2076]',-8.596,19.927,66.032,119.951,-24.225,-18.364,70.330,168.791,-75.018,35.946,97.680,111.355,-41.807,83.614,115.263,12.112,16.410,72.283,-65.250,-17.973,5.079,16.410,115.263
'[01:44:46.238 07/11/2076]',-6.252,13.675,58.608,126.203,-26.178,-15.238,62.906,171.136,-79.707,34.774,106.276,135.971,-36.337,72.283,113.700,47.668,18.364,66.032,-57.827,-5.861,-6.252,8.987,113.700
'[01:44:46.242 07/11/2076]',-12.112,16.801,48.840,122.295,-32.430,-15.629,57.436,166.447,-78.144,32.821,103.150,98.852,-44.542,80.098,109.792,10.940,17.192,52.747,-48.059,-6.642,-16.020,14.066,109.792
'[01:44:46.246 07/11/2076]',-17.192,21.099,37.509,120.733,-32.821,-17.973,49.621,163.712,-75.800,33.211,90.647,82.051,-50.794,87.521,104.713,-12.112,17.582,42.589,-36.728,-6.642,-30.085,20.708,104.713
'[01:44:46.250 07/11/2076]',-12.503,18.755,27.741,125.812,-31.258,-18.755,46.105,164.884,-77.753,35.165,100.806,116.825,-39.463,73.846,104.322,35.946,22.662,42.589,-26.960,10.549,-48.840,9.377,104.322
'[01:44:46.254 07/11/2076]',-11.331,15.629,24.615,123.858,-27.741,-19.536,42.979,159.414,-76.581,33.993,111.355,124.640,-33.993,68.376,101.197,56.654,25.006,37.509,-23.834,21.880,-58.217,2.344,101.197
'[01:44:46.258 07/11/2076]',-13.284,11.722,22.662,120.733,-23.053,-21.880,32.430,155.116,-69.158,33.602,89.866,110.574,-41.026,81.661,92.601,30.085,23.053,22.271,-21.880,21.880,-63.687,13.675,92.601
'[01:44:46.262 07/11/2076]',-14.457,7.424,18.364,119.170,-16.020,-25.397,21.099,151.600,-64.469,33.602,70.330,105.885,-46.886,87.912,87.912,15.629,24.225,7.033,-17.582,21.880,-66.422,20.708,87.912
'[01:44:46.266 07/11/2076]',-12.112,3.516,15.238,112.918,-8.987,-26.569,17.582,138.706,-61.734,33.602,81.661,85.568,-43.370,78.535,87.131,15.629,28.523,-1.172,-14.457,28.523,-70.330,8.596,87.131
'[01:44:46.270 07/11/2076]',-9.768,4.689,9.377,101.197,-1.172,-30.476,15.238,121.514,-54.701,32.821,87.131,70.330,-38.681,70.330,87.912,15.238,31.258,-11.722,-8.596,25.006,-72.283,1.172,87.912
'[01:44:46.273 07/11/2076]',-7.033,5.861,-2.735,94.945,7.814,-32.430,5.470,110.183,-48.840,32.039,68.376,94.945,-35.165,62.515,84.005,33.993,32.430,-23.443,3.516,17.192,-81.661,3.516,84.005
'[01:44:46.277 07/11/2076]',-7.814,3.907,-11.331,87.131,14.066,-38.291,-1.172,97.289,-44.151,29.695,55.092,89.084,-35.946,55.873,81.270,28.523,27.741,-32.039,12.112,10.549,-87.521,2.735,81.270
'[01:44:46.281 07/11/2076]',-12.112,1.563,-16.801,78.535,19.145,-45.324,-4.298,82.442,-38.681,28.523,50.012,52.357,-41.416,56.264,75.800,0.391,21.490,-38.291,17.582,2.344,-87.131,4.298,75.800
'[01:44:46.285 07/11/2076]',-17.192,3.907,-19.927,71.502,23.443,-51.184,-4.689,69.158,-36.337,30.867,41.807,57.045,-42.979,58.217,71.111,6.642,18.755,-44.542,20.708,-6.252,-82.833,10.159,71.111
'[01:44:46.289 07/11/2076]',-22.662,5.861,-23.053,67.595,25.788,-58.217,-3.516,61.734,-36.728,31.648,31.648,69.548,-44.542,55.873,65.641,17.973,16.410,-51.966,23.834,-19.145,-76.581,13.675,65.641
'[01:44:46.293 07/11/2076]',-25.788,12.503,-22.271,55.092,28.523,-58.999,5.079,44.151,-35.946,30.867,39.072,33.993,-44.151,53.138,63.687,-4.689,17.582,-56.264,23.053,-25.788,-71.502,9.768,63.687
'[01:44:46.297 07/11/2076]',-23.443,23.443,-24.615,39.463,35.556,-55.092,8.596,24.615,-32.821,31.258,35.946,1.563,-45.324,51.966,61.343,-32.430,19.145,-58.217,25.397,-34.774,-72.674,11.722,61.343
'[01:44:46.301 07/11/2076]',-14.457,20.317,-23.834,34.383,41.807,-48.840,8.596,13.675,-32.821,30.476,40.244,44.151,-33.211,32.430,62.125,19.927,21.099,-53.529,24.615,-25.788,-85.177,5.470,62.125
'[01:44:46.305 07/11/2076]',-8.205,13.675,-17.582,29.304,45.324,-43.370,12.894,1.954,-32.430,30.085,50.403,64.078,-25.397,19.536,64.469,52.747,18.755,-47.277,18.364,-15.238,-91.038,-0.781,64.469
'[01:44:46.309 07/11/2076]',-8.596,17.582,-13.284,19.927,46.496,-40.244,16.020,-8.205,-30.085,30.867,41.026,26.569,-33.602,27.350,64.469,9.377,12.112,-46.886,14.066,-23.834,-88.303,6.642,64.469
'[01:44:46.313 07/11/2076]',-12.112,23.053,-11.722,14.066,43.761,-36.728,20.317,-14.066,-28.913,32.821,26.960,11.722,-40.635,37.118,64.469,-18.364,9.768,-43.761,12.503,-38.291,-83.614,16.801,64.469
'[01:44:46.316 07/11/2076]',-8.205,25.397,-6.252,8.596,40.244,-30.867,33.211,-23.443,-32.430,35.165,46.105,34.383,-31.258,25.788,68.376,20.708,14.066,-29.304,7.033,-33.993,-83.614,5.470,68.376
'[01:44:46.320 07/11/2076]',-4.298,33.602,-3.907,0.781,39.463,-20.708,42.589,-34.383,-36.337,36.337,65.641,37.118,-27.741,21.099,71.111,37.118,15.629,-17.973,4.689,-35.946,-83.614,0.391,71.111
'[01:44:46.324 07/11/2076]',-5.470,41.807,-2.735,0.000,37.509,-14.457,45.714,-34.774,-37.509,37.118,52.357,40.635,-35.946,31.648,68.767,27.350,15.629,-16.020,3.516,-50.794,-78.926,12.503,68.767
