'Time and date','FP1-F7','F7-T7','T7-P7','P7-O1','FP1-F3','F3-C3','C3-P3','P3-O1','FP2-F4','F4-C4','C4-P4','P4-O2','FP2-F8','F8-T8','T8-P8','P8-O2','FZ-CZ','CZ-PZ','P7-T7','T7-FT9','FT9-FT10','FT10-T8','T8-P8'
'hh:mm:ss.mmm dd/mm/yyyy','uV','uV','uV','uV','uV','uV','uV','uV','uV','uV','uV','uV','uV','uV','uV','uV','uV','uV','uV','uV','uV','uV','uV'
'[04:51:45.000 05/09/2075]',-17.192,-80.488,125.031,32.430,-8.987,95.726,-58.608,31.648,62.125,91.038,-93.773,11.331,-41.026,105.885,16.020,-10.159,45.714,146.911,-124.249,83.614,-19.536,64.469,16.020
'[04:51:45.004 05/09/2075]',0.391,0.391,0.391,0.391,0.391,0.391,0.391,0.391,0.391,0.391,0.391,0.391,0.391,0.391,0.391,0.391,0.391,0.000,0.391,0.391,0.391,0.391,0.391
'[04:51:45.008 05/09/2075]',0.391,0.391,0.391,0.391,0.391,0.391,0.391,0.391,0.391,0.781,-0.391,0.391,0.391,0.391,0.391,0.391,0.781,2.344,0.391,0.391,0.391,0.391,0.391
'[04:51:45.012 05/09/2075]',0.391,0.391,0.391,0.391,0.391,0.391,0.391,0.391,0.391,2.735,-2.735,0.391,0.391,0.391,0.391,0.391,1.563,7.424,0.391,0.391,0.391,0.391,0.391
'[04:51:45.016 05/09/2075]',0.391,0.391,0.391,0.781,0.391,0.781,0.391,0.391,0.000,-2.735,4.689,0.391,0.391,0.391,0.391,0.391,-2.344,-8.596,0.391,0.391,0.391,0.391,0.391
'[04:51:45.020 05/09/2075]',0.391,-0.391,0.781,1.563,0.391,1.172,0.000,0.391,-1.172,-10.940,14.066,0.391,0.391,0.781,-0.781,1.172,-5.861,-31.648,0.000,0.781,1.172,0.391,-0.781
'[04:51:45.023 05/09/2075]',0.391,-0.391,1.563,0.781,1.172,0.391,0.391,0.781,0.391,-1.563,1.563,1.563,0.391,0.781,0.000,0.391,1.954,-5.861,-0.781,0.391,1.563,0.391,0.000
'[04:51:45.027 05/09/2075]',0.391,1.172,0.391,0.000,0.781,0.000,0.391,0.781,3.516,17.192,-20.317,0.391,0.391,0.391,1.563,-1.172,11.331,48.840,0.391,0.391,0.391,0.391,1.563
'[04:51:45.031 05/09/2075]',0.391,1.172,0.000,0.391,0.391,1.172,0.391,0.391,2.344,7.814,-6.252,-1.563,0.391,0.781,1.563,-0.781,1.172,25.006,0.781,0.781,-0.781,0.781,1.563
'[04:51:45.035 05/09/2075]',0.391,-0.391,0.781,1.563,0.781,1.954,0.000,0.000,-3.516,-20.317,27.741,0.000,1.172,0.391,-0.391,2.344,-13.284,-60.171,0.000,1.172,0.391,0.391,-0.391
'[04:51:45.039 05/09/2075]',1.172,-3.126,2.344,5.079,2.735,2.735,-0.781,1.172,-6.252,-37.509,45.324,3.516,1.954,1.172,-2.735,4.298,-19.536,-110.183,-1.563,1.954,4.298,0.000,-2.735
'[04:51:45.043 05/09/2075]',0.391,-9.377,6.642,13.675,4.689,10.940,-6.642,1.563,-8.596,-72.283,87.131,3.907,2.344,8.596,-8.205,5.470,-39.853,-185.983,-5.861,7.033,9.377,1.563,-8.205
'[04:51:45.047 05/09/2075]',0.781,-10.549,14.457,14.847,9.768,11.331,-4.689,3.126,-3.126,-57.827,66.813,8.205,5.079,11.331,-5.861,1.954,-14.066,-140.269,-13.675,7.033,14.457,3.126,-5.861
'[04:51:45.051 05/09/2075]',5.861,-10.940,15.238,20.708,14.847,12.894,-5.861,8.596,2.344,-29.695,36.728,11.331,6.642,14.847,0.000,-1.563,0.000,-83.614,-14.457,8.987,16.801,3.907,0.000
'[04:51:45.055 05/09/2075]',9.377,-3.126,18.755,19.927,22.662,19.145,-5.861,8.205,7.814,-23.443,42.198,5.861,12.503,16.410,4.298,-2.344,-3.126,-41.807,-17.973,12.112,12.112,6.642,4.298
'[04:51:45.059 05/09/2075]',13.284,-1.563,23.834,17.192,26.178,21.880,-0.781,5.470,9.768,-24.225,56.654,1.172,17.192,15.629,14.457,-4.689,5.861,-32.430,-23.053,12.894,10.549,4.689,14.457
'[04:51:45.063 05/09/2075]',16.020,0.391,19.927,30.085,31.258,21.880,1.172,11.331,2.344,-39.072,76.972,10.940,15.629,14.066,17.192,2.735,-5.470,-102.369,-19.145,13.284,11.722,4.298,17.192
'[04:51:45.066 05/09/2075]',17.192,3.126,22.271,38.681,36.728,23.443,4.298,15.629,3.907,-45.714,89.866,15.238,21.490,11.331,19.927,8.596,-12.894,-109.402,-21.490,14.066,13.284,3.907,19.927
'[04:51:45.070 05/09/2075]',14.457,3.516,26.178,41.807,32.430,26.569,10.940,16.410,10.159,-16.410,59.780,14.847,16.801,15.629,28.523,6.642,9.768,-14.847,-25.397,14.066,10.159,6.252,28.523
'[04:51:45.074 05/09/2075]',18.755,2.735,21.490,59.780,37.509,24.615,16.801,23.834,10.549,-8.596,53.529,20.317,19.927,14.847,32.430,7.814,14.847,-40.635,-20.708,12.112,14.066,8.596,32.430
'[04:51:45.078 05/09/2075]',24.225,8.596,32.039,57.045,44.542,27.741,20.317,29.695,12.112,-25.006,80.098,25.397,31.258,11.722,32.821,15.238,0.391,-112.527,-31.258,10.549,14.847,7.424,32.821
'[04:51:45.082 05/09/2075]',25.397,16.020,39.072,49.231,45.714,32.039,23.834,28.913,14.847,-16.410,74.237,21.099,29.695,13.675,30.867,19.145,13.284,-37.509,-38.291,9.768,12.112,7.033,30.867
'[04:51:45.086 05/09/2075]',29.695,19.145,36.337,46.496,48.449,33.211,25.397,25.397,24.225,11.331,43.370,17.973,33.602,16.410,29.304,16.801,37.900,33.602,-35.556,10.159,13.675,6.642,29.304
'[04:51:45.090 05/09/2075]',28.523,21.490,32.821,49.621,50.403,28.523,20.317,32.430,19.145,-6.642,57.045,29.304,33.211,13.284,17.582,33.993,16.020,-44.151,-32.039,10.549,10.940,4.689,17.582
'[04:51:45.094 05/09/2075]',24.225,21.490,27.741,44.151,49.231,25.397,16.410,27.350,17.192,-22.271,75.018,23.443,32.430,13.675,6.252,40.244,2.344,-90.647,-26.960,14.847,7.814,2.344,6.252
'[04:51:45.098 05/09/2075]',30.085,19.536,18.755,40.635,56.264,23.053,11.722,17.973,31.648,1.172,44.933,10.549,39.463,14.066,6.642,26.960,26.960,-21.880,-17.973,16.020,8.987,2.735,6.642
'[04:51:45.102 05/09/2075]',26.569,16.020,8.205,46.886,59.780,14.457,4.298,19.536,33.602,6.252,32.430,6.252,40.635,8.987,4.689,23.053,34.383,-30.867,-7.424,16.020,14.066,1.563,4.689
'[04:51:45.105 05/09/2075]',22.662,21.880,3.907,38.681,60.562,13.675,-3.126,16.801,30.867,-10.159,49.231,-0.391,43.370,6.642,-3.516,21.099,13.675,-83.614,-3.126,12.503,16.020,1.954,-3.516
'[04:51:45.109 05/09/2075]',24.615,26.569,3.126,28.913,63.297,16.410,-3.516,7.814,36.728,-5.861,48.059,-12.894,48.059,9.377,-1.954,8.596,21.099,-40.244,-2.344,9.377,17.192,5.079,-1.954
'[04:51:45.113 05/09/2075]',23.443,27.741,-4.298,28.913,62.515,13.675,-6.642,6.252,35.165,9.768,25.397,-12.503,45.324,12.112,-4.298,3.126,32.430,-13.284,5.079,7.424,16.801,9.768,-4.298
'[04:51:45.117 05/09/2075]',21.099,35.946,7.814,8.596,58.608,17.192,-6.642,5.470,33.993,14.847,16.410,-8.596,43.761,18.364,-10.940,5.079,28.913,-28.913,-7.033,3.907,10.940,14.457,-10.940
'[04:51:45.121 05/09/2075]',28.913,35.165,7.814,1.563,60.952,22.271,-5.079,-2.735,37.900,13.675,28.523,-17.582,48.449,20.317,-6.252,-0.781,23.834,-15.629,-7.033,5.861,9.768,13.284,-6.252
'[04:51:45.125 05/09/2075]',32.430,35.946,8.205,-2.344,64.078,24.225,-4.298,-8.987,41.416,23.053,18.755,-19.927,50.012,23.053,-1.563,-7.814,39.463,12.503,-7.424,5.861,16.020,12.503,-1.563
'[04:51:45.129 05/09/2075]',28.132,36.728,8.596,0.391,59.780,26.178,-5.079,-5.079,37.900,2.344,41.416,-10.159,50.012,24.225,-1.563,-1.954,18.755,-75.409,-7.814,3.516,14.066,16.020,-1.563
'[04:51:45.133 05/09/2075]',26.960,39.853,8.987,0.781,62.125,28.132,-5.470,-5.861,35.556,-17.192,65.250,-9.768,50.794,22.662,1.563,-2.344,3.126,-99.243,-8.205,2.344,12.112,18.364,1.563
'[04:51:45.137 05/09/2075]',25.397,46.496,14.457,-1.954,66.032,31.648,-3.907,-7.814,41.416,9.768,34.774,-10.940,50.794,26.178,7.033,-10.159,25.788,-2.735,-13.675,0.391,13.284,20.317,7.033
'[04:51:45.141 05/09/2075]',25.788,45.714,14.457,2.344,67.204,30.867,-4.689,-2.735,39.072,4.298,30.476,-1.172,49.231,26.178,3.907,-6.642,19.536,-39.463,-13.675,-4.689,14.847,21.490,3.907
'[04:51:45.145 05/09/2075]',27.350,44.933,16.410,-0.391,69.939,30.085,-5.861,-3.907,26.960,-23.053,60.171,-0.391,46.105,20.317,2.344,-6.252,-7.424,-121.123,-15.629,-3.907,14.847,15.629,2.344
'[04:51:45.148 05/09/2075]',30.476,42.198,17.192,-3.907,72.283,29.304,-6.642,-7.424,30.085,-17.192,45.714,-3.907,47.668,16.410,-0.781,-8.596,6.642,-48.840,-16.410,-2.735,21.099,7.814,-0.781
'[04:51:45.152 05/09/2075]',28.523,42.589,9.377,-3.516,73.455,27.741,-9.377,-13.675,38.291,1.563,9.768,-7.033,49.231,14.847,-6.252,-16.020,23.834,6.252,-8.596,-6.252,27.350,7.814,-6.252
'[04:51:45.156 05/09/2075]',27.350,39.853,10.159,-4.298,71.502,24.615,-13.284,-8.205,29.304,-25.788,30.476,0.391,44.542,7.814,-13.284,-5.079,-1.172,-84.005,-9.377,-2.344,15.238,7.814,-13.284
'[04:51:45.160 05/09/2075]',23.834,43.761,11.722,-11.331,68.767,28.132,-15.629,-12.112,30.085,-41.026,43.370,-1.954,47.277,6.642,-21.880,-3.126,-8.596,-103.150,-10.940,-2.735,16.410,5.079,-21.880
'[04:51:45.164 05/09/2075]',16.020,47.277,6.252,-13.675,63.297,31.258,-16.801,-19.536,40.244,-25.397,12.894,-6.642,50.012,4.689,-27.350,-7.814,13.675,-12.894,-5.470,-6.642,20.317,6.252,-27.350
'[04:51:45.168 05/09/2075]',11.722,44.542,4.689,-7.814,58.217,30.476,-16.801,-16.410,35.165,-25.397,3.516,-1.954,41.026,1.172,-27.350,-4.689,13.675,-35.946,-3.907,-5.861,20.317,3.516,-27.350
'[04:51:45.172 05/09/2075]',12.894,41.416,7.424,-10.159,56.264,32.821,-15.629,-19.536,30.476,-42.979,25.006,-5.079,41.416,-1.954,-29.304,-2.344,-4.689,-74.237,-6.642,-6.252,23.053,0.781,-29.304
'[04:51:45.176 05/09/2075]',13.284,40.635,9.377,-11.722,59.389,32.039,-12.112,-25.397,35.556,-38.291,21.880,-12.894,41.416,-1.563,-28.132,-4.689,7.814,-33.211,-8.596,-8.205,28.523,-0.391,-28.132
'[04:51:45.180 05/09/2075]',14.457,39.072,13.284,-3.126,64.860,27.350,-7.424,-19.927,35.165,-28.913,14.847,-7.814,38.681,-0.391,-22.271,-1.954,14.066,-50.012,-12.503,-8.596,28.913,1.563,-22.271
'[04:51:45.184 05/09/2075]',16.020,36.337,14.847,5.079,68.376,22.662,-5.861,-9.768,35.946,-44.542,35.556,1.954,41.807,-0.391,-18.755,7.424,-4.689,-108.620,-14.066,-7.033,25.006,3.516,-18.755
'[04:51:45.188 05/09/2075]',16.801,37.509,18.755,2.735,70.330,22.271,-3.907,-10.159,42.979,-29.695,25.397,-1.172,41.807,2.344,-10.940,2.735,10.159,-28.132,-17.973,-5.861,26.178,3.516,-10.940
'[04:51:45.191 05/09/2075]',16.020,39.072,14.457,12.503,72.674,19.927,-1.563,-5.861,44.151,-13.675,10.940,0.391,40.244,1.954,-1.954,0.781,26.178,7.814,-13.675,-4.298,25.788,4.689,-1.954
'[04:51:45.195 05/09/2075]',11.331,35.946,19.927,15.238,66.422,16.801,-1.954,2.735,33.993,-34.774,37.509,10.940,35.165,1.954,4.298,5.861,7.424,-75.800,-19.145,-4.298,24.615,5.861,4.298
'[04:51:45.199 05/09/2075]',16.020,35.946,31.648,3.126,66.032,20.708,-1.172,3.126,35.556,-39.463,54.310,7.814,37.509,6.642,7.424,4.689,6.642,-59.389,-30.867,-5.861,26.960,3.126,7.424
'[04:51:45.203 05/09/2075]',12.112,35.946,33.993,5.079,61.734,19.145,0.391,6.252,38.681,-8.205,21.490,7.424,35.556,9.377,8.596,4.689,30.085,32.821,-33.211,-6.642,30.867,7.424,8.596
'[04:51:45.207 05/09/2075]',5.861,34.774,29.695,16.020,53.138,14.847,2.344,17.973,33.993,-14.457,31.258,15.629,33.602,12.503,12.112,7.033,19.145,-28.913,-28.913,-6.252,29.695,10.159,12.112
'[04:51:45.211 05/09/2075]',10.159,32.430,25.006,19.145,53.138,11.331,3.126,19.927,30.085,-30.085,58.217,14.066,35.556,12.112,12.112,11.331,-0.781,-95.336,-24.225,-0.781,23.834,9.768,12.112
'[04:51:45.215 05/09/2075]',9.377,31.258,22.662,18.364,51.966,4.298,6.252,20.317,31.648,-15.238,39.463,9.377,29.695,7.033,15.629,12.503,19.536,-3.907,-21.880,2.735,18.755,7.033,15.629
'[04:51:45.219 05/09/2075]',5.861,33.993,18.755,21.880,50.012,0.391,9.768,22.271,33.993,8.205,14.847,7.424,28.913,2.735,22.662,8.987,34.383,28.132,-17.973,2.344,20.317,1.563,22.662
'[04:51:45.223 05/09/2075]',9.768,26.178,10.549,28.913,47.277,-4.298,6.642,27.350,25.006,-17.192,40.635,12.112,27.741,-3.126,17.192,18.364,8.205,-61.734,-9.768,1.954,18.364,-1.172,17.192
'[04:51:45.227 05/09/2075]',10.940,24.225,6.642,27.350,44.933,-5.861,5.079,26.960,19.927,-36.728,62.125,9.377,28.523,-7.424,10.940,21.880,-2.735,-86.740,-5.861,0.391,18.755,-3.907,10.940
'[04:51:45.230 05/09/2075]',13.675,23.834,1.563,26.569,42.589,-3.907,6.642,21.880,24.225,-4.689,23.834,3.907,26.960,-4.298,9.768,13.675,21.099,-1.954,-0.781,-0.781,20.708,-1.954,9.768
'[04:51:45.234 05/09/2075]',11.722,18.755,-7.033,34.774,35.556,-5.861,2.735,26.178,22.271,-2.344,12.112,9.377,24.615,-5.470,5.861,15.629,14.847,-36.728,7.814,1.172,16.801,-2.735,5.861
'[04:51:45.238 05/09/2075]',10.549,19.927,8.596,13.675,35.165,-3.516,4.298,19.536,23.834,-10.549,21.880,3.126,29.304,-9.377,1.563,15.629,2.344,-47.668,-7.814,0.781,17.973,-5.470,1.563
'[04:51:45.242 05/09/2075]',12.503,21.880,8.987,5.470,36.337,-1.954,5.079,10.940,27.741,-2.735,7.033,-1.172,26.960,-8.205,2.735,8.205,17.582,8.987,-8.205,1.172,17.582,-8.987,2.735
'[04:51:45.246 05/09/2075]',7.033,19.927,8.596,5.470,32.430,-5.470,3.126,13.284,19.927,-10.940,6.252,7.033,19.536,-12.894,3.907,10.940,8.987,-49.231,-7.814,0.391,8.987,-8.596,3.907
'[04:51:45.250 05/09/2075]',8.987,19.145,7.814,0.391,32.039,-5.079,1.563,9.768,13.675,-30.476,24.225,8.987,19.145,-13.675,-1.563,13.284,-11.331,-106.667,-7.033,-0.391,3.126,-6.642,-1.563
'[04:51:45.254 05/09/2075]',12.112,23.834,-1.563,-1.954,32.039,-1.172,0.781,1.954,18.755,-10.940,0.781,0.000,15.238,-10.159,0.000,2.735,7.033,-10.159,2.344,0.391,-4.298,-5.470,0.000
'[04:51:45.258 05/09/2075]',5.079,24.225,-5.470,3.516,26.178,-1.954,3.126,0.391,18.755,2.735,-17.973,0.000,11.722,-10.159,3.516,-1.172,18.364,8.596,6.252,-1.172,-5.079,-4.298,3.516
'[04:51:45.262 05/09/2075]',7.424,22.662,-5.079,6.252,28.523,-1.172,4.298,1.563,14.457,-21.490,10.549,0.781,16.801,-13.675,1.563,-0.391,-3.516,-68.376,5.861,-2.344,1.954,-8.205,1.563
'[04:51:45.266 05/09/2075]',0.781,23.834,-7.033,6.642,22.662,1.563,3.516,-2.735,18.364,-22.662,11.722,-7.424,19.536,-14.847,0.781,-5.079,0.391,-8.987,7.814,-2.344,7.033,-10.159,0.781
'[04:51:45.270 05/09/2075]',1.563,20.317,-1.172,3.516,26.178,0.000,5.079,-5.470,25.006,0.000,-19.536,-7.033,17.192,-15.238,3.907,-8.205,17.192,54.701,1.954,-4.689,11.722,-9.377,3.907
'[04:51:45.273 05/09/2075]',1.954,17.582,8.596,-0.781,26.569,-1.172,3.516,0.000,14.847,-14.457,-5.861,1.563,12.503,-17.192,2.344,-1.954,-0.781,-30.085,-7.814,-3.126,7.033,-8.987,2.344
'[04:51:45.277 05/09/2075]',1.954,14.847,3.907,-0.781,24.615,0.781,-0.391,-2.735,5.470,-35.165,21.099,-1.172,12.894,-17.973,-1.954,-1.563,-24.225,-95.726,-3.126,0.391,2.735,-7.033,-1.954
'[04:51:45.281 05/09/2075]',5.861,11.331,1.563,-5.079,25.006,-0.391,0.391,-8.987,13.284,-23.834,4.298,-3.126,13.675,-16.410,-0.391,-5.861,-0.781,-20.317,-0.781,0.391,0.391,-3.907,-0.391
'[04:51:45.285 05/09/2075]',3.907,7.814,3.126,-6.252,21.490,-3.516,4.689,-10.940,4.689,-7.814,-5.079,-2.344,8.205,-13.675,4.689,-9.768,5.079,3.907,-2.344,0.391,3.516,-3.516,4.689
'[04:51:45.289 05/09/2075]',0.391,8.596,-3.126,-1.954,15.238,-1.563,1.954,-10.159,1.172,-44.151,37.118,-0.391,14.457,-16.801,0.000,-3.516,-23.053,-77.363,3.907,-2.344,7.814,-4.298,0.000
'[04:51:45.293 05/09/2075]',0.000,7.424,-6.252,0.000,12.503,-1.563,3.907,-13.284,1.563,-49.621,50.403,-4.298,11.331,-14.066,3.126,-2.735,-23.834,-68.767,7.033,-0.391,6.252,-6.252,3.126
'[04:51:45.297 05/09/2075]',-4.298,7.033,-3.907,2.344,10.159,-3.907,7.424,-11.722,5.079,-20.317,21.880,-4.298,8.205,-11.722,10.940,-5.861,-1.954,-4.689,4.689,2.344,8.987,-8.596,10.940
'[04:51:45.301 05/09/2075]',-7.814,6.252,-3.516,10.159,7.033,-4.298,5.861,-2.735,2.344,-19.145,23.443,1.172,8.987,-16.410,14.457,0.391,-7.424,-41.807,4.298,4.298,4.689,-7.814,14.457
'[04:51:45.305 05/09/2075]',-0.781,1.563,-5.861,11.331,7.814,-4.298,6.252,-3.126,0.000,-17.192,30.476,-1.563,8.987,-19.145,17.192,3.516,-8.987,-16.020,6.642,7.814,0.391,-8.596,17.192
'[04:51:45.309 05/09/2075]',2.344,5.079,0.000,1.954,10.159,-2.344,10.940,-7.424,1.954,-1.954,20.708,-4.298,11.722,-17.582,21.099,0.391,10.940,49.621,0.781,6.252,0.781,-7.814,21.099
'[04:51:45.313 05/09/2075]',-1.172,5.470,9.768,0.391,7.424,-3.126,10.940,0.391,-5.470,-15.238,33.602,5.470,9.377,-22.271,18.364,11.722,-3.126,-12.894,-8.987,1.954,0.391,-5.470,18.364
'[04:51:45.316 05/09/2075]',0.000,5.861,9.768,0.391,7.814,-2.344,8.987,2.735,-9.768,-33.993,54.701,8.205,8.596,-23.053,14.066,19.145,-19.536,-50.012,-8.987,1.172,0.391,-3.516,14.066
'[04:51:45.320 05/09/2075]',0.391,6.252,9.768,-0.391,7.814,-1.172,8.205,1.563,-0.391,-6.642,24.225,2.735,9.377,-20.317,16.801,12.112,0.391,40.244,-8.987,3.126,1.172,-2.735,16.801
'[04:51:45.324 05/09/2075]',-5.861,2.344,8.205,5.470,2.344,-2.735,5.079,7.033,1.172,2.735,10.549,3.126,7.033,-18.364,17.192,12.503,8.987,26.960,-7.424,1.954,5.470,-0.391,17.192
'[04:51:45.328 05/09/2075]',-3.516,0.000,4.689,9.768,2.735,-3.516,2.735,10.159,-3.907,-18.364,37.900,7.424,5.861,-18.364,14.457,21.099,-9.377,-57.045,-3.907,0.000,4.689,1.172,14.457
'[04:51:45.332 05/09/2075]',-0.391,0.000,2.344,5.861,4.298,-2.344,0.000,7.424,-3.907,-16.020,37.900,1.172,2.344,-19.145,13.675,21.099,0.000,-6.252,-1.563,1.563,0.391,-0.391,13.675
'[04:51:45.336 05/09/2075]',-7.033,0.391,0.000,2.735,1.172,-3.516,-1.954,1.954,0.000,5.470,5.470,0.781,-0.781,-18.755,13.284,18.755,20.317,56.654,0.781,-0.391,1.563,-1.563,13.284
'[04:51:45.340 05/09/2075]',-11.331,0.000,-5.079,8.205,2.735,-9.377,-8.205,7.814,-10.549,-13.675,14.847,10.940,-7.033,-26.960,8.205,27.350,-2.344,-22.271,5.861,-1.172,-0.391,-5.470,8.205
'[04:51:45.344 05/09/2075]',-13.284,-1.954,-3.907,0.781,3.907,-11.722,-12.503,1.954,-16.801,-30.476,30.476,5.079,-8.596,-29.695,3.907,23.834,-20.317,-72.674,4.689,1.172,0.781,-11.331,3.907
'[04:51:45.348 05/09/2075]',-15.629,0.781,-11.331,-2.735,3.907,-11.722,-14.457,-5.861,-7.424,-7.814,-5.079,-2.344,-5.861,-30.476,0.391,13.284,5.470,16.410,12.112,0.000,1.563,-14.066,0.391
'[04:51:45.352 05/09/2075]',-13.284,1.172,-7.033,-10.940,5.079,-12.112,-14.457,-8.987,-2.735,12.894,-35.946,-5.861,-8.205,-28.913,-2.344,8.987,17.582,55.482,7.814,-1.954,-1.172,-13.675,-2.344
'[04:51:45.355 05/09/2075]',-9.377,1.172,-4.298,-14.066,6.252,-11.331,-13.675,-7.424,-11.331,-20.317,0.391,-2.344,-9.768,-32.039,-10.159,19.145,-11.331,-50.403,5.079,-2.735,-9.377,-14.066,-10.159
'[04:51:45.359 05/09/2075]',-5.079,1.954,-10.159,-16.020,5.079,-7.424,-12.112,-13.675,-13.675,-29.695,13.284,-10.940,-11.331,-31.648,-13.675,15.238,-10.159,-32.039,10.940,0.391,-15.629,-15.629,-13.675
'[04:51:45.363 05/09/2075]',-5.861,0.391,-10.549,-11.722,1.563,-7.424,-11.722,-10.549,-14.847,-24.615,-3.126,-3.907,-16.410,-32.039,-12.894,14.457,-3.126,-14.847,11.331,0.000,-17.582,-14.847,-12.894
'[04:51:45.367 05/09/2075]',-13.675,-3.126,-10.940,-5.079,-7.814,-7.033,-11.722,-4.689,-21.880,-44.542,12.112,3.126,-17.973,-33.602,-16.410,17.192,-23.443,-84.786,11.722,0.391,-15.629,-15.238,-16.410
'[04:51:45.371 05/09/2075]',-16.801,-5.861,-12.112,-5.861,-14.457,-3.516,-12.503,-9.768,-19.536,-39.072,3.907,-5.470,-16.410,-32.821,-18.364,7.814,-16.801,-25.397,12.894,1.954,-8.205,-15.629,-18.364
'[04:51:45.375 05/09/2075]',-16.410,-8.596,-4.689,-11.331,-17.192,0.391,-8.987,-15.238,-14.847,-23.443,-16.801,-8.205,-14.847,-31.648,-16.410,0.391,3.907,40.635,5.470,1.954,-5.470,-14.066,-16.410
'[04:51:45.379 05/09/2075]',-16.801,-8.205,3.126,-11.722,-16.410,2.344,-8.596,-10.940,-20.708,-34.383,-3.126,0.391,-14.066,-32.039,-16.410,6.252,-11.331,-32.821,-2.344,1.172,-5.470,-13.284,-16.410
'[04:51:45.383 05/09/2075]',-8.987,-6.642,3.907,-10.940,-9.768,5.079,-6.252,-11.331,-22.662,-40.635,11.331,0.000,-12.112,-32.430,-12.503,5.861,-17.192,-31.258,-3.126,5.079,-11.722,-13.675,-12.503
'[04:51:45.387 05/09/2075]',-8.205,-1.172,12.894,-16.801,-7.424,8.987,-2.735,-12.112,-18.364,-16.801,-10.549,1.172,-9.768,-29.304,-5.470,1.954,-2.735,46.105,-12.112,1.563,-8.596,-12.894,-5.470
'[04:51:45.391 05/09/2075]',-7.033,2.344,11.331,-14.457,-6.642,10.549,-2.344,-7.814,-20.708,-17.192,-6.642,6.252,-11.331,-23.834,-0.781,-0.391,-7.033,3.126,-10.549,0.000,-13.675,-8.596,-0.781
'[04:51:45.395 05/09/2075]',-7.814,1.172,7.814,-8.596,-8.987,9.768,-1.954,-5.470,-28.132,-40.244,24.225,8.596,-11.331,-22.662,-0.781,0.781,-30.476,-84.396,-7.033,1.172,-11.331,-10.159,-0.781
'[04:51:45.398 05/09/2075]',-8.205,-4.689,7.424,-8.596,-12.503,8.987,-0.781,-8.987,-25.397,-30.867,15.629,1.954,-10.940,-20.708,-3.907,-0.391,-13.675,-14.066,-6.642,2.735,-8.596,-8.596,-3.907
'[04:51:45.402 05/09/2075]',-10.159,-5.861,3.516,-10.159,-13.284,7.424,-1.172,-15.238,-17.582,-2.735,-16.801,-2.735,-10.940,-17.192,-3.126,-7.033,5.079,48.059,-2.735,4.689,-11.331,-3.907,-3.126
'[04:51:45.406 05/09/2075]',-14.457,-9.377,-2.735,1.172,-16.801,2.735,-3.907,-6.642,-25.397,-22.271,0.781,3.126,-11.722,-23.053,-7.424,0.781,-16.020,-37.509,3.516,6.642,-9.768,-7.033,-7.424
'[04:51:45.410 05/09/2075]',-12.894,-12.112,-5.861,3.516,-15.629,0.781,-4.298,-7.424,-25.788,-41.416,23.053,0.391,-7.814,-26.960,-8.596,0.391,-28.523,-66.032,6.642,10.159,-7.424,-8.596,-8.596
'[04:51:45.414 05/09/2075]',-12.894,-9.768,-9.768,3.907,-14.457,0.391,-3.126,-9.768,-17.192,-23.443,-3.126,-2.735,-7.814,-20.708,-7.814,-6.642,-6.642,18.364,10.549,7.033,-0.781,-5.079,-7.814
'[04:51:45.418 05/09/2075]',-13.675,-10.940,-7.033,5.079,-15.238,-5.470,-2.735,-1.172,-16.410,-25.397,-6.642,2.735,-11.722,-23.443,-4.298,-4.689,-5.470,0.391,7.814,5.470,-0.391,-8.205,-4.298
'[04:51:45.422 05/09/2075]',-8.205,-15.629,-3.516,5.079,-14.457,-6.252,-1.563,1.172,-22.271,-44.151,20.708,4.689,-13.284,-22.271,-3.516,0.391,-26.569,-43.761,4.298,7.814,-1.954,-7.424,-3.516
'[04:51:45.426 05/09/2075]',-6.642,-17.973,-1.563,-0.391,-16.410,-7.814,0.000,-1.172,-20.317,-37.900,18.364,1.954,-12.894,-19.927,-3.516,1.172,-16.410,0.391,2.344,9.377,-5.470,-7.424,-3.516
'[04:51:45.430 05/09/2075]',-13.675,-19.927,3.126,-5.861,-24.615,-12.894,-1.563,4.689,-22.271,-23.053,0.781,11.331,-15.238,-19.927,3.907,-1.172,-10.549,-3.907,-2.344,10.940,-11.331,-7.424,3.907
'[04:51:45.434 05/09/2075]',-10.159,-24.615,1.563,-5.470,-25.788,-18.364,-3.126,9.377,-31.648,-25.006,8.987,14.847,-15.238,-20.708,5.861,-1.172,-26.960,-64.860,-0.781,16.410,-15.629,-7.814,5.861
'[04:51:45.438 05/09/2075]',-8.205,-25.788,4.689,-16.020,-26.178,-21.880,-1.563,5.470,-28.132,-7.424,-4.689,7.424,-12.503,-17.973,6.642,-7.424,-12.894,2.344,-3.907,18.364,-11.331,-8.596,6.642
'[04:51:45.441 05/09/2075]',-10.940,-27.741,1.954,-19.927,-31.648,-28.523,-1.954,5.861,-26.960,8.205,-21.490,6.252,-15.629,-12.503,8.596,-12.503,2.735,38.681,-1.172,18.755,-11.331,-5.861,8.596
'[04:51:45.445 05/09/2075]',-11.722,-29.304,-0.391,-14.066,-30.867,-33.993,-1.954,10.940,-35.556,-9.377,3.126,12.112,-15.629,-14.457,8.596,-7.424,-16.801,-50.012,1.172,18.755,-6.252,-8.205,8.596
'[04:51:45.449 05/09/2075]',-11.331,-29.695,-1.172,-17.582,-30.867,-34.774,-4.689,10.159,-36.337,-22.662,16.020,11.722,-14.847,-15.629,3.516,-2.735,-21.880,-44.933,1.954,18.755,-3.516,-9.377,3.516
'[04:51:45.453 05/09/2075]',-12.503,-30.867,-7.033,-19.927,-32.821,-37.900,-7.814,8.205,-30.085,0.000,-21.880,14.066,-16.801,-16.410,4.298,-7.424,-2.735,41.807,7.814,18.364,-3.907,-12.112,4.298
'[04:51:45.457 05/09/2075]',-12.503,-34.774,-14.847,-12.112,-32.039,-41.807,-12.112,10.549,-35.556,-8.205,-24.615,23.053,-19.145,-21.880,1.954,-4.689,-12.503,-21.880,15.629,18.755,-1.563,-15.629,1.954
'[04:51:45.461 05/09/2075]',-7.424,-35.556,-10.940,-23.834,-29.695,-41.416,-13.675,7.033,-43.761,-32.039,-1.172,20.317,-19.536,-30.085,-1.563,-3.907,-34.774,-98.071,11.722,19.536,-3.907,-21.880,-1.563
'[04:51:45.465 05/09/2075]',-5.861,-38.291,-14.066,-30.085,-32.430,-40.635,-14.457,0.000,-42.589,-24.225,-16.020,12.503,-25.006,-30.867,-3.907,-7.424,-15.238,-13.675,14.847,21.099,-8.596,-22.271,-3.907
'[04:51:45.469 05/09/2075]',-14.847,-33.602,-14.457,-29.304,-39.853,-35.946,-10.940,-5.079,-39.853,-3.907,-39.072,5.470,-27.741,-29.695,-3.516,-14.457,-1.563,28.913,15.238,18.755,-8.596,-22.271,-3.516
'[04:51:45.473 05/09/2075]',-16.410,-31.258,-5.470,-34.383,-41.807,-30.476,-9.768,-5.079,-49.231,-29.695,-7.814,6.642,-28.132,-33.602,-8.596,-7.033,-21.880,-59.389,6.252,14.847,-7.814,-23.443,-8.596
'[04:51:45.477 05/09/2075]',-19.145,-26.960,-5.861,-34.383,-44.933,-23.834,-8.205,-8.205,-53.138,-48.449,15.238,3.126,-29.304,-30.867,-13.675,-6.252,-32.821,-82.051,6.642,12.503,-8.205,-21.880,-13.675
'[04:51:45.480 05/09/2075]',-20.708,-21.880,0.000,-35.165,-45.714,-17.192,-1.954,-12.894,-42.589,-16.801,-16.410,0.000,-25.788,-25.006,-12.112,-10.549,-1.172,6.252,0.781,7.814,-1.954,-19.145,-12.112
'[04:51:45.484 05/09/2075]',-19.536,-20.317,0.391,-26.178,-43.761,-14.457,-0.781,-6.252,-40.244,-16.410,-19.145,7.033,-21.880,-26.569,-12.894,-3.907,-2.344,-17.192,0.391,6.642,-2.735,-18.755,-12.894
'[04:51:45.488 05/09/2075]',-15.629,-20.708,4.298,-22.662,-41.026,-8.987,1.563,-5.079,-42.198,-32.821,8.596,5.079,-22.271,-26.178,-11.722,1.954,-18.364,-28.523,-3.516,5.861,-3.126,-18.364,-11.722
'[04:51:45.492 05/09/2075]',-16.410,-18.364,6.252,-16.801,-39.463,-3.907,5.079,-6.642,-34.383,-28.913,8.596,3.126,-21.880,-23.834,-7.424,3.907,-3.126,36.728,-5.470,5.470,-3.126,-17.582,-7.424
'[04:51:45.496 05/09/2075]',-11.331,-19.145,1.563,-3.516,-32.821,-3.907,3.907,0.000,-38.681,-33.211,12.503,10.940,-25.006,-26.178,-5.470,10.940,-9.768,-7.424,-0.781,4.298,-7.424,-17.192,-5.470
'[04:51:45.500 05/09/2075]',-12.503,-20.317,5.470,2.344,-31.258,-1.563,3.907,4.689,-43.370,-51.575,37.509,15.629,-25.006,-27.741,-5.079,18.755,-31.258,-72.283,-4.689,1.563,-1.954,-17.973,-5.079
'[04:51:45.504 05/09/2075]',-13.284,-16.020,5.861,1.563,-30.476,1.172,3.126,3.126,-35.165,-25.397,11.331,10.549,-22.662,-24.615,-4.298,14.457,-14.457,14.847,-5.079,1.954,-3.516,-16.020,-4.298
'[04:51:45.508 05/09/2075]',-5.861,-13.675,9.377,-3.126,-26.178,4.298,3.516,3.126,-33.993,-3.126,-10.159,9.377,-21.099,-22.271,-0.781,8.205,1.172,31.258,-8.596,0.391,-5.079,-14.847,-0.781
'[04:51:45.512 05/09/2075]',-13.675,-14.066,8.205,-1.172,-34.774,5.470,1.954,6.642,-41.026,-23.834,17.973,12.112,-20.317,-19.145,-2.344,8.987,-20.708,-52.357,-7.424,0.391,-5.470,-14.066,-2.344
'[04:51:45.516 05/09/2075]',-8.205,-9.768,14.457,-14.457,-30.476,10.549,1.563,-0.781,-39.853,-24.225,21.099,3.126,-19.145,-17.582,-2.344,1.172,-15.238,0.781,-13.675,-1.172,-6.252,-11.722,-2.344
'[04:51:45.520 05/09/2075]',-7.033,-8.987,12.112,-16.020,-28.913,10.940,1.172,-4.298,-30.476,0.391,-9.377,0.781,-16.801,-14.847,-0.391,-3.907,5.861,72.674,-11.331,-1.563,-10.549,-7.814,-0.391
'[04:51:45.523 05/09/2075]',-18.364,-11.722,8.596,-3.126,-33.602,5.470,1.563,1.172,-34.383,-14.847,5.470,4.689,-17.582,-17.973,-2.735,1.563,-8.987,-2.735,-7.814,-1.172,-7.424,-7.814,-2.735
'[04:51:45.527 05/09/2075]',-19.536,-10.159,7.033,0.391,-28.132,3.516,1.954,-0.391,-34.774,-37.509,30.867,0.391,-12.894,-18.755,-8.987,2.344,-29.695,-71.111,-6.252,0.391,0.781,-9.768,-8.987
'[04:51:45.531 05/09/2075]',-19.145,-9.768,5.470,0.391,-22.662,0.391,1.172,-1.563,-25.788,-21.099,6.642,-3.516,-12.112,-19.536,-8.987,-1.172,-2.344,10.549,-4.689,0.781,5.470,-8.205,-8.987
'[04:51:45.535 05/09/2075]',-21.490,-10.159,7.033,1.954,-23.443,-2.344,5.470,-1.172,-25.397,-0.781,-10.940,-5.861,-17.192,-14.847,-4.298,-5.470,12.503,39.072,-6.252,2.344,5.079,-4.298,-4.298
'[04:51:45.539 05/09/2075]',-18.364,-9.768,4.689,1.563,-19.927,-3.126,1.954,0.391,-31.258,-31.648,21.880,-5.470,-11.331,-19.145,-6.252,-7.033,-16.410,-49.621,-3.907,2.735,10.940,-5.079,-6.252
'[04:51:45.543 05/09/2075]',-10.549,-11.331,2.735,1.172,-15.629,-1.563,1.954,-1.954,-30.476,-33.602,30.867,-10.159,-9.377,-16.410,-4.689,-10.549,-15.629,-38.291,-1.954,3.907,8.596,-1.954,-4.689
'[04:51:45.547 05/09/2075]',-18.755,-12.894,5.861,4.298,-22.662,-2.735,7.424,-2.735,-28.913,-1.563,3.126,-10.549,-9.377,-13.675,0.391,-13.675,5.470,30.867,-5.079,7.424,7.424,0.781,0.391
'[04:51:45.551 05/09/2075]',-23.834,-13.284,5.470,11.722,-26.569,-6.252,9.377,3.907,-30.867,0.781,0.781,-2.344,-6.252,-14.847,-1.563,-7.033,-2.344,-6.642,-4.689,8.987,9.768,-1.172,-1.563
'[04:51:45.555 05/09/2075]',-21.880,-12.894,3.907,12.112,-25.788,-7.033,8.987,5.079,-30.085,-1.172,6.642,-4.298,-5.861,-12.112,-6.252,-2.344,-6.252,7.814,-3.126,10.940,13.675,-1.563,-6.252
'[04:51:45.559 05/09/2075]',-22.271,-13.675,10.159,3.907,-25.006,-10.549,10.159,3.516,-27.350,9.768,-5.470,-5.079,-8.987,-12.503,-3.516,-1.172,11.331,66.813,-9.377,16.020,5.861,0.391,-3.516
'[04:51:45.563 05/09/2075]',-20.708,-16.020,10.159,4.689,-24.225,-17.582,8.596,11.331,-30.867,-1.954,0.391,6.252,-10.940,-20.317,-1.172,8.205,-1.172,-4.689,-9.377,18.364,0.391,-1.954,-1.172
'[04:51:45.566 05/09/2075]',-18.364,-17.192,3.516,1.563,-24.615,-18.755,1.563,11.722,-32.039,-21.880,15.629,7.814,-10.940,-24.615,-5.861,13.284,-19.536,-55.482,-2.735,20.708,-5.861,-5.079,-5.861
'[04:51:45.570 05/09/2075]',-22.271,-18.755,0.781,-1.563,-26.960,-21.099,0.000,5.470,-24.225,3.126,-15.238,4.689,-12.112,-26.569,-0.781,8.987,-1.172,32.430,0.000,21.880,-3.126,-10.159,-0.781
'[04:51:45.574 05/09/2075]',-21.490,-17.192,0.781,-8.987,-23.834,-24.615,-0.781,1.954,-21.099,9.768,-30.085,7.814,-8.987,-27.741,0.000,4.689,6.252,19.145,0.000,19.536,2.344,-12.894,0.000
'[04:51:45.578 05/09/2075]',-18.364,-18.755,-7.033,-6.252,-19.927,-26.178,-5.079,0.391,-24.225,-15.629,-4.298,7.424,-5.079,-27.741,-8.205,5.470,-15.238,-66.032,7.814,16.410,12.894,-17.582,-8.205
'[04:51:45.582 05/09/2075]',-16.020,-19.927,-7.424,-12.112,-15.238,-26.960,-7.033,-5.861,-23.053,-17.192,-0.391,-0.781,-8.205,-26.178,-7.424,2.735,-8.205,-14.457,8.205,16.020,8.987,-14.457,-7.424
'[04:51:45.586 05/09/2075]',-10.549,-18.755,-7.424,-18.755,-7.814,-27.350,-7.033,-12.894,-15.629,3.516,-29.304,-2.735,-8.987,-26.178,-6.252,0.000,10.549,52.747,8.205,13.675,2.735,-9.377,-6.252
'[04:51:45.590 05/09/2075]',-16.410,-21.490,-12.112,-11.722,-15.629,-27.741,-8.596,-10.159,-24.615,-14.457,-9.377,5.470,-15.238,-32.039,-6.252,13.284,-8.987,-33.211,12.894,10.940,-7.033,-8.596,-6.252
'[04:51:45.594 05/09/2075]',-16.801,-22.662,-15.238,-12.503,-21.099,-21.099,-9.768,-14.847,-31.648,-32.430,19.145,2.344,-18.364,-33.993,-4.298,16.410,-28.132,-83.614,16.020,13.675,-18.755,-9.768,-4.298
'[04:51:45.598 05/09/2075]',-19.145,-14.847,-13.675,-21.490,-19.145,-15.629,-7.424,-26.178,-25.006,-7.033,-2.735,-5.079,-16.410,-27.741,-0.391,5.861,0.781,7.033,14.457,8.987,-11.722,-9.768,-0.391
'[04:51:45.602 05/09/2075]',-21.880,-12.112,-10.549,-21.099,-20.317,-16.020,-3.907,-25.397,-23.053,11.722,-15.629,-7.033,-17.192,-21.099,7.424,-2.344,12.503,30.476,11.331,3.907,-1.563,-10.549,7.424
'[04:51:45.605 05/09/2075]',-19.927,-11.722,-12.503,-12.112,-17.582,-12.112,-2.735,-23.834,-25.006,-6.642,17.973,-10.159,-13.675,-15.629,10.549,-4.298,-12.503,-42.979,13.284,3.126,0.000,-3.907,10.549
'[04:51:45.609 05/09/2075]',-20.317,-4.298,0.391,-22.662,-11.722,-7.814,0.781,-28.523,-19.145,-7.033,29.304,-16.410,-9.377,-5.861,12.894,-9.377,-8.596,-19.536,0.391,-0.781,5.470,1.954,12.894
'[04:51:45.613 05/09/2075]',-21.490,-6.642,8.987,-21.880,-10.940,-10.549,4.298,-24.615,-14.847,11.722,8.205,-10.940,-8.987,-5.079,19.927,-9.768,3.126,3.516,-8.205,-3.516,7.033,6.252,19.927
'[04:51:45.617 05/09/2075]',-18.755,-11.722,10.159,-17.582,-12.503,-10.940,4.689,-19.145,-19.145,-1.954,17.973,-1.954,-12.894,-10.940,22.271,-2.735,-12.503,-57.436,-9.377,-2.344,-0.391,7.814,22.271
'[04:51:45.621 05/09/2075]',-19.536,-11.722,11.331,-22.662,-13.284,-8.596,3.516,-24.615,-20.708,7.814,11.722,-8.596,-9.768,-14.847,21.099,-5.470,-8.987,-10.159,-10.549,-2.344,0.391,5.079,21.099
'[04:51:45.625 05/09/2075]',-18.755,-8.205,16.410,-29.304,-8.596,-10.159,5.861,-27.741,-19.536,21.099,-3.516,-14.847,-12.112,-13.284,21.099,-10.940,12.894,46.105,-15.629,-5.861,4.689,5.079,21.099
'[04:51:45.629 05/09/2075]',-19.927,-10.940,9.768,-19.145,-8.596,-14.457,6.642,-23.834,-25.006,8.205,9.377,-10.940,-12.503,-16.020,18.364,-7.424,-3.126,-27.350,-8.987,-3.907,0.781,6.642,18.364
'[04:51:45.633 05/09/2075]',-20.708,-9.768,10.549,-18.364,-7.814,-12.894,6.252,-24.225,-23.053,3.126,15.629,-14.847,-8.205,-16.020,9.768,-2.344,-6.642,-35.165,-9.768,-5.079,3.516,8.596,9.768
'[04:51:45.637 05/09/2075]',-20.708,-9.377,18.364,-34.383,-6.642,-14.847,7.033,-31.648,-12.894,27.741,-15.629,-23.053,-8.205,-12.112,4.689,-6.642,14.066,34.774,-17.582,-4.689,1.954,10.159,4.689
'[04:51:45.641 05/09/2075]',-23.443,-16.410,14.847,-33.211,-9.377,-20.708,5.861,-33.211,-13.284,28.913,-26.178,-17.973,-10.549,-15.238,5.861,-7.424,12.894,-8.987,-14.066,-3.516,1.954,8.987,5.861
'[04:51:45.645 05/09/2075]',-25.006,-19.145,9.377,-33.211,-10.549,-22.271,3.907,-39.072,-20.708,6.252,-5.861,-14.847,-11.722,-19.927,1.172,-3.516,-6.642,-96.508,-8.596,-4.298,2.735,6.642,1.172
'[04:51:45.648 05/09/2075]',-23.443,-19.536,8.596,-37.900,-8.205,-21.880,4.689,-46.886,-16.020,12.894,-16.020,-18.364,-13.675,-18.755,3.126,-7.033,8.205,-31.258,-7.814,-2.735,1.172,5.470,3.126
'[04:51:45.652 05/09/2075]',-23.834,-12.503,5.861,-40.244,-4.298,-20.317,8.987,-54.310,-7.814,37.118,-44.933,-20.708,-12.894,-13.284,8.987,-17.582,29.695,39.072,-5.079,-5.861,2.344,8.596,8.987
'[04:51:45.656 05/09/2075]',-25.006,-10.549,2.735,-29.304,-7.033,-19.536,10.940,-47.277,-14.847,13.284,-21.490,-10.549,-12.112,-17.192,2.735,-5.079,9.377,-46.496,-1.954,-4.689,0.781,9.377,2.735
'[04:51:45.660 05/09/2075]',-19.927,-6.252,4.298,-30.085,-3.907,-14.457,13.675,-48.059,-15.629,-5.079,3.516,-12.894,-11.331,-14.457,1.563,-5.079,0.391,-76.190,-3.516,-2.344,-0.391,10.159,1.563
'[04:51:45.664 05/09/2075]',-16.801,-1.954,13.675,-43.761,-1.563,-14.066,17.973,-51.575,-5.079,14.847,-22.662,-13.284,-7.814,-8.596,6.642,-15.629,26.569,16.801,-12.894,-5.470,5.079,12.503,6.642
'[04:51:45.668 05/09/2075]',-19.145,-5.079,13.675,-37.900,-7.814,-15.629,20.708,-45.324,-10.549,17.582,-28.132,-5.470,-8.987,-13.675,10.549,-13.675,28.523,6.642,-12.894,-5.861,5.079,10.940,10.549
'[04:51:45.672 05/09/2075]',-13.675,-7.424,14.066,-37.118,-4.298,-15.238,20.317,-43.761,-17.582,-0.391,-6.642,-1.563,-8.596,-15.238,8.205,-10.159,6.642,-48.840,-13.284,-2.735,5.861,6.252,8.205
'[04:51:45.676 05/09/2075]',-18.755,-5.470,10.940,-44.542,-10.940,-15.238,19.536,-51.184,-17.192,2.344,-9.377,-5.079,-6.252,-14.847,9.768,-16.801,10.159,-7.033,-10.159,-3.126,5.079,6.252,9.768
'[04:51:45.680 05/09/2075]',-21.880,-7.814,4.298,-40.244,-16.020,-17.582,16.410,-48.449,-21.490,11.722,-24.225,4.689,-7.814,-15.629,11.331,-15.629,14.457,-11.331,-3.516,-2.344,6.252,4.298,11.331
'[04:51:45.684 05/09/2075]',-20.317,-11.331,-6.642,-35.556,-16.410,-19.927,7.814,-46.496,-26.178,-3.516,-12.894,10.549,-7.814,-17.582,4.689,-10.549,-3.516,-78.144,7.424,1.172,5.079,1.954,4.689
'[04:51:45.688 05/09/2075]',-19.145,-7.424,-11.722,-42.198,-12.894,-20.317,3.516,-51.966,-24.225,6.642,-21.880,12.503,-7.814,-16.801,12.112,-12.503,5.079,-7.424,12.503,-1.954,7.814,6.252,12.112
'[04:51:45.691 05/09/2075]',-15.238,-11.722,-16.410,-50.012,-12.112,-25.788,1.954,-58.217,-20.317,17.192,-40.635,9.768,-6.252,-20.317,8.987,-14.457,19.536,36.728,17.192,-1.563,8.205,3.126,8.987
'[04:51:45.695 05/09/2075]',-13.284,-16.801,-25.006,-45.324,-9.377,-32.430,-0.781,-57.827,-29.304,-5.861,-18.755,12.503,-4.689,-29.695,-0.391,-4.298,-3.516,-47.668,25.788,1.172,6.252,0.000,-0.391
'[04:51:45.699 05/09/2075]',-16.410,-15.238,-21.099,-59.389,-10.940,-34.383,-0.781,-65.641,-32.821,-16.020,-9.768,3.126,-4.298,-33.993,-11.331,-3.516,-14.457,-43.761,21.880,-1.172,9.377,0.000,-11.331
'[04:51:45.703 05/09/2075]',-14.847,-17.973,-19.927,-67.595,-11.722,-35.556,0.781,-73.455,-26.178,8.205,-39.853,-5.079,-2.344,-34.383,-8.987,-14.066,3.516,45.714,20.708,-1.563,10.549,0.000,-8.987
'[04:51:45.707 05/09/2075]',-12.894,-19.536,-19.927,-61.343,-10.159,-37.118,1.172,-67.595,-30.085,3.907,-32.430,2.344,-3.516,-33.993,-5.470,-9.768,-3.907,-5.470,20.708,-1.172,13.675,-1.172,-5.470
'[04:51:45.711 05/09/2075]',-9.377,-17.582,-23.053,-56.654,-5.470,-35.946,0.000,-66.032,-33.602,-14.847,-0.781,2.344,-0.781,-33.602,-3.907,-6.252,-26.178,-78.144,23.834,-4.298,15.629,-0.781,-3.907
'[04:51:45.715 05/09/2075]',-8.596,-16.020,-17.192,-60.171,-5.079,-35.946,4.298,-66.813,-29.695,-2.344,-6.252,0.391,0.391,-30.867,4.298,-9.768,-5.861,7.424,17.973,-6.252,13.675,1.954,4.298
'[04:51:45.719 05/09/2075]',-7.814,-14.457,-13.284,-62.906,-4.689,-35.946,9.768,-69.548,-23.053,17.192,-25.788,-1.954,3.126,-29.304,9.377,-16.020,5.470,55.482,14.066,-4.298,14.457,1.172,9.377
'[04:51:45.723 05/09/2075]',-12.894,-15.238,-10.159,-58.999,-10.159,-38.291,10.549,-61.343,-32.039,-6.642,1.954,4.298,4.689,-34.383,2.735,-3.516,-21.880,-35.556,10.940,-7.424,16.020,0.391,2.735
'[04:51:45.727 05/09/2075]',-12.894,-13.284,-1.954,-66.032,-14.847,-35.946,16.801,-61.343,-39.463,-24.225,29.695,1.563,3.907,-34.774,6.252,-6.252,-35.556,-68.376,2.735,-7.033,12.894,0.781,6.252
'[04:51:45.730 05/09/2075]',-11.722,-9.768,1.954,-68.767,-14.457,-32.039,22.662,-64.860,-30.476,3.907,0.391,0.000,3.516,-33.602,14.457,-9.377,-8.987,29.304,-1.172,-6.642,13.284,-1.172,14.457
'[04:51:45.734 05/09/2075]',-13.284,-7.814,-1.172,-56.264,-13.675,-33.602,23.053,-55.482,-31.648,8.596,-4.298,8.596,1.954,-35.946,18.364,-1.172,-8.987,14.066,1.954,-7.814,10.549,-2.735,18.364
'[04:51:45.738 05/09/2075]',-14.847,-6.252,1.172,-53.138,-10.940,-32.430,24.615,-54.701,-34.774,-8.205,22.271,9.377,1.172,-34.383,26.960,-4.298,-22.662,-9.768,-0.391,-7.424,6.252,0.391,26.960
'[04:51:45.742 05/09/2075]',-12.503,-5.079,2.735,-57.827,-8.596,-30.476,26.960,-60.562,-33.993,-5.079,20.317,5.470,2.344,-30.476,28.913,-12.112,-6.642,51.184,-1.954,-6.642,9.768,0.000,28.913
'[04:51:45.746 05/09/2075]',-14.457,-6.642,11.331,-62.515,-9.768,-33.993,28.523,-57.045,-40.244,-8.596,20.317,13.284,0.000,-30.476,29.304,-12.503,-10.549,8.987,-10.549,-10.159,14.847,-0.781,29.304
'[04:51:45.750 05/09/2075]',-15.238,-6.252,14.847,-61.734,-10.549,-33.993,29.695,-53.529,-44.151,-20.708,33.211,21.880,-0.391,-28.132,29.304,-8.205,-29.695,-50.403,-14.066,-14.457,17.192,1.563,29.304
'[04:51:45.754 05/09/2075]',-14.066,-0.781,14.066,-69.548,-9.377,-32.430,32.039,-59.780,-35.556,0.391,10.940,16.410,1.563,-24.225,26.960,-11.331,-13.284,31.258,-13.284,-12.894,15.629,1.172,26.960
'[04:51:45.758 05/09/2075]',-17.192,3.126,11.722,-65.250,-5.470,-33.993,33.211,-60.952,-26.178,13.675,-12.894,17.192,4.689,-26.960,20.317,-4.689,1.954,56.264,-10.940,-14.847,14.847,1.954,20.317
'[04:51:45.762 05/09/2075]',-13.284,0.000,1.954,-51.966,-2.344,-37.118,30.476,-54.701,-30.085,-12.503,8.987,21.490,4.689,-30.476,17.582,-2.344,-17.192,-30.867,-1.172,-12.112,7.814,2.344,17.582
'[04:51:45.766 05/09/2075]',-8.205,0.391,-0.391,-60.562,-0.781,-36.337,26.960,-60.171,-25.397,-29.695,20.317,9.768,7.033,-32.430,8.596,-7.033,-16.410,-5.079,1.172,-6.252,0.000,0.391,8.596
'[04:51:45.770 05/09/2075]',-5.861,1.172,4.298,-69.548,-1.954,-33.211,28.913,-62.906,-16.020,-9.768,-11.331,5.470,9.377,-32.430,3.907,-11.331,1.954,71.502,-3.516,-6.252,0.391,-5.079,3.907
'[04:51:45.773 05/09/2075]',-8.205,0.781,14.457,-68.376,-7.033,-30.085,32.821,-55.873,-18.755,-20.317,5.470,18.364,7.424,-30.085,18.755,-10.159,-11.331,-7.033,-13.675,-7.814,-1.954,-2.344,18.755
'[04:51:45.777 05/09/2075]',-7.033,7.033,14.066,-64.078,-4.298,-25.788,33.993,-52.357,-20.708,-35.165,35.165,28.913,12.894,-24.225,20.317,0.391,-28.913,-74.237,-13.284,-8.987,-1.563,-0.781,20.317
'[04:51:45.781 05/09/2075]',-11.722,11.331,6.252,-59.780,-4.298,-26.960,33.602,-55.092,-12.894,-15.238,14.457,26.178,17.582,-21.099,18.755,-1.563,-7.033,7.424,-5.470,-10.940,4.298,-1.563,18.755
'[04:51:45.785 05/09/2075]',-14.847,8.987,1.954,-58.217,-5.470,-32.430,33.993,-57.436,-17.582,1.563,-6.642,23.053,13.675,-19.536,17.973,-10.549,6.642,36.728,-1.172,-9.377,14.066,-3.126,17.973
'[04:51:45.789 05/09/2075]',-10.159,-0.391,-18.364,-48.840,-9.377,-41.807,26.178,-53.919,-32.039,-32.430,20.317,22.662,12.894,-26.178,-2.344,-3.516,-24.225,-60.562,19.145,-5.079,14.066,-8.205,-2.344
'[04:51:45.793 05/09/2075]',-11.331,-8.596,-22.271,-58.999,-16.801,-44.151,24.225,-66.032,-35.556,-40.244,25.788,7.033,12.503,-28.523,-11.722,-13.284,-30.867,-61.734,23.053,3.126,16.410,-14.457,-11.722
'[04:51:45.797 05/09/2075]',-13.675,-8.596,-6.252,-69.548,-18.364,-42.589,30.085,-67.595,-27.350,-12.112,-3.516,15.238,12.112,-26.178,3.516,-16.020,-5.079,12.894,7.033,4.689,15.629,-13.284,3.516
'[04:51:45.801 05/09/2075]',-12.112,-11.331,-2.735,-58.999,-16.410,-42.589,30.085,-57.436,-23.053,-10.549,-4.298,37.509,12.112,-26.178,10.549,2.735,-6.252,-17.973,3.516,5.079,11.331,-10.940,10.549
'[04:51:45.805 05/09/2075]',-14.847,-3.907,3.907,-56.654,-9.377,-39.853,30.867,-54.310,-16.020,-10.940,6.642,41.807,14.457,-20.708,18.364,8.987,-10.549,-7.033,-3.126,2.735,14.847,-8.987,18.364
'[04:51:45.809 05/09/2075]',-15.629,1.954,5.079,-60.952,-3.516,-38.681,31.258,-58.217,-6.642,0.391,-3.516,35.556,16.801,-15.238,23.834,0.391,7.424,60.562,-4.298,0.391,21.490,-7.033,23.834
'[04:51:45.813 05/09/2075]',-12.894,0.391,-7.814,-47.668,-1.563,-43.370,26.960,-51.184,-11.722,-10.549,1.954,41.416,16.801,-19.536,16.410,6.642,-4.689,-1.954,8.596,0.391,21.880,-6.642,16.410
'[04:51:45.816 05/09/2075]',-9.768,-7.814,-17.973,-45.324,-5.470,-47.277,22.271,-52.357,-21.880,-23.834,19.536,34.774,17.192,-24.615,9.377,5.861,-25.397,-56.264,18.755,5.079,20.708,-9.377,9.377
'[04:51:45.820 05/09/2075]',-7.814,-10.549,-17.973,-55.482,-9.377,-45.714,23.443,-62.125,-17.582,0.391,-3.907,22.271,20.708,-25.788,10.940,-3.126,-6.642,29.695,18.755,10.940,18.364,-12.112,10.940
'[04:51:45.824 05/09/2075]',-3.516,-13.284,-19.536,-55.873,-7.424,-48.449,25.397,-62.906,-16.801,11.722,-14.457,21.490,19.145,-26.960,17.192,-6.252,1.954,28.523,20.317,11.722,11.331,-8.987,17.192
'[04:51:45.828 05/09/2075]',-2.344,-13.284,-16.020,-56.654,-5.470,-49.621,25.397,-59.780,-22.662,-12.112,16.020,26.960,16.801,-25.006,14.066,2.735,-16.020,-55.873,16.801,12.112,9.377,-11.722,14.066
'[04:51:45.832 05/09/2075]',-2.735,-7.814,-8.596,-63.687,-4.298,-46.886,28.523,-61.343,-15.238,-14.457,19.536,20.317,21.099,-23.834,12.894,0.391,-14.066,-13.284,9.377,9.377,12.112,-11.722,12.894
'[04:51:45.836 05/09/2075]',-5.470,-2.344,-2.735,-68.376,-0.781,-44.542,31.648,-64.469,-1.954,6.252,-9.768,17.192,22.271,-19.927,11.722,-1.563,4.298,64.078,3.516,2.344,17.973,-7.814,11.722
'[04:51:45.840 05/09/2075]',-3.126,-5.470,-7.033,-54.310,0.000,-44.933,28.523,-55.092,-5.470,-14.457,5.470,27.741,20.708,-27.741,2.344,17.582,-11.331,-14.066,7.814,3.126,14.066,-10.549,2.344
'[04:51:45.844 05/09/2075]',-7.033,-9.377,2.735,-63.687,-6.642,-41.807,30.476,-59.389,-11.331,-32.430,30.476,19.145,19.927,-28.132,-0.781,14.847,-32.039,-65.250,-1.954,5.470,16.801,-14.066,-0.781
'[04:51:45.848 05/09/2075]',-7.814,-2.735,4.298,-66.422,-3.126,-37.900,31.648,-63.297,0.781,-13.284,3.907,12.112,21.099,-28.913,1.954,10.549,-3.516,41.026,-3.516,1.954,14.066,-14.066,1.954
'[04:51:45.852 05/09/2075]',-2.344,-3.516,5.079,-65.250,1.172,-39.072,34.383,-64.078,8.596,6.642,-18.364,7.033,20.317,-25.006,8.987,0.781,14.847,92.601,-4.298,2.344,10.940,-12.503,8.987
'[04:51:45.855 05/09/2075]',-3.126,-5.470,1.172,-55.873,1.954,-41.026,32.430,-57.045,-4.298,-24.225,19.927,12.112,17.973,-25.397,6.642,4.298,-17.582,-16.801,-0.391,2.344,7.033,-10.159,6.642
'[04:51:45.859 05/09/2075]',0.391,1.563,2.344,-55.092,9.768,-35.946,33.993,-58.999,1.172,-29.695,32.430,5.861,26.960,-23.834,3.516,3.516,-16.410,-1.172,-1.563,0.391,10.940,-11.331,3.516
'[04:51:45.863 05/09/2075]',3.907,0.781,3.907,-49.231,14.457,-35.556,33.993,-53.919,6.252,-9.768,9.377,7.033,28.132,-21.490,2.735,3.907,3.126,28.913,-3.126,-0.391,6.642,-7.033,2.735
'[04:51:45.867 05/09/2075]',5.470,-1.563,13.675,-46.886,12.894,-35.165,34.774,-43.370,-0.391,-18.364,17.973,20.317,21.099,-24.225,0.781,21.099,-10.159,-35.556,-12.894,0.391,-2.735,-4.298,0.781
'[04:51:45.871 05/09/2075]',0.781,5.079,19.536,-49.621,10.549,-30.476,33.993,-38.291,5.861,-15.629,15.629,9.377,27.350,-22.271,-7.424,18.755,-5.470,12.894,-18.755,-1.563,2.735,-7.424,-7.424
'[04:51:45.875 05/09/2075]',-0.391,8.596,21.880,-53.919,12.894,-30.867,35.165,-41.416,13.284,-4.689,-0.391,4.689,24.615,-17.582,2.735,4.298,15.238,69.939,-21.099,-3.126,3.516,-2.735,2.735
'[04:51:45.879 05/09/2075]',-2.344,7.814,22.662,-45.714,15.629,-35.165,33.211,-32.039,7.424,-21.099,8.987,15.629,21.490,-19.536,0.391,10.159,-1.563,-7.814,-21.880,-5.470,7.033,-2.344,0.391
'[04:51:45.883 05/09/2075]',-3.516,10.549,14.457,-42.198,18.755,-34.774,28.523,-33.211,6.642,-37.900,28.132,6.642,27.741,-20.708,-2.735,1.172,-18.364,-43.370,-13.675,-5.079,12.503,-4.689,-2.735
'[04:51:45.887 05/09/2075]',-2.344,17.192,24.615,-51.575,25.788,-33.602,31.258,-36.337,17.582,-8.596,-4.298,5.079,29.304,-17.192,0.391,0.000,2.735,48.059,-23.834,-8.205,12.503,-1.172,0.391
'[04:51:45.891 05/09/2075]',-2.344,16.801,26.178,-44.151,27.350,-34.383,30.476,-27.350,16.801,-2.735,-12.894,18.755,27.350,-19.145,2.344,9.377,3.907,21.490,-25.397,-8.987,8.596,-0.781,2.344
'[04:51:45.895 05/09/2075]',-7.814,15.238,20.317,-39.853,22.662,-35.165,26.178,-26.569,9.768,-24.225,11.722,14.066,25.006,-22.271,-1.563,11.331,-14.066,-46.496,-19.536,-8.596,11.331,-5.470,-1.563
'[04:51:45.898 05/09/2075]',-6.252,14.847,17.973,-44.933,22.662,-36.337,25.788,-30.867,10.549,-25.006,6.642,6.252,23.053,-26.569,-8.205,11.722,-5.861,5.470,-17.192,-5.470,8.987,-10.549,-8.205
'[04:51:45.902 05/09/2075]',-2.735,12.112,16.410,-51.184,25.006,-39.853,22.662,-33.993,14.457,-8.987,-21.490,2.735,19.145,-28.523,-3.907,1.172,10.940,64.078,-15.629,-7.033,13.675,-14.847,-3.907
'[04:51:45.906 05/09/2075]',-3.126,7.033,7.033,-44.542,23.443,-45.714,15.629,-27.350,5.470,-32.039,-3.126,4.689,19.145,-37.118,-10.159,5.079,-15.629,-33.211,-6.252,-4.298,12.112,-19.145,-10.159
'[04:51:45.910 05/09/2075]',1.954,2.344,6.642,-52.357,26.960,-49.621,14.457,-33.211,4.689,-48.840,18.755,-12.112,24.225,-37.509,-12.894,-9.768,-31.648,-78.535,-5.861,0.000,15.238,-21.099,-12.894
'[04:51:45.914 05/09/2075]',5.079,6.642,16.410,-53.529,32.430,-45.714,17.192,-29.304,16.801,-23.834,-4.689,-0.391,26.569,-28.132,0.781,-10.159,-2.344,12.503,-15.629,-6.252,21.880,-12.894,0.781
'[04:51:45.918 05/09/2075]',-3.516,6.252,13.284,-48.449,25.788,-48.840,16.410,-26.178,18.364,-10.549,-17.973,0.781,23.053,-23.834,8.205,-16.801,4.298,3.907,-12.503,-5.861,19.145,-7.814,8.205
'[04:51:45.922 05/09/2075]',-4.689,4.298,7.033,-46.105,25.006,-48.840,13.284,-29.304,16.801,-32.039,4.298,-1.954,21.099,-20.708,-1.172,-10.940,-16.410,-54.701,-6.252,-1.954,19.145,-10.159,-1.172
'[04:51:45.926 05/09/2075]',-1.563,5.079,5.861,-48.449,28.913,-46.496,13.675,-36.337,19.927,-32.430,7.033,-1.172,20.317,-23.053,-5.470,2.344,-9.768,-23.834,-5.079,0.000,12.503,-9.768,-5.470
'[04:51:45.930 05/09/2075]',-4.298,1.954,-4.689,-40.244,26.569,-51.966,10.159,-33.993,19.536,-19.536,-16.020,-0.781,14.066,-27.741,-6.642,3.907,-2.735,-17.192,5.470,1.954,0.391,-8.987,-6.642
'[04:51:45.934 05/09/2075]',0.391,-2.735,-10.549,-36.728,30.476,-55.482,6.252,-33.993,14.457,-31.648,-7.033,-6.252,17.973,-33.993,-14.847,1.172,-20.708,-78.926,11.331,6.252,5.861,-16.020,-14.847
'[04:51:45.938 05/09/2075]',2.735,-0.391,2.735,-44.151,34.774,-51.966,13.284,-35.946,21.490,-23.443,-10.159,-10.940,17.582,-34.774,-10.159,5.079,-10.159,-12.112,-1.954,-0.781,1.172,-8.205,-10.159
'[04:51:45.941 05/09/2075]',1.563,5.861,3.907,-32.430,39.853,-50.012,19.927,-30.476,30.867,-2.735,-19.145,-6.642,19.536,-21.880,15.238,-10.940,11.722,37.900,-3.126,-2.344,3.126,-1.172,15.238
'[04:51:45.945 05/09/2075]',1.172,4.298,5.079,-26.960,41.807,-52.357,18.755,-23.834,26.960,-22.662,1.172,4.298,21.880,-21.490,10.940,-1.563,-4.689,-42.979,-4.298,-1.172,14.066,-4.689,10.940
'[04:51:45.949 05/09/2075]',0.000,3.907,0.781,-23.834,40.244,-50.012,16.410,-26.569,27.741,-35.556,10.940,-4.689,22.271,-22.662,-5.470,4.689,-12.503,-49.621,0.000,-0.391,12.503,-5.470,-5.470
'[04:51:45.953 05/09/2075]',-0.391,3.516,-1.563,-23.053,38.291,-49.621,19.927,-30.085,35.165,-4.298,-23.443,-16.801,21.490,-21.880,-2.344,-5.079,8.205,35.556,2.344,0.391,7.814,-3.516,-2.344
'[04:51:45.957 05/09/2075]',0.781,-0.781,-3.907,-23.053,35.556,-51.184,13.675,-26.569,30.476,-8.987,-26.569,-18.364,17.582,-24.225,-10.940,-4.689,5.470,-13.284,4.689,0.000,8.205,-6.252,-10.940
'[04:51:45.961 05/09/2075]',1.563,0.391,3.907,-25.397,37.509,-47.668,15.629,-25.788,26.178,-33.993,4.689,-27.741,17.582,-26.569,-14.847,-4.689,-13.675,-86.349,-3.126,-2.735,1.954,-3.907,-14.847
'[04:51:45.965 05/09/2075]',4.298,4.298,17.973,-22.662,40.635,-41.026,24.225,-19.145,34.383,-19.536,3.516,-19.536,20.317,-20.317,0.781,0.000,5.861,-1.954,-17.192,-8.987,2.735,0.781,0.781
'[04:51:45.969 05/09/2075]',3.126,8.987,27.350,-12.894,46.105,-39.072,29.304,-8.987,42.979,4.689,-10.549,9.768,19.536,-8.205,23.834,12.503,26.178,55.482,-26.569,-8.596,3.126,8.987,23.834
'[04:51:45.973 05/09/2075]',1.954,8.205,28.132,-2.344,44.151,-38.291,28.523,1.172,34.774,-23.053,17.192,23.053,18.364,-11.331,18.755,26.960,-2.344,-29.304,-27.350,-10.549,8.205,7.033,18.755
'[04:51:45.977 05/09/2075]',0.781,7.814,28.913,0.391,41.416,-37.118,31.648,3.126,32.039,-38.681,38.681,20.708,19.536,-10.549,18.364,26.960,-17.192,-71.893,-28.132,-10.159,11.331,5.470,18.364
'[04:51:45.980 05/09/2075]',3.907,4.298,24.225,-1.954,40.244,-39.072,31.258,-1.172,39.853,-14.457,1.954,11.331,16.410,-10.549,24.225,9.768,10.940,28.913,-23.443,-7.814,8.205,5.861,24.225
'[04:51:45.984 05/09/2075]',2.735,3.907,16.410,3.516,38.291,-41.026,24.615,5.079,35.946,-16.801,-7.033,7.814,12.503,-17.973,19.145,7.033,12.503,16.801,-15.629,-5.079,0.781,2.735,19.145
'[04:51:45.988 05/09/2075]',6.642,0.781,16.801,2.735,40.635,-42.589,23.834,6.642,36.337,-39.853,14.066,-0.781,18.755,-19.927,8.987,3.126,-5.861,-14.066,-16.020,-1.563,6.252,-4.298,8.987
'[04:51:45.992 05/09/2075]',8.205,9.377,15.238,-1.172,45.324,-41.026,24.225,4.689,37.118,-33.211,10.940,-2.735,20.317,-16.801,8.596,0.391,2.735,37.118,-14.457,-3.126,7.033,-5.861,8.596
'[04:51:45.996 05/09/2075]',5.861,13.284,10.549,9.768,46.105,-43.761,23.443,15.238,35.946,-35.946,10.940,8.596,17.192,-14.847,10.549,7.424,-0.781,5.861,-9.768,-5.079,2.344,-3.126,10.549
'[04:51:46.000 05/09/2075]',5.861,14.457,6.252,17.582,44.151,-44.933,23.443,23.053,33.993,-51.575,30.867,11.331,21.490,-7.814,11.331,0.391,-25.006,-55.092,-5.470,-5.861,11.331,-5.079,11.331
'[04:51:46.004 05/09/2075]',8.987,19.536,0.781,9.768,40.635,-42.589,22.662,19.145,41.416,-30.867,8.596,1.954,23.053,-3.516,14.847,-11.722,-12.112,25.397,0.000,-6.642,1.954,-2.344,14.847
'[04:51:46.008 05/09/2075]',10.549,17.192,-13.284,17.582,34.774,-43.761,19.145,21.880,44.151,-16.801,-11.722,-0.391,20.708,-2.344,17.192,-19.927,3.907,59.389,14.066,-3.516,-4.298,-1.954,17.192
'[04:51:46.012 05/09/2075]',11.722,13.284,-8.987,14.066,31.258,-45.714,15.629,28.913,35.946,-41.026,9.377,0.781,19.536,-4.298,9.768,-18.364,-12.503,-6.252,9.768,-2.344,-4.689,-4.689,9.768
'[04:51:46.016 05/09/2075]',12.894,14.457,-1.954,0.781,30.085,-44.151,13.675,27.350,31.258,-51.966,20.317,-9.377,20.317,-9.377,0.391,-19.145,-23.834,-3.516,2.735,-1.954,-2.344,-8.987,0.391
'[04:51:46.020 05/09/2075]',13.284,14.847,2.344,7.033,35.946,-43.761,12.112,33.993,41.026,-28.523,-6.642,-11.331,22.271,-8.596,3.516,-21.490,-0.781,74.628,-1.563,-5.861,4.298,-5.861,3.516
'[04:51:46.023 05/09/2075]',6.642,17.973,9.377,17.973,37.900,-46.105,13.284,47.668,37.118,-36.337,5.861,0.781,23.443,-10.940,7.033,-10.549,-12.503,9.377,-8.596,-5.861,8.596,-5.079,7.033
'[04:51:46.027 05/09/2075]',7.424,18.755,10.549,27.741,44.151,-44.933,12.112,55.482,35.165,-60.171,38.291,5.079,30.085,-14.066,7.814,-4.298,-37.118,-70.720,-9.768,-3.907,8.987,-3.516,7.814
'[04:51:46.031 05/09/2075]',7.424,22.271,-2.735,37.900,47.277,-48.059,9.768,55.873,44.151,-48.059,23.834,1.172,32.039,-12.503,14.066,-11.331,-16.020,11.722,3.516,3.907,-1.954,-1.172,14.066
'[04:51:46.035 05/09/2075]',2.344,17.582,-12.503,42.979,41.416,-53.138,8.596,53.919,44.151,-32.821,1.172,-7.814,30.476,-12.894,14.066,-26.960,-7.033,45.714,13.284,9.377,3.907,-3.516,14.066
'[04:51:46.039 05/09/2075]',3.516,6.252,-17.192,53.138,36.728,-59.389,6.252,62.515,30.476,-71.893,41.807,-7.033,28.523,-14.457,4.689,-24.615,-44.933,-66.032,17.973,14.066,7.033,-5.861,4.689
'[04:51:46.043 05/09/2075]',5.470,1.563,-26.960,57.827,35.946,-59.389,2.344,59.780,29.304,-84.396,54.310,-20.708,32.430,-13.284,-2.735,-35.946,-57.827,-78.926,27.741,19.536,14.847,-8.596,-2.735
'[04:51:46.047 05/09/2075]',12.112,-4.689,-19.927,46.105,34.774,-60.562,7.033,51.966,38.291,-51.966,17.582,-29.695,37.118,-12.894,0.781,-48.840,-30.085,25.788,20.708,18.755,23.834,-9.377,0.781
'[04:51:46.051 05/09/2075]',10.159,9.377,-0.781,63.687,38.681,-52.357,16.020,80.488,38.291,-50.012,20.708,3.126,35.556,-12.894,6.642,-15.238,-32.039,8.987,1.563,13.284,19.145,-7.814,6.642
'[04:51:46.055 05/09/2075]',8.987,14.457,3.126,69.158,38.291,-46.496,20.317,84.786,40.635,-55.873,36.337,12.112,34.774,-12.112,14.847,-1.954,-37.118,20.708,-2.344,9.377,14.066,-3.907,14.847
'[04:51:46.059 05/09/2075]',8.205,21.490,0.000,75.800,39.072,-43.370,23.053,86.349,48.059,-49.231,28.913,8.987,35.946,-12.112,20.317,-4.689,-19.145,84.786,0.781,11.722,10.549,-5.079,20.317
'[04:51:46.063 05/09/2075]',-2.344,19.927,-7.033,92.210,28.913,-46.886,21.490,98.462,36.728,-61.343,33.993,21.490,24.225,-14.457,14.457,7.424,-31.258,19.927,7.814,12.894,7.424,-7.814,14.457
'[04:51:46.066 05/09/2075]',-3.126,8.987,-11.722,89.866,25.788,-51.575,14.847,94.945,28.523,-79.707,45.324,8.205,24.615,-19.927,-2.344,1.563,-55.092,-48.059,12.503,11.722,19.145,-13.284,-2.344
'[04:51:46.070 05/09/2075]',-0.781,7.424,-21.880,81.270,28.523,-54.310,9.377,82.051,37.118,-55.092,14.066,-20.317,32.821,-19.927,-9.377,-25.397,-39.072,33.993,22.662,15.629,23.443,-13.284,-9.377
'[04:51:46.074 05/09/2075]',0.391,17.582,-12.112,69.939,36.337,-54.310,11.331,81.661,42.198,-38.291,-4.298,-8.987,32.039,-20.708,-8.205,-11.331,-25.788,40.635,12.894,12.503,14.847,-11.331,-8.205
'[04:51:46.078 05/09/2075]',-1.172,21.490,7.814,65.641,41.416,-50.012,18.755,84.005,38.291,-54.701,25.788,-1.172,32.430,-19.536,-7.814,4.298,-40.244,-43.370,-7.033,5.470,19.927,-8.596,-7.814
'[04:51:46.082 05/09/2075]',0.391,19.145,14.457,78.144,44.933,-43.761,23.053,89.084,47.668,-58.608,38.291,12.112,37.118,-17.973,4.298,17.192,-29.695,-7.033,-13.675,0.391,24.225,0.781,4.298
'[04:51:46.086 05/09/2075]',1.172,27.350,15.629,82.442,46.105,-37.509,27.350,91.819,60.171,-34.383,6.642,32.821,36.337,-16.410,11.331,35.165,-3.907,67.595,-14.847,9.768,7.033,2.344,11.331
'[04:51:46.090 05/09/2075]',-3.516,20.317,14.066,95.336,41.416,-38.291,27.350,96.117,54.310,-50.012,20.317,40.244,35.165,-17.582,10.159,37.509,-17.973,-8.987,-13.284,11.331,17.582,1.172,10.159
'[04:51:46.094 05/09/2075]',-0.391,11.722,2.735,94.945,43.370,-38.681,21.490,83.614,52.357,-68.767,35.165,19.536,39.072,-15.238,-0.781,17.192,-38.681,-68.376,-1.954,5.861,31.258,3.126,-0.781
'[04:51:46.098 05/09/2075]',-1.172,24.225,0.391,75.800,50.403,-38.291,17.582,69.158,67.204,-50.794,-2.735,-3.907,44.933,-22.662,-21.880,10.940,-12.112,26.178,0.391,7.033,27.350,-5.861,-21.880
'[04:51:46.102 05/09/2075]',0.391,20.317,-0.781,56.264,52.357,-41.807,15.629,49.231,65.641,-26.569,-35.165,-33.993,36.728,-25.006,-35.946,-5.079,-0.781,67.985,1.563,4.689,25.006,-10.159,-35.946
'[04:51:46.105 05/09/2075]',-5.470,13.675,1.954,57.827,48.059,-42.979,10.940,52.357,55.092,-61.734,-0.781,-32.430,36.337,-28.132,-46.105,-1.172,-32.430,-44.151,-1.172,-4.689,43.761,-12.112,-46.105
'[04:51:46.109 05/09/2075]',1.954,10.940,5.470,56.264,47.668,-39.853,13.284,54.701,55.092,-71.111,17.973,-21.490,39.072,-32.039,-37.118,10.940,-34.383,-35.946,-4.689,0.781,28.523,-12.894,-37.118
'[04:51:46.113 05/09/2075]',0.391,17.973,5.079,59.389,47.668,-37.509,18.755,55.482,57.045,-42.589,8.987,-3.907,37.118,-17.192,1.954,-1.954,-14.066,8.987,-4.298,10.940,8.596,3.907,1.954
'[04:51:46.117 05/09/2075]',-5.470,12.894,-1.172,80.488,45.324,-39.072,15.238,64.860,55.482,-46.496,18.755,19.145,41.807,-1.954,14.457,-6.252,-25.397,-50.403,1.954,0.391,34.774,17.582,14.457
'[04:51:46.121 05/09/2075]',5.861,14.066,7.033,51.966,51.575,-35.165,12.503,51.966,60.952,-42.198,15.238,-10.940,48.449,-1.172,0.781,-23.834,-24.225,-15.629,-6.252,-2.344,38.291,11.722,0.781
'[04:51:46.125 05/09/2075]',4.298,24.615,11.331,39.072,53.529,-32.821,14.457,45.714,67.595,-28.913,-0.391,-22.271,51.184,0.391,0.391,-33.993,-2.735,48.840,-10.549,-1.563,38.291,8.205,0.391
'[04:51:46.129 05/09/2075]',3.907,17.973,11.331,42.198,54.310,-36.337,8.987,50.012,63.297,-44.151,11.722,-15.238,49.621,1.563,-3.126,-30.476,-16.801,-28.132,-10.549,-5.470,51.575,4.689,-3.126
'[04:51:46.133 05/09/2075]',10.940,22.662,31.258,36.728,59.780,-31.648,14.066,60.952,63.297,-60.562,41.807,7.424,48.840,-0.781,12.503,-6.642,-27.350,-56.654,-30.476,-3.516,31.258,9.377,12.503
'[04:51:46.137 05/09/2075]',10.159,31.258,33.602,42.979,60.562,-28.913,20.708,67.985,74.237,-34.774,26.960,30.476,46.886,5.079,42.979,2.344,-5.470,45.324,-32.821,5.861,3.126,22.271,42.979
'[04:51:46.141 05/09/2075]',5.861,19.927,31.648,57.827,58.217,-32.821,18.755,72.283,70.720,-28.132,19.145,45.324,42.589,7.814,50.403,6.252,-1.172,32.039,-30.867,-5.079,20.708,29.695,50.403
'[04:51:46.145 05/09/2075]',13.675,21.099,30.867,52.357,65.250,-29.695,16.801,67.204,68.767,-45.714,41.026,33.211,43.761,7.814,43.761,1.172,-19.145,-35.165,-30.085,-5.079,14.066,30.476,43.761
'[04:51:46.148 05/09/2075]',16.020,12.503,17.192,51.184,64.860,-32.430,9.768,56.264,71.893,-50.012,31.648,8.205,47.277,-0.781,23.443,-7.814,-14.066,14.847,-16.410,-9.768,32.039,17.192,23.443
'[04:51:46.152 05/09/2075]',14.066,3.126,3.126,44.151,63.687,-39.853,4.689,37.509,77.363,-33.211,-4.689,-27.350,45.714,-1.563,5.470,-38.291,-1.954,75.409,-2.344,-8.987,47.668,9.768,5.470
'[04:51:46.156 05/09/2075]',7.814,1.172,4.298,45.324,60.952,-46.105,5.079,39.463,69.939,-60.171,19.536,-32.039,38.291,-3.516,7.424,-44.933,-28.132,-10.940,-3.516,-5.079,45.714,8.987,7.424
'[04:51:46.160 05/09/2075]',8.987,5.079,20.317,49.231,65.641,-44.542,14.066,50.403,70.720,-82.442,59.389,-4.298,39.853,-1.563,22.662,-17.192,-43.761,-47.277,-19.536,-1.954,37.118,14.457,22.662
'[04:51:46.164 05/09/2075]',5.470,8.596,28.132,61.343,64.469,-40.635,19.145,62.125,81.270,-61.734,39.463,13.675,37.900,0.781,43.370,-8.987,-15.629,62.515,-27.350,-14.847,42.589,26.960,43.370
'[04:51:46.168 05/09/2075]',-2.344,11.331,42.198,61.343,64.078,-42.198,21.099,69.939,87.912,-46.496,11.331,18.755,42.198,7.033,35.165,-12.503,-3.907,68.767,-41.416,-20.317,73.065,19.927,35.165
'[04:51:46.172 05/09/2075]',8.987,10.940,17.192,63.687,65.641,-42.198,11.331,68.376,85.568,-73.846,28.913,-0.391,50.403,-2.344,11.722,-19.927,-32.039,-7.424,-16.410,-12.503,62.125,8.205,11.722
'[04:51:46.176 05/09/2075]',10.549,22.271,-8.205,66.422,70.720,-44.933,3.516,62.515,88.694,-82.051,22.271,-24.225,55.482,-10.940,-5.470,-33.602,-33.211,13.284,8.987,1.954,37.900,5.861,-5.470
'[04:51:46.180 05/09/2075]',7.033,27.741,-32.430,64.078,73.065,-53.138,-3.516,51.575,94.554,-67.985,-16.020,-73.455,57.827,-2.344,-39.072,-77.753,-29.695,17.973,33.211,9.377,52.747,-8.987,-39.072
'[04:51:46.184 05/09/2075]',7.814,28.913,-11.722,48.059,66.422,-55.092,8.987,53.138,81.661,-89.084,19.145,-68.376,45.324,-16.410,-14.847,-70.720,-54.310,-38.681,12.503,24.225,-1.563,-0.391,-14.847
'[04:51:46.188 05/09/2075]',14.066,42.198,23.834,90.256,82.051,-40.635,30.085,100.806,99.243,-69.548,47.277,30.085,46.496,3.516,49.231,8.205,-34.383,40.244,-23.053,10.549,-7.814,23.834,49.231
'[04:51:46.191 05/09/2075]',6.642,33.211,58.608,91.429,83.223,-39.463,39.463,108.620,110.574,-57.045,38.291,35.946,45.714,15.629,59.389,5.861,-12.503,98.071,-57.827,-8.596,41.026,23.834,59.389
'[04:51:46.195 05/09/2075]',8.987,29.304,51.966,107.839,84.005,-42.589,37.118,121.514,109.792,-85.958,60.952,54.310,42.589,12.894,60.952,21.099,-31.258,16.020,-51.184,-0.391,26.178,23.053,60.952
'[04:51:46.199 05/09/2075]',9.377,39.853,34.774,115.263,91.038,-39.853,29.695,120.733,116.825,-95.336,68.376,44.933,51.575,13.284,54.310,14.847,-39.463,0.781,-33.993,0.391,27.741,23.443,54.310
'[04:51:46.203 05/09/2075]',6.252,45.714,20.708,100.806,94.554,-43.761,20.708,104.713,129.719,-73.846,18.364,6.642,50.012,16.801,30.476,-16.410,-25.006,82.442,-19.927,-6.642,35.946,23.053,30.476
'[04:51:46.207 05/09/2075]',6.642,45.714,14.457,98.852,95.336,-47.277,19.145,100.806,129.328,-72.283,1.563,-2.735,47.668,8.987,21.099,-22.271,-32.430,39.463,-13.675,-12.894,28.523,24.615,21.099
'[04:51:46.211 05/09/2075]',4.298,50.794,29.695,87.521,95.336,-45.324,21.099,103.541,121.123,-91.819,28.132,6.642,44.542,2.344,30.085,-12.894,-56.264,-40.635,-28.913,-14.847,8.596,33.993,30.085
'[04:51:46.215 05/09/2075]',4.298,50.012,34.774,91.038,102.369,-44.151,20.708,103.932,128.156,-91.038,25.397,8.987,41.416,12.894,32.430,-15.629,-42.979,36.728,-33.993,-10.549,23.443,26.569,32.430
'[04:51:46.219 05/09/2075]',9.377,45.324,33.993,85.568,108.230,-43.761,17.973,94.164,137.534,-78.926,0.391,-4.689,50.012,4.689,30.085,-32.430,-32.039,87.521,-33.211,-0.781,26.178,17.582,30.085
'[04:51:46.223 05/09/2075]',10.549,43.761,14.847,98.071,108.620,-45.324,8.205,97.680,130.891,-114.090,30.476,-7.424,44.542,-0.391,27.741,-32.430,-60.562,-0.781,-14.066,13.284,5.079,14.066,27.741
'[04:51:46.227 05/09/2075]',7.424,41.416,8.596,96.508,109.792,-46.496,3.907,89.084,134.799,-129.328,41.807,-24.225,52.357,1.563,17.192,-48.840,-82.442,-41.026,-7.814,6.642,42.198,1.172,17.192
'[04:51:46.230 05/09/2075]',7.814,46.496,7.424,95.726,113.700,-47.277,6.252,87.521,145.739,-92.210,-5.861,-31.258,52.747,-2.735,19.145,-53.919,-51.575,63.687,-6.642,3.516,41.416,1.563,19.145
'[04:51:46.234 05/09/2075]',8.596,47.277,-1.172,105.885,108.620,-49.231,4.689,98.852,148.474,-69.939,-33.993,-21.099,47.668,-7.424,25.006,-42.589,-46.496,48.449,1.954,-1.172,18.364,14.066,25.006
'[04:51:46.238 05/09/2075]',6.642,65.250,1.172,96.899,110.965,-44.151,5.079,101.197,149.255,-72.674,-15.238,-14.457,50.012,4.689,36.337,-46.105,-62.515,0.781,-0.391,-5.079,18.364,17.192,36.337
'[04:51:46.242 05/09/2075]',16.020,67.985,-3.907,101.587,118.779,-40.635,3.126,102.759,157.070,-64.469,-19.145,-7.033,58.608,4.689,41.416,-41.026,-48.059,51.575,4.689,-4.298,19.927,17.192,41.416
'[04:51:46.246 05/09/2075]',19.536,67.204,-17.973,107.839,117.216,-42.198,-1.563,105.885,157.460,-63.297,-25.788,-7.033,57.827,3.907,42.589,-44.542,-49.621,28.132,18.755,0.391,-0.391,22.271,42.589
'[04:51:46.250 05/09/2075]',12.503,70.330,-15.629,100.415,117.998,-42.589,-12.112,106.276,155.897,-87.131,-17.973,-20.708,62.125,6.252,8.205,-48.059,-71.502,-28.132,16.410,-0.391,30.867,5.861,8.205
'[04:51:46.254 05/09/2075]',12.112,58.999,-32.039,82.051,117.998,-49.231,-23.443,78.144,158.242,-88.303,-48.059,-89.084,70.330,-1.563,-38.291,-97.680,-60.952,35.165,32.821,10.159,62.125,-16.410,-38.291
'[04:51:46.258 05/09/2075]',12.112,44.542,-41.807,71.111,109.011,-54.701,-27.741,61.343,154.335,-84.396,-68.376,-117.998,64.860,-15.238,-43.370,-122.295,-48.059,62.906,42.589,28.132,49.621,-25.006,-43.370
'[04:51:46.262 05/09/2075]',8.596,46.496,-24.225,80.879,109.792,-51.575,-20.317,75.800,152.772,-106.276,-27.741,-64.860,64.078,-9.377,-21.490,-78.144,-60.171,-9.768,25.006,22.271,51.966,-16.801,-21.490
'[04:51:46.266 05/09/2075]',13.284,50.794,-24.615,95.336,118.779,-46.886,-18.755,84.005,157.070,-121.514,2.344,-26.178,63.297,-7.033,13.284,-57.436,-58.217,-17.973,25.397,22.271,39.853,-2.735,13.284
'[04:51:46.270 05/09/2075]',17.192,40.244,-22.662,96.899,112.918,-47.277,-16.410,84.005,161.758,-101.978,-19.927,-14.457,61.343,-15.629,19.145,-39.853,-42.198,77.363,23.443,33.211,13.675,5.861,19.145
'[04:51:46.273 05/09/2075]',16.410,54.701,-6.252,101.587,117.998,-40.244,-13.675,105.104,164.493,-107.448,-13.284,-0.391,54.701,-13.675,19.536,-17.973,-46.105,20.317,7.033,23.053,5.470,3.907,19.536
'[04:51:46.277 05/09/2075]',26.178,50.794,-35.556,101.587,122.686,-43.370,-28.913,95.336,156.679,-143.004,4.298,-49.231,58.608,-26.178,-18.364,-44.542,-73.065,-57.045,36.337,19.927,21.880,-17.582,-18.364
'[04:51:46.281 05/09/2075]',25.788,44.542,-32.821,66.422,116.825,-45.714,-33.211,68.376,149.255,-143.394,-10.549,-109.402,54.701,-37.900,-50.794,-80.098,-56.264,32.039,33.602,32.821,14.847,-27.741,-50.794
'[04:51:46.285 05/09/2075]',17.973,45.324,3.907,94.164,117.216,-32.430,-17.582,97.680,155.116,-104.713,-18.755,-35.946,45.324,-28.132,-5.470,-16.410,-30.476,75.800,-3.126,24.225,13.675,-11.722,-5.470
'[04:51:46.289 05/09/2075]',23.053,32.039,12.112,140.659,125.812,-31.258,-11.331,128.938,146.129,-136.752,47.277,50.794,42.198,-32.039,39.463,58.217,-52.747,-18.755,-11.331,18.755,32.430,-16.801,39.463
'[04:51:46.293 05/09/2075]',28.913,21.880,25.788,138.706,130.891,-30.867,-10.159,129.328,149.255,-147.302,60.952,53.919,39.072,-21.490,21.880,77.753,-59.780,-17.192,-25.006,15.629,19.145,12.503,21.880
'[04:51:46.297 05/09/2075]',32.039,33.602,22.662,134.799,132.845,-27.741,-5.079,126.203,167.228,-110.574,24.615,28.913,35.556,-16.801,48.449,42.198,-30.476,64.860,-21.880,16.410,-6.642,18.364,48.449
'[04:51:46.301 05/09/2075]',42.198,44.542,9.377,118.779,145.739,-32.821,-16.410,122.295,176.215,-115.653,8.596,-5.861,44.542,-24.225,41.026,1.172,-40.244,28.913,-8.596,6.252,-3.126,7.424,41.026
'[04:51:46.305 05/09/2075]',49.231,69.548,-18.755,86.740,151.600,-35.165,-26.569,98.852,185.592,-144.176,20.317,-78.926,51.184,-5.861,2.735,-65.641,-52.747,26.178,19.536,7.033,-19.927,14.847,2.735
'[04:51:46.309 05/09/2075]',41.416,89.866,0.781,62.515,154.725,-24.225,-19.927,88.303,194.969,-120.733,14.847,-77.363,59.780,-0.391,46.886,-95.336,-30.476,82.833,0.000,27.741,-28.523,13.675,46.886
'[04:51:46.313 05/09/2075]',39.463,72.283,30.085,103.150,159.805,-22.662,-11.331,123.077,199.267,-107.057,32.430,21.099,69.548,26.569,87.521,-37.509,-28.523,26.569,-29.304,35.946,16.020,23.053,87.521
'[04:51:46.316 05/09/2075]',43.370,60.952,30.085,119.170,168.010,-27.741,-12.503,129.719,199.658,-117.998,51.575,43.370,73.846,41.416,95.336,-33.993,-48.449,-34.383,-29.304,22.271,62.906,23.443,95.336
'[04:51:46.320 05/09/2075]',46.105,51.966,49.621,76.581,164.884,-35.165,-17.582,116.044,201.221,-83.223,-13.284,11.331,68.376,21.880,71.111,-46.105,-39.463,39.853,-48.840,13.675,48.059,25.788,71.111
'[04:51:46.324 05/09/2075]',62.906,79.707,13.284,47.668,171.136,-39.853,-25.006,101.197,203.175,-75.018,-47.277,-19.927,60.562,10.940,50.403,-62.125,-37.509,54.701,-12.503,30.867,-28.913,18.755,50.403
'[04:51:46.328 05/09/2075]',79.316,100.415,-18.364,19.927,180.904,-45.324,-35.946,84.396,194.579,-107.839,-45.714,-60.171,52.357,-5.470,7.424,-73.455,-67.595,-29.695,19.145,21.490,-67.985,9.377,7.424
'[04:51:46.332 05/09/2075]',98.462,125.421,-16.410,-32.821,188.327,-38.681,-37.509,65.250,198.095,-119.560,-39.853,-105.495,49.621,-22.662,-0.391,-93.773,-67.204,11.722,17.192,36.337,-120.342,-14.847,-0.391
'[04:51:46.336 05/09/2075]',106.667,136.752,15.629,-7.424,206.691,-23.443,-17.192,88.303,219.585,-74.237,-35.556,-2.344,58.217,23.834,60.952,-36.337,-34.383,114.090,-14.847,32.430,-98.852,14.847,60.952
'[04:51:46.340 05/09/2075]',96.117,126.593,-1.172,30.476,212.943,-30.476,-22.662,96.117,213.724,-77.363,-19.927,37.509,62.125,48.059,78.144,-34.774,-47.277,39.853,1.954,3.516,-31.258,42.589,78.144
'[04:51:46.344 05/09/2075]',93.382,82.442,8.205,42.198,211.770,-38.291,-29.695,85.958,206.300,-94.164,-10.159,24.615,69.548,28.913,73.846,-46.886,-75.018,-10.940,-7.424,-10.159,42.589,23.834,73.846
'[04:51:46.348 05/09/2075]',103.541,89.084,-14.847,36.337,221.929,-39.853,-34.774,69.939,214.115,-69.158,-53.138,8.987,69.939,43.761,47.668,-62.125,-48.840,94.554,15.629,16.801,3.907,44.933,47.668
'[04:51:46.352 05/09/2075]',115.263,84.005,-67.204,0.391,221.929,-55.873,-50.403,19.145,206.691,-66.032,-100.415,-62.906,60.952,3.907,25.788,-114.481,-40.244,124.249,67.985,29.695,-39.853,27.350,25.788
'[04:51:46.355 05/09/2075]',134.017,79.316,-6.252,-7.424,229.744,-42.589,-30.867,46.886,204.347,-98.071,-48.840,-35.556,53.529,-16.020,37.509,-54.310,-62.125,33.602,7.033,33.211,-68.376,9.768,37.509
'[04:51:46.359 05/09/2075]',162.930,89.866,49.621,-41.807,253.187,-28.523,-17.973,57.045,216.068,-99.634,-25.397,-3.516,53.919,0.000,53.529,-20.317,-56.654,59.389,-48.840,29.304,-86.349,17.973,53.529
'[04:51:46.363 05/09/2075]',162.930,70.720,42.198,-4.689,264.127,-37.509,-16.410,65.250,224.274,-75.409,-48.059,23.834,50.012,0.391,72.283,1.172,-34.774,114.090,-41.416,14.847,-59.389,29.695,72.283
'[04:51:46.367 05/09/2075]',157.070,59.780,36.728,10.159,262.955,-46.496,-18.364,70.330,220.366,-86.740,-50.794,34.383,58.608,-21.490,58.217,20.708,-53.138,66.032,-35.946,14.457,-22.271,5.470,58.217
'[04:51:46.371 05/09/2075]',174.261,52.357,41.416,-26.178,269.206,-45.714,-21.880,43.761,223.492,-94.554,-58.217,-4.298,62.515,-8.987,23.053,-11.331,-61.343,99.634,-40.635,5.470,-7.814,14.847,23.053
'[04:51:46.375 05/09/2075]',177.778,69.158,16.801,-40.244,280.147,-54.310,-24.615,25.397,223.883,-84.396,-87.912,-32.039,61.343,-3.907,-3.126,-35.946,-41.416,162.930,-16.020,16.410,-23.443,16.020,-3.126
'[04:51:46.379 05/09/2075]',185.983,100.806,-26.178,-44.933,276.239,-50.012,-30.085,21.099,215.287,-106.667,-79.707,-41.807,56.654,-26.178,-12.503,-31.258,-59.389,75.800,26.960,44.542,-112.527,8.596,-12.503
'[04:51:46.383 05/09/2075]',200.830,82.442,-4.689,-41.026,284.835,-42.979,-25.006,23.053,212.943,-106.276,-60.171,-39.853,53.138,-12.503,2.344,-36.728,-71.893,52.747,5.470,46.886,-94.554,8.205,2.344
'[04:51:46.387 05/09/2075]',212.552,62.906,7.814,-15.629,295.385,-40.244,-17.582,32.821,215.678,-79.707,-67.595,1.172,44.151,-6.252,36.337,-5.079,-52.357,143.004,-7.033,43.370,-77.753,11.722,36.337
'[04:51:46.391 05/09/2075]',225.055,32.430,-18.755,26.569,299.292,-46.496,-17.582,34.383,218.803,-63.297,-78.144,19.145,51.184,-19.536,54.310,8.596,-47.277,123.468,19.536,32.821,-51.184,12.894,54.310
'[04:51:46.395 05/09/2075]',242.637,12.503,26.960,-7.814,307.106,-48.059,-8.596,27.350,209.426,-83.614,-50.403,25.397,55.092,-14.066,51.966,6.642,-67.204,42.589,-26.178,28.132,-27.350,15.238,51.966
'[04:51:46.398 05/09/2075]',284.444,3.516,34.383,-46.105,320.781,-47.277,-4.689,10.549,206.691,-80.879,-63.297,-10.940,57.827,-20.708,19.145,-6.642,-55.873,89.084,-33.602,8.987,-17.582,3.907,19.145
'[04:51:46.402 05/09/2075]',298.901,34.774,-5.470,-58.999,324.298,-48.449,-2.735,-1.563,209.035,-38.291,-122.295,-38.291,57.436,-17.192,11.722,-42.979,-35.946,134.017,6.252,47.668,-89.866,0.781,11.722
'[04:51:46.406 05/09/2075]',309.841,56.654,-23.443,-68.376,337.973,-51.184,-1.563,-7.424,203.956,-53.529,-117.607,-57.436,60.562,-33.211,4.689,-58.217,-51.966,29.695,24.225,58.999,-100.806,-32.039,4.689
'[04:51:46.410 05/09/2075]',344.615,37.900,-37.900,-69.548,347.350,-53.919,4.689,-19.927,191.453,-75.018,-80.098,-91.429,62.515,-32.039,4.298,-91.038,-65.250,-13.675,38.681,58.999,-84.786,-45.324,4.298
'[04:51:46.414 05/09/2075]',355.165,38.681,-32.039,-26.569,366.496,-50.403,23.443,-2.735,201.221,-31.258,-85.568,-16.801,66.032,-23.443,63.687,-39.072,-26.178,96.899,32.821,27.741,-61.343,-19.536,63.687
'[04:51:46.418 05/09/2075]',370.794,32.821,9.768,-28.523,398.144,-46.496,32.821,2.735,213.333,-17.582,-89.084,9.768,71.111,-13.675,87.521,-28.913,-8.596,99.634,-8.987,33.602,-58.608,-1.954,87.521
'[04:51:46.422 05/09/2075]',399.707,18.755,14.066,-16.801,417.289,-48.059,37.509,10.940,206.300,-35.946,-58.608,17.973,68.376,-10.549,93.773,-21.880,-27.350,57.045,-13.284,38.681,-81.270,17.582,93.773
'[04:51:46.426 05/09/2075]',420.806,17.973,10.159,-13.284,431.355,-47.277,40.244,12.503,209.035,-20.708,-70.330,29.695,69.548,-10.159,96.117,-8.205,-21.490,100.806,-9.377,23.443,-79.316,27.741,96.117
'[04:51:46.430 05/09/2075]',430.574,40.244,8.987,-47.277,443.077,-48.840,38.291,1.563,210.989,-34.774,-89.866,3.126,65.641,-15.238,68.767,-31.258,-5.079,73.846,-8.205,50.794,-113.700,8.596,68.767
'[04:51:46.434 05/09/2075]',446.984,23.443,-14.457,-36.337,452.063,-61.734,38.291,-7.033,200.049,-66.813,-66.813,-32.430,67.595,-18.755,57.045,-74.237,-25.006,23.443,15.238,45.324,-74.237,-7.814,57.045
'[04:51:46.438 05/09/2075]',478.242,-15.629,-41.026,-14.457,463.394,-71.502,34.774,-19.536,198.095,-86.349,-50.794,-23.834,82.442,-25.006,42.979,-66.422,-22.662,44.933,41.807,44.542,-23.834,-16.410,42.979
'[04:51:46.441 05/09/2075]',489.182,-30.476,-23.834,-32.430,470.037,-72.674,37.900,-32.039,199.267,-85.568,-62.906,-37.900,78.926,-14.847,36.728,-90.256,4.689,42.979,24.615,60.952,-17.582,-18.364,36.728
'[04:51:46.445 05/09/2075]',493.871,-35.165,-39.463,5.861,488.400,-78.144,42.198,-25.788,193.407,-112.137,-23.053,-36.337,69.939,-10.940,59.780,-98.071,-9.768,-94.945,40.244,71.893,-35.165,-4.298,59.780
'[04:51:46.449 05/09/2075]',505.592,-49.621,-75.409,58.217,496.606,-82.442,40.635,-14.847,190.281,-105.495,-20.708,28.132,66.032,-5.861,70.720,-39.463,-13.284,-144.957,76.190,90.647,-57.827,12.894,70.720
'[04:51:46.453 05/09/2075]',481.368,9.768,31.648,-47.277,495.824,-64.469,59.389,-12.894,198.095,-76.190,-58.217,35.165,50.794,-14.457,76.190,-13.675,15.629,-94.164,-30.867,42.198,-87.131,21.490,76.190
'[04:51:46.457 05/09/2075]',465.739,28.523,5.470,-36.728,489.182,-65.250,60.952,-19.145,198.095,-70.720,-66.813,22.662,48.059,-34.383,66.813,1.172,18.364,-104.322,-4.689,51.575,-119.170,-1.954,66.813
'[04:51:46.461 05/09/2075]',469.255,15.238,-7.814,-30.476,486.056,-72.674,59.780,-24.615,176.996,-80.488,-75.018,42.198,48.840,-72.283,28.523,57.436,-7.424,-150.818,8.596,67.595,-122.295,-29.695,28.523
'[04:51:46.465 05/09/2075]',456.361,24.225,48.449,-99.634,467.692,-64.860,67.204,-38.681,178.559,-72.283,-81.661,10.940,50.794,-68.767,34.383,18.364,10.940,-55.092,-47.668,29.695,-94.945,-28.913,34.383
'[04:51:46.469 05/09/2075]',431.746,34.774,20.708,-78.144,448.938,-63.687,71.111,-44.542,185.592,-41.416,-108.230,-16.801,55.873,-62.515,36.728,-11.331,44.151,12.503,-19.927,42.979,-82.442,-45.714,36.728
'[04:51:46.473 05/09/2075]',418.071,34.774,17.192,-64.860,443.468,-69.939,73.455,-39.072,169.573,-39.853,-103.150,-0.781,54.701,-45.714,62.906,-46.105,25.397,-76.190,-16.410,46.886,-65.641,-28.913,62.906
'[04:51:46.477 05/09/2075]',396.972,48.449,-3.516,-50.403,433.700,-69.939,71.502,-42.198,165.275,-49.231,-77.363,-28.913,55.873,-17.582,58.999,-87.131,14.457,-137.924,4.298,20.317,-35.946,-8.596,58.999
'[04:51:46.480 05/09/2075]',385.250,37.900,-22.662,-37.509,419.634,-73.846,75.800,-56.654,173.480,-0.391,-123.077,-42.589,65.250,-9.768,52.357,-101.197,51.184,-21.099,23.443,18.364,0.391,-20.317,52.357
'[04:51:46.484 05/09/2075]',389.939,16.020,-53.919,-10.940,420.415,-88.694,71.893,-61.343,159.805,26.569,-160.977,-33.211,73.065,7.033,12.112,-101.197,43.370,-34.774,54.701,51.575,14.066,-14.066,12.112
'[04:51:46.488 05/09/2075]',395.018,3.516,-50.794,-10.159,415.726,-86.740,71.502,-60.952,137.924,3.907,-144.176,-27.350,66.032,-21.490,-14.847,-58.999,21.880,-95.336,51.575,74.628,0.781,-41.026,-14.847
'[04:51:46.492 05/09/2075]',379.389,22.271,-29.695,-16.410,399.316,-71.111,87.912,-57.827,148.474,23.834,-132.063,15.629,69.939,-19.927,33.211,-28.132,32.821,-34.774,30.476,61.734,-22.662,-22.662,33.211
'[04:51:46.496 05/09/2075]',346.960,18.364,8.205,0.391,381.734,-64.078,99.243,-39.072,150.427,36.337,-142.613,46.496,59.389,-24.615,42.979,12.112,25.397,-43.761,-7.424,77.753,-50.794,-10.549,42.979
'[04:51:46.500 05/09/2075]',325.861,41.416,-16.020,13.284,371.575,-64.078,93.382,-32.821,143.785,39.463,-156.288,44.933,48.840,-31.258,32.430,21.880,-1.954,-121.123,16.801,71.502,-72.283,-14.457,32.430
'[04:51:46.504 05/09/2075]',322.344,39.463,-3.126,-9.768,363.370,-60.952,97.289,-48.449,144.957,70.330,-182.076,15.238,45.324,-8.205,24.615,-12.503,0.391,-53.138,3.907,16.410,-13.284,0.391,24.615
'[04:51:46.508 05/09/2075]',323.907,13.675,-33.211,0.781,349.695,-66.422,94.164,-69.548,142.222,95.726,-216.459,-7.424,50.403,0.391,-2.735,-33.602,5.470,8.205,33.993,10.940,25.788,-0.781,-2.735
'[04:51:46.512 05/09/2075]',328.205,22.271,-128.938,53.919,355.946,-81.270,75.409,-72.674,114.090,57.045,-205.910,-30.085,49.621,-2.735,-62.515,-48.840,-23.053,-99.243,129.719,76.581,-7.424,-24.615,-62.515
'[04:51:46.516 05/09/2075]',323.126,28.132,-117.998,20.708,342.662,-74.628,75.409,-87.521,96.899,43.370,-191.453,-43.761,44.542,-48.449,-39.072,-51.184,-34.774,-106.276,118.779,67.204,-19.145,-56.264,-39.072
'[04:51:46.520 05/09/2075]',323.516,0.391,-132.063,53.919,322.735,-64.078,78.926,-89.475,108.620,101.978,-240.684,-31.648,47.277,-51.184,-17.973,-40.244,-10.159,-25.006,132.845,97.289,-51.966,-49.621,-17.973
'[04:51:46.523 05/09/2075]',310.232,0.391,-136.752,94.554,321.954,-65.641,82.442,-67.985,105.885,147.302,-282.100,-7.814,42.198,-33.993,-30.476,-14.066,-2.344,-100.415,137.534,109.011,-69.158,-24.615,-30.476
'[04:51:46.527 05/09/2075]',271.551,48.059,13.675,-42.979,300.464,-45.714,101.587,-64.078,101.587,162.149,-270.379,6.642,31.648,-51.575,64.860,-43.761,-23.834,-209.426,-12.894,50.794,-71.111,-30.085,64.860
'[04:51:46.531 05/09/2075]',255.531,58.999,50.012,-68.376,279.756,-29.695,116.825,-67.985,114.481,181.294,-275.849,32.430,49.231,-45.714,43.761,5.079,1.563,-98.462,-49.231,-2.344,-14.847,-33.993,43.761
'[04:51:46.535 05/09/2075]',235.604,61.343,6.642,0.391,277.021,-39.072,114.481,-46.105,109.792,194.188,-303.199,64.860,46.496,-33.602,19.536,32.430,-13.284,-47.277,-5.861,4.298,-6.642,-13.675,19.536
'[04:51:46.539 05/09/2075]',235.214,58.217,-32.430,22.271,278.193,-50.794,99.634,-42.589,85.177,141.441,-257.094,57.045,46.886,-64.860,28.913,16.020,-75.409,-161.758,33.211,-8.205,15.629,-40.244,28.913
'[04:51:46.543 05/09/2075]',245.763,10.159,-107.057,108.620,286.007,-64.078,82.051,-44.933,77.363,131.673,-257.485,41.807,64.078,-51.184,-33.602,14.066,-108.230,-139.878,107.839,17.582,50.403,-17.582,-33.602
'[04:51:46.547 05/09/2075]',260.611,-33.993,-151.990,147.692,273.895,-67.204,74.237,-57.436,71.111,242.637,-360.244,3.126,33.993,-6.252,-4.298,-66.813,-103.541,-28.523,152.772,66.422,17.192,15.629,-4.298
'[04:51:46.551 05/09/2075]',230.134,13.284,-53.529,24.225,257.485,-55.482,82.051,-66.813,63.297,255.922,-382.125,-3.907,24.225,-43.761,-19.145,-28.132,-115.263,-53.529,54.310,53.138,-30.867,-8.987,-19.145
'[04:51:46.555 05/09/2075]',213.724,40.244,38.681,-41.416,244.200,-32.821,100.806,-58.608,66.813,199.267,-302.027,1.563,37.900,-82.833,34.774,-24.225,-117.216,-34.774,-37.900,17.192,-53.919,-6.642,34.774
'[04:51:46.559 05/09/2075]',193.407,69.939,28.132,-37.900,226.618,-19.927,104.322,-55.482,74.237,162.540,-256.313,42.979,23.443,-100.024,71.111,28.523,-86.349,25.788,-27.350,25.006,-83.223,-50.012,71.111
'[04:51:46.563 05/09/2075]',185.592,73.455,34.383,-26.569,221.148,-22.271,106.667,-37.118,71.111,129.719,-224.664,82.442,54.701,-107.839,35.556,76.581,-79.316,-67.595,-33.602,-16.410,-49.621,-16.410,35.556
'[04:51:46.566 05/09/2075]',206.691,26.178,-55.873,79.707,237.949,-40.244,84.396,-23.443,60.952,100.024,-209.426,74.628,37.900,-60.562,31.258,19.145,-85.568,-187.546,56.654,-3.126,11.722,-1.954,31.258
'[04:51:46.570 05/09/2075]',205.910,17.582,-145.348,116.825,246.545,-56.654,60.562,-53.138,51.575,190.672,-307.497,26.569,28.523,-17.973,31.648,-80.098,-69.158,-141.441,146.129,20.317,66.813,-2.344,31.648
'[04:51:46.574 05/09/2075]',198.877,19.145,-134.408,63.297,234.823,-60.952,57.827,-82.442,30.085,248.498,-389.939,12.894,7.424,-19.145,-57.827,-27.741,-61.343,-142.613,135.189,23.443,74.628,-32.039,-57.827
'[04:51:46.578 05/09/2075]',198.486,0.781,-157.070,96.508,225.055,-57.436,47.277,-74.237,14.457,203.175,-335.629,-30.085,7.814,-1.954,-33.993,-119.170,-86.740,-166.056,157.851,59.389,44.933,-12.112,-33.993
'[04:51:46.582 05/09/2075]',171.526,30.085,-54.701,-2.735,210.598,-41.026,63.687,-86.740,17.973,185.983,-264.127,3.126,19.145,23.053,87.912,-187.546,-71.111,-39.853,55.482,19.145,58.217,26.569,87.912
'[04:51:46.586 05/09/2075]',133.236,80.879,-20.708,-24.615,184.420,-19.536,78.535,-73.455,23.053,171.526,-223.883,52.747,13.284,13.284,102.759,-106.276,-18.364,39.072,21.490,1.563,21.099,16.801,102.759
'[04:51:46.590 05/09/2075]',130.110,73.846,-60.171,37.900,180.904,-19.536,70.330,-48.840,16.801,172.698,-229.744,91.819,8.596,1.563,86.349,-44.542,-17.973,-1.563,60.952,14.457,-2.344,23.053,86.349
'[04:51:46.594 05/09/2075]',141.050,88.694,-31.258,-62.125,182.076,-22.271,66.422,-88.303,7.814,120.342,-196.142,79.316,1.954,-24.615,66.422,-32.039,-57.436,-115.653,32.039,-17.582,16.020,-15.629,66.422
'[04:51:46.598 05/09/2075]',135.189,90.256,-50.403,-69.939,176.996,-22.271,64.078,-112.527,5.861,147.302,-250.061,69.548,-17.582,-62.515,7.814,46.496,-26.569,-267.253,51.184,-30.867,28.523,-67.204,7.814
'[04:51:46.602 05/09/2075]',149.255,62.125,-106.667,-49.231,166.056,-26.960,50.403,-132.454,9.768,240.684,-380.562,58.217,-28.132,-64.078,-49.621,72.283,-17.192,-289.133,107.448,0.391,-12.112,-69.939,-49.621
'[04:51:46.605 05/09/2075]',153.162,40.635,-110.965,-61.734,167.228,-31.258,44.933,-158.632,15.629,211.770,-329.377,5.470,-11.722,-12.894,15.629,-85.958,-70.330,-422.369,111.746,-21.880,31.648,-10.940,15.629
'[04:51:46.609 05/09/2075]',142.613,43.370,-110.965,-54.701,166.447,-26.569,45.714,-164.103,10.940,222.320,-328.205,7.424,-15.238,1.172,0.781,-72.674,-17.973,-550.134,111.746,-28.523,32.430,18.755,0.781
'[04:51:46.613 05/09/2075]',129.719,53.138,-168.791,-31.648,151.209,-26.178,34.774,-176.996,12.894,347.350,-458.315,-6.252,-17.192,7.033,1.172,-94.164,41.416,-475.116,169.573,8.987,-17.192,23.834,1.172
'[04:51:46.617 05/09/2075]',136.752,40.635,-177.387,-46.105,148.474,-29.695,24.615,-189.109,0.781,348.913,-464.176,-8.596,-10.940,-27.741,-4.298,-77.753,45.714,-472.772,178.168,-11.722,5.861,-7.033,-4.298
'[04:51:46.621 05/09/2075]',145.739,32.821,-178.559,-71.502,146.911,-25.397,26.178,-218.022,-10.159,368.059,-473.162,-21.099,-18.364,-43.761,-12.894,-58.999,71.502,-505.201,179.341,3.907,0.781,-37.900,-12.894
'[04:51:46.625 05/09/2075]',132.845,42.198,-182.076,-53.529,139.878,-14.847,30.476,-215.678,-8.205,420.024,-509.890,26.960,-33.993,-22.662,-14.066,1.954,39.072,-447.375,182.857,-3.907,14.066,-44.542,-14.066
'[04:51:46.629 05/09/2075]',134.408,22.271,-166.056,-73.455,134.799,-13.284,26.960,-230.916,-5.861,310.623,-414.554,14.066,-35.946,-11.722,-50.403,3.907,8.205,-509.499,166.838,-21.099,37.900,-34.383,-50.403
'[04:51:46.633 05/09/2075]',112.137,37.509,-132.845,-69.548,132.454,1.563,34.774,-222.711,12.503,198.486,-288.742,16.410,-30.867,-0.391,-15.238,-11.331,-40.635,-554.823,133.626,-23.053,34.774,-12.112,-15.238
'[04:51:46.637 05/09/2075]',109.011,31.258,-115.263,-73.065,130.891,7.424,36.337,-223.101,22.271,149.255,-256.313,25.788,-40.244,-19.927,-36.728,39.853,-33.602,-489.573,116.044,-32.430,32.821,-17.582,-36.728
'[04:51:46.641 05/09/2075]',101.587,14.847,-126.984,-64.860,114.481,6.642,30.867,-228.962,17.582,126.593,-233.651,19.927,-45.714,-58.608,11.722,25.397,-13.284,-423.932,127.766,-19.145,-3.516,-32.039,11.722
'[04:51:46.645 05/09/2075]',99.634,16.410,-60.952,-118.779,102.759,21.490,40.635,-229.353,0.000,80.879,-159.414,37.900,-33.211,-76.190,30.476,40.635,-39.072,-371.966,61.734,-19.927,-10.159,-38.291,30.476
'[04:51:46.648 05/09/2075]',106.667,6.252,-59.389,-126.984,99.243,25.006,41.807,-239.902,-7.814,120.733,-167.619,29.304,-40.635,-28.523,58.608,-12.894,-22.271,-281.709,60.171,-18.755,16.020,-26.960,58.608
'[04:51:46.652 05/09/2075]',100.415,-1.954,-81.661,-105.885,96.508,18.364,39.072,-243.810,-10.549,85.177,-137.534,14.457,-42.589,1.954,25.006,-30.867,-11.331,-172.698,82.442,-24.225,50.403,-11.722,25.006
'[04:51:46.656 05/09/2075]',100.415,12.503,-55.482,-146.520,88.303,24.225,38.291,-241.465,-13.675,-6.252,-47.668,0.391,-35.165,19.145,-14.066,-35.946,-33.211,-265.299,56.264,-15.238,31.258,-4.298,-14.066
'[04:51:46.660 05/09/2075]',110.574,19.927,-69.939,-139.487,90.256,25.788,35.165,-232.088,-17.192,-39.463,-23.053,1.954,-39.853,-0.781,-39.853,2.735,-42.979,-339.536,70.720,-11.331,-2.735,-19.145,-39.853
'[04:51:46.664 05/09/2075]',101.197,14.066,-120.733,-111.355,91.038,9.377,31.648,-250.061,-14.847,-105.495,39.072,-23.053,-49.231,-5.861,-29.695,-18.364,-40.244,-200.830,121.514,5.079,-14.457,-20.317,-29.695
'[04:51:46.668 05/09/2075]',86.349,28.132,-48.449,-157.460,69.939,25.397,41.416,-229.744,-13.675,-121.514,73.846,42.198,-41.416,39.463,-43.761,27.350,-23.443,-129.328,49.231,-8.987,-16.020,28.132,-43.761
'[04:51:46.672 05/09/2075]',80.488,33.993,-9.377,-181.685,72.674,32.039,43.370,-225.836,-14.847,-163.712,129.328,52.747,-29.695,23.443,12.112,-1.563,-42.979,-98.071,10.159,-3.907,0.391,6.252,12.112
'[04:51:46.676 05/09/2075]',85.958,20.317,-28.523,-171.526,72.674,35.556,36.728,-239.512,-4.689,-187.546,164.884,41.416,-10.549,58.217,-16.410,-16.410,-45.714,-12.112,29.304,-19.145,53.138,25.788,-16.410
'[04:51:46.680 05/09/2075]',72.283,17.192,-22.662,-161.368,62.906,34.774,31.648,-225.446,-9.768,-158.632,117.607,55.092,-10.159,23.053,-14.066,6.252,-19.927,-19.927,23.443,-33.602,74.628,-2.735,-14.066
'[04:51:46.684 05/09/2075]',63.297,37.509,-18.755,-194.579,57.045,38.291,22.662,-232.869,-6.642,-221.148,162.930,42.979,-4.689,-29.695,4.298,8.596,-35.946,-49.621,19.536,-12.112,11.722,-28.913,4.298
'[04:51:46.688 05/09/2075]',66.422,31.258,-59.780,-191.062,54.310,33.211,8.596,-249.670,-4.689,-231.306,169.182,11.722,-5.861,-41.807,-8.596,2.735,-56.264,57.045,60.562,-16.020,5.470,-40.244,-8.596
'[04:51:46.691 05/09/2075]',60.562,20.317,-50.012,-210.989,42.589,28.132,7.814,-261.001,-10.549,-252.796,202.393,6.642,-22.662,-37.118,9.377,-1.563,-38.681,137.924,50.794,-25.006,8.987,-43.370,9.377
'[04:51:46.695 05/09/2075]',54.701,18.364,-39.853,-229.353,36.337,25.006,1.954,-260.611,-14.457,-295.775,248.498,23.834,-14.066,-19.927,-16.410,14.457,-65.250,154.335,40.635,-2.735,-37.509,-1.954,-16.410
'[04:51:46.699 05/09/2075]',54.310,18.364,-33.211,-231.697,31.648,27.350,3.907,-255.531,-13.284,-338.364,315.311,24.615,-16.801,17.192,-25.006,13.284,-69.939,163.321,33.993,-12.112,-12.503,1.563,-25.006
'[04:51:46.703 05/09/2075]',56.264,0.391,-30.867,-233.651,27.350,16.801,2.735,-256.313,-12.503,-309.451,289.133,19.145,-14.066,12.894,-25.006,14.066,-38.681,212.161,31.648,-15.238,-3.126,3.126,-25.006
'[04:51:46.707 05/09/2075]',28.132,17.192,-41.416,-209.035,22.662,12.112,2.735,-243.419,-7.814,-306.325,287.179,34.383,6.252,37.509,-62.906,26.960,-35.946,171.917,42.198,-6.642,4.298,37.900,-62.906
'[04:51:46.711 05/09/2075]',32.821,7.033,-44.151,-213.724,29.304,0.391,-3.126,-244.200,-6.642,-354.774,323.516,28.913,-2.344,7.424,-36.728,22.271,-52.747,106.276,44.933,-17.582,28.132,-1.172,-36.728
'[04:51:46.715 05/09/2075]',46.496,-9.377,-50.012,-234.823,24.615,-7.424,-2.735,-261.783,-19.927,-298.120,278.584,13.284,-8.987,-13.675,-14.457,12.894,-42.589,186.374,50.794,-18.755,24.225,-23.834,-14.457
'[04:51:46.719 05/09/2075]',30.476,14.847,-50.403,-256.313,12.894,-9.377,1.954,-266.471,-26.569,-238.730,230.525,21.880,-21.099,-1.172,-12.112,23.053,-26.178,273.895,51.184,-28.132,5.861,-16.410,-12.112
'[04:51:46.723 05/09/2075]',30.476,20.317,-33.993,-267.253,10.940,-10.940,2.344,-251.624,-39.072,-255.140,245.763,41.807,-25.397,-5.079,-13.675,38.681,-53.919,219.585,34.774,-48.059,-1.563,-5.861,-13.675
'[04:51:46.727 05/09/2075]',37.509,24.225,-36.728,-299.683,-0.781,-11.331,1.954,-263.736,-50.794,-259.829,262.564,26.569,-31.258,15.629,-37.118,32.430,-74.237,159.414,37.509,-48.840,-58.608,32.430,-37.118
'[04:51:46.730 05/09/2075]',17.192,39.463,-28.132,-310.623,-7.033,-12.503,3.516,-265.690,-43.761,-223.883,223.492,14.847,-19.536,17.192,-60.952,34.774,-50.403,271.551,28.913,-67.595,0.781,1.172,-60.952
'[04:51:46.734 05/09/2075]',19.927,35.556,-40.244,-309.841,-6.642,-21.099,-2.735,-261.392,-46.496,-226.618,209.035,11.722,-21.099,-4.298,-63.297,37.509,-54.701,246.935,41.026,-79.316,-19.927,7.033,-63.297
'[04:51:46.738 05/09/2075]',37.900,33.211,-72.674,-310.232,-0.781,-29.695,-10.159,-268.816,-63.297,-242.637,240.684,2.344,-35.556,-2.344,-57.436,33.993,-74.628,194.579,73.455,-64.860,-69.939,13.284,-57.436
'[04:51:46.742 05/09/2075]',30.476,46.496,-21.099,-352.039,-5.470,-26.178,4.298,-267.253,-73.846,-211.770,248.889,33.993,-41.026,-2.344,-27.741,70.720,-47.668,238.730,21.880,-85.958,-34.774,-21.490,-27.741
'[04:51:46.746 05/09/2075]',19.927,60.952,-29.304,-342.662,-12.894,-31.648,6.252,-251.624,-90.256,-202.784,252.405,48.840,-41.026,1.563,-13.675,62.906,-45.714,205.910,30.085,-100.415,-66.813,21.880,-13.675
'[04:51:46.750 05/09/2075]',15.238,41.416,-3.907,-338.364,-17.973,-35.556,7.814,-238.339,-103.541,-198.486,266.862,70.330,-45.714,60.562,-35.946,57.436,-62.906,131.282,4.689,-104.713,-21.880,50.794,-35.946
'[04:51:46.754 05/09/2075]',10.549,46.105,3.907,-351.648,-21.490,-35.946,14.457,-246.545,-103.932,-144.957,230.525,50.012,-30.476,52.747,-25.006,35.556,-54.701,194.579,-3.126,-105.104,12.503,12.894,-25.006
'[04:51:46.758 05/09/2075]',8.205,37.900,-1.563,-355.165,-30.476,-40.635,11.331,-249.280,-110.965,-147.692,226.618,31.258,-32.821,23.443,-10.549,19.927,-40.244,214.505,2.344,-113.700,1.954,4.689,-10.549
'[04:51:46.762 05/09/2075]',10.159,32.039,-3.126,-352.039,-27.741,-47.277,12.112,-247.717,-128.156,-153.944,241.074,29.304,-41.416,33.993,-28.913,25.397,-56.264,139.487,3.907,-132.454,-8.205,37.509,-28.913
'[04:51:46.766 05/09/2075]',20.708,37.900,-5.470,-371.966,-32.430,-48.059,13.284,-249.670,-144.567,-133.236,233.260,21.880,-50.403,-3.907,-6.252,39.072,-52.747,137.143,6.252,-127.766,-44.933,0.391,-6.252
'[04:51:46.770 05/09/2075]',7.033,57.436,-0.781,-401.270,-48.449,-44.151,16.410,-259.048,-143.394,-114.872,221.929,6.642,-56.654,-16.801,7.424,36.337,-27.350,229.353,1.563,-121.514,-90.647,-8.205,7.424
'[04:51:46.773 05/09/2075]',0.781,56.654,5.079,-393.065,-54.310,-47.668,19.536,-245.763,-156.679,-101.587,214.896,28.523,-61.343,18.364,-10.549,39.072,-30.867,155.897,-4.298,-153.944,-64.469,33.602,-10.549
'[04:51:46.777 05/09/2075]',5.079,45.714,11.331,-396.972,-50.794,-53.529,15.629,-243.810,-171.136,-95.336,222.711,25.788,-56.264,38.681,-32.430,32.039,-43.761,59.389,-10.549,-169.963,-6.252,20.317,-32.430
'[04:51:46.781 05/09/2075]',-6.252,58.999,3.516,-409.475,-62.515,-50.794,14.457,-252.405,-168.400,-67.204,207.863,19.536,-50.403,39.463,-20.317,23.443,-16.801,120.733,-2.735,-150.818,-46.496,25.788,-20.317
'[04:51:46.785 05/09/2075]',-22.271,54.310,16.410,-409.866,-64.469,-53.529,12.112,-253.968,-173.480,-48.059,181.294,24.225,-48.449,55.482,-51.184,30.085,8.987,141.050,-15.629,-180.122,-7.033,64.078,-51.184
'[04:51:46.789 05/09/2075]',-2.344,33.602,0.781,-400.488,-59.780,-62.125,1.172,-245.372,-194.188,-65.250,202.784,30.085,-46.496,35.165,-60.562,46.496,-18.364,24.225,0.000,-179.341,5.079,40.244,-60.562
'[04:51:46.793 05/09/2075]',-15.629,57.045,-3.907,-418.462,-62.906,-59.780,0.000,-256.703,-200.440,-63.297,210.598,14.066,-44.933,10.940,-48.840,44.542,-24.615,0.391,4.689,-135.971,-30.085,5.079,-48.840
'[04:51:46.797 05/09/2075]',-18.364,47.668,-1.954,-423.150,-66.032,-64.469,-1.563,-261.783,-196.923,-39.853,180.904,12.894,-51.966,15.238,-42.198,37.509,4.298,90.256,2.735,-138.706,-33.993,19.145,-42.198
'[04:51:46.801 05/09/2075]',-17.582,35.946,-7.033,-402.442,-60.171,-75.018,-3.126,-250.842,-202.002,-11.722,154.335,29.695,-51.184,29.695,-38.681,31.258,6.642,51.575,7.814,-155.116,5.079,25.397,-38.681
'[04:51:46.805 05/09/2075]',-7.033,33.993,-5.861,-412.601,-54.310,-75.800,-0.781,-257.094,-201.612,2.344,160.195,23.834,-47.668,46.105,-31.258,18.364,6.252,43.761,6.642,-126.203,-29.304,40.635,-31.258
'[04:51:46.809 05/09/2075]',-10.549,39.463,-15.238,-405.958,-57.436,-75.018,-1.954,-255.140,-203.565,13.675,158.242,30.476,-57.045,55.092,-26.960,28.523,33.211,91.038,16.020,-129.328,-64.469,70.720,-26.960
'[04:51:46.813 05/09/2075]',-1.563,18.755,-19.927,-389.939,-55.092,-81.661,-6.252,-247.326,-211.380,12.503,160.195,39.853,-55.092,72.674,-44.542,30.476,32.430,40.635,20.708,-147.692,0.781,58.217,-44.542
'[04:51:46.816 05/09/2075]',10.940,7.033,-27.741,-386.032,-55.092,-81.661,-11.722,-245.372,-226.227,0.781,177.778,36.337,-58.217,43.761,-32.039,36.728,17.973,-28.132,28.523,-127.766,-26.178,42.979,-32.039
'[04:51:46.820 05/09/2075]',8.596,11.722,-32.039,-388.767,-54.701,-79.707,-16.410,-246.545,-228.181,8.987,166.056,29.695,-67.985,22.662,-15.629,39.463,40.244,43.370,32.821,-115.263,-55.873,32.821,-15.629
'[04:51:46.824 05/09/2075]',2.344,0.781,-32.430,-370.403,-60.171,-78.535,-19.145,-239.121,-218.803,23.443,143.394,34.774,-69.158,28.913,-6.642,31.648,56.654,48.840,33.211,-133.236,-19.536,25.397,-6.642
'[04:51:46.828 05/09/2075]',4.689,0.391,-34.383,-357.118,-58.608,-76.581,-19.536,-228.571,-225.055,4.689,163.712,46.886,-70.720,19.536,-3.907,46.496,39.853,-46.105,35.165,-108.230,-78.535,46.105,-3.907
'[04:51:46.832 05/09/2075]',3.126,8.987,-25.006,-358.291,-56.654,-71.893,-16.020,-222.711,-223.101,0.000,170.745,43.761,-77.363,27.741,-10.940,52.747,42.589,-32.821,25.788,-109.011,-83.223,44.151,-10.940
'[04:51:46.836 05/09/2075]',5.861,-8.205,-10.159,-347.741,-53.529,-73.065,-12.503,-219.194,-216.850,25.397,133.236,36.337,-73.065,37.900,-23.443,38.291,62.125,26.569,10.940,-139.096,-9.768,37.118,-23.443
'[04:51:46.840 05/09/2075]',21.099,-28.132,-18.364,-329.768,-48.449,-77.363,-12.894,-213.724,-228.962,15.238,138.706,31.258,-76.581,33.602,-41.026,42.979,43.370,-60.562,19.145,-121.905,-34.774,51.575,-41.026
'[04:51:46.844 05/09/2075]',22.662,-26.569,-25.788,-314.530,-41.807,-72.283,-12.503,-214.896,-235.995,-1.954,164.884,13.675,-71.893,35.556,-46.886,26.178,23.834,-129.719,26.569,-105.885,-26.569,43.761,-46.886
'[04:51:46.848 05/09/2075]',19.145,-33.211,-21.099,-295.775,-41.807,-66.813,-12.112,-207.473,-227.790,21.099,139.096,8.596,-71.893,51.575,-47.668,11.722,48.840,-35.946,21.880,-123.077,11.331,49.621,-47.668
'[04:51:46.852 05/09/2075]',8.205,-16.801,-44.933,-262.955,-50.012,-57.436,-14.847,-191.453,-214.505,48.449,109.792,17.192,-69.158,67.595,-50.012,14.066,66.813,19.536,45.714,-83.614,-42.589,62.515,-50.012
'[04:51:46.855 05/09/2075]',12.112,-22.271,-23.053,-249.670,-42.589,-55.482,-15.238,-168.400,-226.618,13.675,140.659,33.211,-69.939,58.999,-60.171,33.211,33.993,-86.349,23.834,-99.634,-35.946,78.926,-60.171
'[04:51:46.859 05/09/2075]',12.894,-12.503,-10.159,-249.670,-42.589,-48.059,-14.066,-152.772,-225.055,7.424,153.162,30.867,-75.018,54.701,-39.853,28.132,25.006,-84.396,10.940,-101.978,-47.668,68.376,-39.853
'[04:51:46.863 05/09/2075]',10.549,-14.457,-6.252,-240.293,-45.324,-47.668,-12.894,-142.222,-210.989,32.821,120.733,23.443,-69.548,47.668,-32.039,21.880,43.370,-17.582,7.033,-87.131,-58.608,63.297,-32.039
'[04:51:46.867 05/09/2075]',21.880,-32.821,0.781,-224.664,-42.589,-48.449,-14.847,-125.031,-216.850,23.834,127.766,19.536,-78.926,26.960,-15.629,23.443,26.569,-71.111,0.000,-97.289,-78.926,79.707,-15.629
'[04:51:46.871 05/09/2075]',28.523,-31.648,1.172,-203.565,-33.993,-42.589,-14.457,-110.574,-209.035,19.145,145.348,12.503,-74.237,35.165,-0.781,8.596,20.317,-45.324,-0.391,-92.210,-68.767,73.846,-0.781
'[04:51:46.875 05/09/2075]',29.304,-29.304,6.642,-190.672,-30.476,-38.681,-12.503,-98.071,-200.049,26.178,141.441,3.516,-67.595,50.012,-6.252,-2.344,39.072,21.490,-5.861,-91.038,-29.304,56.264,-6.252
'[04:51:46.879 05/09/2075]',34.383,-30.476,7.814,-155.507,-26.569,-37.509,-8.987,-67.595,-202.784,10.940,159.805,18.755,-66.813,59.780,-14.066,8.987,30.476,-31.258,-7.033,-94.554,-47.277,90.647,-14.066
'[04:51:46.883 05/09/2075]',33.993,-22.271,8.205,-136.361,-27.350,-33.211,-7.814,-44.151,-208.254,-8.987,178.559,29.304,-68.376,41.026,0.391,18.364,12.112,-74.237,-7.424,-90.256,-55.092,71.502,0.391
'[04:51:46.887 05/09/2075]',19.145,-11.331,9.768,-122.686,-31.258,-30.085,-5.079,-34.383,-192.234,18.755,141.441,16.020,-59.780,42.198,-3.907,6.642,34.774,30.867,-8.987,-86.740,-44.933,73.455,-3.907
'[04:51:46.891 05/09/2075]',19.145,-14.066,-12.503,-95.336,-40.244,-28.523,-8.205,-22.271,-186.764,30.085,111.746,7.424,-60.171,42.198,-23.053,5.079,41.026,42.979,13.284,-66.032,-82.051,87.912,-23.053
'[04:51:46.895 05/09/2075]',2.735,-17.973,-9.768,-76.972,-51.966,-25.788,-13.675,-7.814,-188.327,2.344,129.328,6.252,-63.297,33.602,-28.132,8.596,17.973,-44.933,10.549,-67.985,-79.707,90.256,-28.132
'[04:51:46.898 05/09/2075]',-3.907,-33.993,-3.907,-59.780,-62.125,-22.662,-14.066,-0.781,-179.731,-2.735,131.673,-11.722,-64.860,49.231,-50.794,3.907,21.490,13.284,4.689,-67.204,-54.701,94.164,-50.794
'[04:51:46.902 05/09/2075]',-7.424,-25.006,7.424,-65.250,-65.250,-16.020,-12.894,5.079,-168.010,11.722,105.885,-20.708,-62.125,43.761,-52.747,1.954,37.900,94.554,-6.642,-72.283,-59.389,95.726,-52.747
'[04:51:46.906 05/09/2075]',-14.847,-29.695,12.503,-38.681,-74.237,-12.503,-14.457,32.039,-170.745,-11.722,132.845,8.987,-67.595,33.211,-35.556,30.476,16.410,12.503,-11.722,-79.316,-66.813,100.415,-35.556
'[04:51:46.910 05/09/2075]',-26.178,-26.960,12.503,-23.443,-76.190,-10.159,-21.099,44.542,-167.228,-37.509,160.195,7.424,-62.906,35.946,-42.979,33.993,-0.781,-31.258,-11.722,-73.846,-63.687,105.495,-42.979
'[04:51:46.914 05/09/2075]',-39.463,-16.020,5.861,-13.284,-81.270,-6.252,-27.350,53.529,-151.209,-20.317,134.408,-2.344,-47.277,33.602,-50.012,24.225,23.443,72.283,-5.079,-66.032,-60.562,107.839,-50.012
'[04:51:46.918 05/09/2075]',-48.840,-16.020,-7.814,3.907,-91.038,-3.126,-31.648,58.999,-148.474,-8.205,121.123,-5.861,-52.357,31.648,-31.258,10.159,30.476,87.131,8.596,-65.250,-69.158,113.309,-31.258
'[04:51:46.922 05/09/2075]',-66.813,-25.788,-10.549,29.695,-105.104,-6.642,-37.118,76.190,-156.679,-33.211,147.302,-5.861,-60.562,28.132,-39.072,23.053,8.596,0.781,11.331,-82.833,-34.774,100.415,-39.072
'[04:51:46.926 05/09/2075]',-67.595,-22.271,-17.973,39.853,-107.839,-0.781,-39.463,81.270,-152.381,-47.277,169.573,-12.894,-57.827,30.476,-32.821,17.192,4.298,21.490,18.755,-76.972,-53.529,110.183,-32.821
'[04:51:46.930 05/09/2075]',-72.674,-10.159,-25.006,53.529,-110.965,2.735,-34.383,88.303,-145.348,-13.675,137.534,-5.861,-52.747,26.569,-19.536,17.973,23.053,48.840,25.788,-90.256,-42.979,104.713,-19.536
'[04:51:46.934 05/09/2075]',-82.051,-11.722,-9.768,60.171,-121.123,4.689,-39.072,112.918,-146.520,-20.708,133.626,11.331,-55.092,22.662,-26.569,38.681,15.629,-16.410,10.549,-58.217,-76.190,101.197,-26.569
'[04:51:46.938 05/09/2075]',-85.568,0.391,-9.768,66.422,-116.825,12.112,-42.198,118.388,-128.156,-16.801,130.501,-1.954,-37.509,59.780,-73.065,34.383,22.662,37.509,10.549,-32.430,-92.210,137.143,-73.065
'[04:51:46.941 05/09/2075]',-91.429,-16.410,-13.284,78.926,-128.938,12.894,-46.496,119.951,-119.951,1.954,102.369,-15.238,-34.774,23.834,-39.072,19.927,37.118,101.978,14.066,-39.853,-60.171,96.117,-39.072
'[04:51:46.945 05/09/2075]',-94.554,-16.801,-4.298,73.455,-134.408,14.457,-50.012,126.984,-125.421,-12.503,110.183,-13.675,-38.681,10.159,-39.463,26.960,20.708,33.211,5.079,-42.198,-75.800,100.806,-39.463
'[04:51:46.949 05/09/2075]',-98.462,-25.006,-23.834,119.560,-131.282,10.940,-56.264,148.083,-123.468,-37.118,133.236,-8.596,-34.774,5.079,-55.092,48.449,7.814,6.252,24.615,-69.939,-39.463,99.634,-55.092
'[04:51:46.953 05/09/2075]',-101.978,-41.807,-34.383,141.441,-141.441,12.112,-60.171,151.209,-115.263,-3.126,90.647,-17.192,-33.211,-12.112,-29.304,29.695,27.350,88.303,35.165,-85.568,-30.476,105.885,-29.304
'[04:51:46.957 05/09/2075]',-112.527,-18.364,-26.569,131.673,-145.739,17.582,-57.045,159.805,-116.435,5.470,85.958,-10.159,-36.728,5.079,-24.615,21.880,31.258,57.827,27.350,-64.469,-60.562,112.137,-24.615
'[04:51:46.961 05/09/2075]',-119.170,-5.079,-26.569,150.427,-143.004,23.053,-60.171,178.950,-109.011,-15.238,109.011,0.391,-36.728,19.536,-30.476,33.993,18.364,-12.503,27.350,-44.933,-80.488,113.309,-30.476
'[04:51:46.965 05/09/2075]',-127.766,1.954,-1.563,130.110,-144.957,32.039,-60.562,175.824,-96.117,1.563,90.256,-13.284,-32.039,26.178,-25.006,12.894,30.867,66.813,2.344,-59.780,-52.357,110.965,-25.006
'[04:51:46.969 05/09/2075]',-126.203,14.847,-4.689,121.514,-143.004,36.337,-63.297,176.215,-82.051,27.350,55.092,-22.271,-32.821,27.350,-15.629,0.000,50.794,128.547,5.470,-58.999,-71.111,110.183,-15.629
'[04:51:46.973 05/09/2075]',-130.110,22.271,-10.549,139.487,-141.441,37.900,-69.939,195.360,-84.005,5.470,66.032,-15.629,-25.397,2.344,-24.615,20.708,30.085,31.258,11.331,-67.204,-57.436,87.131,-24.615
'[04:51:46.977 05/09/2075]',-131.673,8.987,-14.066,159.023,-143.785,37.509,-71.893,200.440,-85.177,-8.596,80.488,-19.536,-23.443,-0.781,-35.165,26.178,14.457,-12.503,14.847,-79.316,-44.933,98.071,-35.165
'[04:51:46.980 05/09/2075]',-133.236,-0.391,-29.304,183.248,-153.162,35.946,-71.502,208.645,-76.581,25.788,44.933,-25.788,-31.258,11.722,-27.350,15.238,45.714,129.719,30.085,-64.469,-65.250,110.183,-27.350
'[04:51:46.984 05/09/2075]',-144.567,23.834,-7.424,168.010,-153.553,41.807,-66.032,218.413,-72.283,39.463,26.569,-10.159,-33.993,12.503,-29.695,34.774,53.529,146.520,8.205,-51.966,-96.117,115.653,-29.695
'[04:51:46.988 05/09/2075]',-157.070,21.880,18.364,176.996,-155.116,44.933,-63.297,234.823,-71.893,17.582,62.125,2.344,-31.258,37.118,-38.291,43.761,32.430,60.952,-17.582,-70.330,-51.966,127.766,-38.291
'[04:51:46.992 05/09/2075]',-161.758,32.821,17.582,174.261,-155.116,48.449,-66.422,237.167,-66.813,23.443,55.482,-3.516,-28.132,41.807,-37.509,32.821,37.900,82.051,-16.801,-79.707,-45.324,134.408,-37.509
'[04:51:46.996 05/09/2075]',-168.791,42.589,32.039,159.414,-157.851,51.966,-67.204,240.684,-60.171,29.304,38.291,2.344,-24.615,17.582,-19.145,37.118,44.151,79.707,-31.258,-84.005,-48.840,114.481,-19.145
'[04:51:47.000 05/09/2075]',-171.136,25.397,34.774,178.950,-160.977,49.621,-73.455,255.140,-57.827,-0.391,61.734,10.549,-20.317,9.768,-20.317,46.496,29.695,-22.271,-33.993,-108.620,2.344,100.024,-20.317
'[04:51:47.004 05/09/2075]',-162.540,28.132,10.549,189.109,-159.414,52.747,-78.535,252.015,-41.807,11.331,45.324,-3.516,-16.801,7.814,-6.252,26.569,45.714,157.460,-9.768,-87.131,-33.993,101.978,-6.252
'[04:51:47.008 05/09/2075]',-164.884,32.430,0.391,196.923,-161.758,53.138,-80.098,255.140,-31.648,28.132,20.317,0.000,-17.582,14.457,-10.549,30.867,72.283,286.789,0.391,-73.846,-44.151,97.289,-10.549
'[04:51:47.012 05/09/2075]',-169.963,34.774,-2.344,208.254,-157.460,51.966,-85.958,264.518,-33.602,-3.907,49.231,7.814,-11.722,18.755,-29.695,42.589,55.482,133.626,3.126,-86.349,-21.880,102.759,-29.695
'[04:51:47.016 05/09/2075]',-167.619,38.291,-9.377,198.095,-159.805,51.184,-90.256,260.220,-36.337,-7.814,52.357,-5.079,-13.675,15.238,-29.695,30.867,40.244,105.885,10.159,-71.502,-47.668,100.415,-29.695
'[04:51:47.020 05/09/2075]',-180.904,39.072,-12.503,205.519,-166.838,51.575,-91.819,259.438,-29.695,17.582,17.192,-9.768,-17.192,16.410,-33.993,30.476,50.403,160.977,13.284,-80.098,-32.430,100.024,-33.993
'[04:51:47.023 05/09/2075]',-187.546,20.708,-37.900,233.651,-176.996,46.105,-97.680,259.048,-33.993,20.317,7.814,-9.768,-20.317,9.768,-39.072,33.602,35.165,68.767,38.681,-89.866,-16.020,105.885,-39.072
'[04:51:47.027 05/09/2075]',-178.559,16.020,-16.801,207.473,-176.215,50.012,-99.634,255.140,-36.728,-1.954,34.383,-16.801,-17.192,-10.940,-21.490,29.304,6.642,0.391,17.582,-91.429,-8.205,78.144,-21.490
'[04:51:47.031 05/09/2075]',-192.625,19.927,-39.072,233.260,-180.904,50.794,-101.197,253.968,-25.397,-1.172,30.085,-22.271,-16.020,3.907,-29.304,21.880,25.397,112.137,39.853,-84.786,5.861,83.223,-29.304
'[04:51:47.035 05/09/2075]',-198.877,29.304,-59.780,230.525,-185.983,48.059,-106.276,246.935,-20.317,21.880,-2.344,-17.973,-18.755,13.675,-33.993,19.145,39.463,126.593,60.562,-65.250,-17.192,89.475,-33.993
'[04:51:47.039 05/09/2075]',-197.705,28.913,-5.861,164.884,-193.016,47.277,-106.667,243.419,-33.602,-19.145,34.774,-23.834,-23.834,1.954,-35.165,14.457,6.642,-1.172,6.642,-71.111,-21.880,78.926,-35.165
'[04:51:47.043 05/09/2075]',-206.300,38.681,-11.331,175.043,-196.923,50.012,-107.057,252.015,-34.383,-36.728,56.654,-15.238,-23.834,14.066,-38.291,16.410,-7.814,-21.490,12.112,-68.376,-30.476,90.647,-38.291
'[04:51:47.047 05/09/2075]',-210.598,35.165,-21.490,171.136,-204.737,49.621,-111.746,241.074,-31.648,1.172,8.987,-26.178,-24.615,23.443,-56.654,9.377,18.755,51.966,22.271,-75.409,-14.066,95.336,-56.654
'[04:51:47.051 05/09/2075]',-206.300,24.615,-25.788,176.996,-206.691,50.403,-117.998,244.200,-36.337,9.768,-9.768,-23.053,-25.397,2.344,-50.012,12.894,14.457,29.695,26.569,-85.958,-8.205,86.740,-50.012
'[04:51:47.055 05/09/2075]',-206.691,17.192,-41.807,198.486,-207.473,53.138,-120.342,243.810,-38.681,-11.331,17.582,-23.443,-27.350,4.298,-51.575,17.582,-2.735,4.298,42.589,-85.177,-11.722,94.554,-51.575
'[04:51:47.059 05/09/2075]',-213.333,25.397,-55.873,205.128,-212.943,60.952,-122.686,235.604,-32.821,-1.954,12.112,-29.304,-25.006,6.252,-54.310,20.317,10.940,41.026,56.654,-70.330,-17.973,86.740,-54.310
'[04:51:47.063 05/09/2075]',-215.287,23.834,-54.701,205.519,-215.287,62.515,-125.421,238.730,-35.946,-3.126,7.424,-23.053,-29.304,-4.298,-38.291,17.192,6.252,6.252,55.482,-75.409,-26.569,87.521,-38.291
'[04:51:47.066 05/09/2075]',-221.929,25.006,-43.370,198.486,-223.883,65.641,-127.375,244.200,-43.761,-36.337,42.198,-15.238,-31.648,-15.629,-30.867,25.006,-14.457,-50.794,44.151,-71.502,-32.430,76.190,-30.867
'[04:51:47.070 05/09/2075]',-223.492,26.960,-50.012,202.002,-225.836,72.674,-131.282,240.293,-39.853,-14.457,26.178,-26.960,-26.960,2.344,-39.072,7.814,6.642,24.225,50.794,-67.985,19.145,46.886,-39.072
'[04:51:47.074 05/09/2075]',-230.134,21.490,-57.045,212.552,-227.790,71.893,-135.189,238.339,-41.807,3.907,4.298,-29.695,-35.556,12.894,-37.509,-2.735,24.615,38.681,57.827,-72.283,29.304,58.999,-37.509
'[04:51:47.078 05/09/2075]',-230.916,16.410,-65.641,217.241,-235.604,73.455,-139.487,239.902,-50.794,-23.834,39.072,-24.615,-33.602,10.159,-40.635,3.126,7.814,-55.092,66.422,-60.952,10.159,60.562,-40.635
'[04:51:47.082 05/09/2075]',-227.790,10.159,-73.455,223.101,-235.604,76.581,-145.348,237.949,-52.747,-28.132,51.575,-30.476,-40.244,7.814,-35.556,7.814,8.205,-42.198,74.237,-60.171,8.987,52.747,-35.556
'[04:51:47.086 05/09/2075]',-230.525,23.053,-66.813,217.241,-235.604,85.177,-143.785,237.558,-39.853,1.172,21.880,-27.350,-40.635,8.596,-28.132,14.847,29.695,30.476,67.595,-66.813,1.172,52.357,-28.132
'[04:51:47.090 05/09/2075]',-234.432,20.708,-66.813,218.803,-246.154,88.303,-143.785,240.684,-48.449,-11.331,33.211,-22.271,-39.072,-1.563,-33.602,24.615,17.192,-8.205,67.595,-78.535,-3.516,59.780,-33.602
'[04:51:47.094 05/09/2075]',-237.558,26.178,-57.827,211.770,-249.670,96.899,-144.567,241.074,-57.045,-39.853,70.720,-26.178,-38.291,3.516,-48.449,28.913,-5.470,-55.482,58.608,-75.409,25.788,34.383,-48.449
'[04:51:47.098 05/09/2075]',-232.088,28.523,-46.496,198.877,-251.624,108.620,-141.441,234.042,-52.747,-7.814,46.496,-33.602,-41.416,9.377,-45.324,28.132,17.582,44.542,47.277,-79.707,25.788,33.211,-45.324
'[04:51:47.102 05/09/2075]',-241.074,21.490,-47.668,207.082,-264.518,114.872,-141.832,232.479,-53.138,9.768,28.523,-39.072,-39.853,34.383,-75.018,25.397,37.118,96.117,48.449,-84.786,33.993,66.422,-75.018
'[04:51:47.105 05/09/2075]',-241.856,9.768,-51.966,221.929,-268.034,116.825,-148.083,238.339,-64.860,-21.099,62.515,-30.085,-41.807,8.596,-62.125,41.026,5.079,-25.397,52.747,-95.726,55.092,38.681,-62.125
'[04:51:47.109 05/09/2075]',-228.962,13.675,-57.045,219.194,-264.908,125.812,-150.037,236.386,-65.641,-17.973,68.767,-25.788,-46.496,5.079,-52.747,53.138,0.000,-27.350,57.827,-76.972,16.801,30.867,-52.747
'[04:51:47.113 05/09/2075]',-242.247,12.112,-50.794,216.850,-272.332,128.938,-153.162,232.869,-64.078,-4.689,38.291,-25.397,-48.059,8.205,-71.502,54.310,29.695,28.913,51.575,-98.462,44.933,42.198,-71.502
'[04:51:47.117 05/09/2075]',-248.107,19.927,-59.389,209.426,-281.319,131.282,-157.460,230.525,-71.893,-18.364,40.635,-21.880,-50.012,1.172,-78.144,55.092,25.006,-9.377,60.171,-73.846,26.178,26.960,-78.144
'[04:51:47.121 05/09/2075]',-243.810,23.443,-52.357,194.579,-278.193,138.315,-163.712,225.836,-71.893,-27.741,44.151,-21.490,-52.357,-6.252,-78.926,60.562,25.397,7.814,53.138,-75.409,18.364,25.397,-78.926
'[04:51:47.125 05/09/2075]',-245.763,22.662,-62.515,187.155,-283.272,143.394,-166.838,209.426,-71.111,-15.629,34.383,-35.946,-48.059,5.079,-91.038,44.151,50.403,56.654,63.297,-73.065,39.072,21.880,-91.038
'[04:51:47.129 05/09/2075]',-237.167,19.145,-80.098,191.844,-282.882,146.520,-174.652,205.910,-75.409,-16.410,33.993,-31.258,-46.496,-0.781,-83.223,41.416,53.138,-12.503,80.879,-67.204,37.900,8.987,-83.223
'[04:51:47.133 05/09/2075]',-238.339,14.847,-96.899,195.751,-284.835,147.692,-186.764,200.440,-81.661,-12.112,26.178,-26.960,-53.529,-17.192,-68.767,44.542,32.821,-63.687,97.680,-75.409,40.244,-2.735,-68.767
'[04:51:47.137 05/09/2075]',-241.465,8.205,-107.057,180.904,-291.477,146.129,-191.844,178.168,-80.879,24.225,-17.582,-41.807,-55.482,-17.973,-71.893,28.913,53.529,4.689,107.839,-73.455,42.589,-1.954,-71.893
'[04:51:47.141 05/09/2075]',-245.763,16.020,-107.057,169.573,-289.915,148.474,-195.751,170.745,-81.270,45.324,-45.324,-43.761,-55.873,-19.927,-71.111,22.662,69.158,-0.781,107.839,-76.581,42.589,0.000,-71.111
'[04:51:47.145 05/09/2075]',-261.392,12.894,-109.792,175.043,-300.073,148.474,-203.175,172.308,-88.694,7.033,-14.457,-35.165,-64.860,-22.271,-75.018,31.258,44.933,-92.991,110.574,-85.177,47.668,4.689,-75.018
'[04:51:47.148 05/09/2075]',-255.922,7.814,-105.495,167.619,-291.477,150.427,-205.128,160.586,-82.051,6.642,-11.722,-42.198,-58.217,-24.615,-80.098,32.821,51.184,-48.449,106.276,-84.396,48.449,6.642,-80.098
'[04:51:47.152 05/09/2075]',-250.452,16.801,-117.998,150.037,-294.994,159.805,-207.473,141.832,-75.018,35.165,-36.728,-64.469,-53.138,-12.894,-87.912,12.894,76.190,27.350,118.779,-63.687,58.608,-25.397,-87.912
'[04:51:47.156 05/09/2075]',-248.889,13.284,-126.203,159.414,-301.245,163.712,-212.161,147.302,-84.786,8.596,-11.331,-50.794,-58.999,-18.364,-88.303,26.960,62.515,-55.873,126.984,-64.860,36.337,-17.582,-88.303
'[04:51:47.160 05/09/2075]',-246.545,8.987,-123.468,152.772,-303.590,168.400,-211.380,138.315,-95.726,-3.907,14.457,-59.389,-61.343,-18.755,-87.521,22.662,49.621,-96.117,124.249,-71.111,43.370,-17.973,-87.521
'[04:51:47.164 05/09/2075]',-246.935,15.629,-134.017,140.269,-308.669,173.480,-209.035,119.170,-97.680,23.443,-7.814,-78.926,-60.562,-21.490,-75.018,-3.126,79.707,3.516,134.799,-60.562,35.556,-23.053,-75.018
'[04:51:47.168 05/09/2075]',-248.498,20.317,-103.541,159.023,-302.027,180.122,-199.267,148.474,-94.945,35.556,-15.629,-35.946,-67.204,-18.364,-55.482,30.476,105.885,-3.516,104.322,-97.289,58.999,-12.894,-55.482
'[04:51:47.172 05/09/2075]',-259.048,14.457,-90.256,151.990,-312.186,176.215,-195.751,150.037,-114.872,7.033,17.973,-29.304,-75.409,-25.006,-59.389,40.635,69.158,-70.720,91.038,-94.945,63.297,-17.973,-59.389
'[04:51:47.176 05/09/2075]',-255.531,10.549,-96.899,157.851,-307.106,173.871,-192.625,141.832,-112.527,-9.377,38.681,-30.085,-77.363,-35.556,-47.668,47.668,70.720,-71.502,97.680,-89.084,31.648,-4.298,-47.668
'[04:51:47.180 05/09/2075]',-248.107,3.907,-84.786,146.911,-304.762,173.871,-191.062,139.878,-102.369,-3.516,21.880,-24.615,-69.548,-22.271,-62.906,46.105,85.568,-73.065,85.568,-94.945,80.879,-31.648,-62.906
'[04:51:47.184 05/09/2075]',-244.591,5.470,-91.819,146.911,-300.855,169.182,-191.453,139.096,-107.448,-17.192,31.648,-24.225,-74.237,-12.894,-74.628,44.151,69.158,-126.984,92.601,-80.879,48.449,-8.596,-74.628
'[04:51:47.188 05/09/2075]',-241.856,6.252,-98.852,142.613,-296.557,169.963,-192.625,127.766,-99.634,-13.675,35.946,-41.026,-72.674,-16.801,-51.966,23.053,71.111,-100.415,99.634,-76.190,21.880,5.470,-51.966
'[04:51:47.191 05/09/2075]',-236.777,15.629,-94.554,129.719,-288.352,170.745,-187.546,119.170,-87.912,4.689,27.741,-53.138,-62.515,8.596,-56.264,1.172,91.819,-56.264,95.336,-80.879,97.289,-39.072,-56.264
'[04:51:47.195 05/09/2075]',-244.591,9.768,-94.945,141.832,-295.385,162.540,-186.374,131.282,-101.197,-1.563,35.556,-40.244,-73.846,0.391,-50.794,15.629,69.939,-110.574,95.726,-86.740,84.786,-31.258,-50.794
'[04:51:47.199 05/09/2075]',-242.637,1.563,-94.554,142.222,-296.166,156.679,-182.466,128.156,-109.011,-18.755,65.250,-42.979,-71.502,-1.172,-41.026,8.205,51.966,-139.487,95.336,-89.475,90.256,-27.350,-41.026
'[04:51:47.203 05/09/2075]',-240.684,0.391,-94.554,144.957,-293.822,154.335,-178.168,126.593,-98.852,5.470,36.337,-37.118,-69.158,1.954,-41.416,14.457,69.548,-53.529,95.336,-88.303,99.634,-32.430,-41.416
'[04:51:47.207 05/09/2075]',-234.432,-2.344,-52.357,124.640,-290.696,155.897,-169.182,137.924,-101.197,10.159,28.913,-10.549,-73.455,-4.689,-36.728,42.589,69.158,-68.767,53.138,-103.932,89.475,-21.490,-36.728
'[04:51:47.211 05/09/2075]',-238.730,17.192,-68.376,127.766,-291.868,156.679,-168.400,141.050,-108.230,-19.145,60.952,-7.424,-72.283,-14.457,-36.728,49.621,48.449,-142.222,69.158,-78.926,47.668,-29.304,-36.728
'[04:51:47.215 05/09/2075]',-239.512,20.317,-57.045,114.481,-293.040,158.632,-162.540,135.189,-101.197,-11.722,52.747,-12.503,-71.502,-17.192,-39.463,55.092,60.562,-78.535,57.827,-76.972,56.654,-44.933,-39.463
'[04:51:47.219 05/09/2075]',-242.247,19.927,-52.747,114.090,-294.603,157.070,-157.460,133.626,-97.680,9.377,24.225,-12.894,-72.674,-24.615,-35.556,56.264,78.535,-7.814,53.529,-82.442,61.734,-47.668,-35.556
'[04:51:47.223 05/09/2075]',-239.902,8.205,-69.548,135.580,-293.822,149.646,-157.460,135.189,-95.726,-15.629,48.840,-19.145,-62.906,-20.317,-39.072,41.026,55.873,-96.899,70.330,-80.098,72.283,-34.383,-39.072
'[04:51:47.227 05/09/2075]',-233.260,-2.344,-66.422,140.659,-292.259,144.567,-153.553,138.706,-99.634,-31.258,66.032,-11.722,-59.389,-3.126,-59.389,45.714,41.807,-141.441,67.204,-74.628,90.256,-28.913,-59.389
'[04:51:47.230 05/09/2075]',-227.790,-3.126,-39.463,123.468,-282.100,146.520,-147.692,135.580,-85.568,-6.642,37.118,-21.099,-56.264,1.172,-56.264,34.383,69.158,-34.774,40.244,-95.726,117.216,-22.271,-56.264
'[04:51:47.234 05/09/2075]',-228.962,5.079,-30.867,113.700,-285.226,145.348,-144.957,143.004,-78.535,-0.391,24.225,-13.675,-58.217,7.033,-55.482,37.118,72.674,-17.192,31.648,-92.210,106.667,-26.960,-55.482
'[04:51:47.238 05/09/2075]',-226.618,19.927,-43.761,109.011,-283.663,142.613,-147.692,145.739,-82.051,-29.304,48.840,-14.457,-55.482,-0.781,-69.158,48.059,46.105,-86.349,44.542,-75.409,75.800,-37.118,-69.158
'[04:51:47.242 05/09/2075]',-224.664,11.722,-7.424,80.879,-281.319,145.739,-141.832,138.706,-75.800,-38.291,55.092,-20.708,-59.780,-8.205,-60.171,49.231,45.714,-51.966,8.205,-99.634,92.210,-38.291,-60.171
'[04:51:47.246 05/09/2075]',-222.711,23.443,-30.085,95.726,-273.895,141.832,-141.832,141.050,-64.860,-32.430,44.542,-18.755,-52.747,-15.629,-45.324,42.198,53.529,-46.886,30.867,-83.223,53.529,-30.476,-45.324
'[04:51:47.250 05/09/2075]',-218.022,14.066,-36.728,108.230,-266.471,135.580,-144.957,143.394,-65.641,-52.357,58.999,-10.159,-55.873,-13.284,-52.747,53.529,34.774,-119.951,37.509,-81.270,67.985,-38.681,-52.747
'[04:51:47.254 05/09/2075]',-219.585,19.536,-24.225,90.647,-261.392,137.924,-139.487,129.719,-57.436,-44.151,57.045,-28.132,-52.357,-16.020,-40.244,36.337,40.635,-68.376,25.006,-82.833,66.032,-32.430,-40.244
'[04:51:47.258 05/09/2075]',-212.943,31.648,-63.687,111.746,-252.405,137.924,-140.659,121.123,-46.105,-30.476,46.105,-37.900,-51.184,-8.596,-35.946,26.960,58.999,-23.053,64.469,-69.548,47.668,-30.085,-35.946
'[04:51:47.262 05/09/2075]',-220.366,18.755,-66.422,118.388,-257.875,130.501,-144.567,121.123,-49.621,-57.045,67.985,-31.258,-53.138,-7.424,-40.244,30.476,36.728,-117.607,67.204,-76.190,73.455,-35.556,-40.244
'[04:51:47.266 05/09/2075]',-217.631,8.205,-68.767,115.653,-259.048,126.984,-145.739,115.653,-52.747,-76.190,83.614,-34.774,-51.575,-23.443,-41.807,35.946,21.880,-135.971,69.548,-73.846,47.668,-17.192,-41.807
'[04:51:47.270 05/09/2075]',-214.115,-0.391,-80.879,135.580,-253.968,125.031,-146.911,114.481,-35.946,-47.668,53.919,-37.118,-51.184,-4.298,-33.602,23.053,45.324,-48.449,81.661,-70.330,82.833,-32.039,-33.602
'[04:51:47.273 05/09/2075]',-216.459,-11.722,-73.455,134.017,-252.405,117.607,-149.646,116.044,-39.463,-65.250,61.343,-26.960,-51.184,-12.112,-34.383,26.960,32.039,-105.104,74.237,-69.548,98.071,-37.509,-34.383
'[04:51:47.277 05/09/2075]',-207.863,-13.284,-68.376,126.593,-246.154,116.825,-147.302,111.746,-45.324,-95.336,103.541,-30.085,-50.403,-14.066,-30.867,27.741,6.642,-188.327,69.158,-72.283,92.210,-34.383,-30.867
'[04:51:47.281 05/09/2075]',-206.691,2.344,-79.707,123.858,-238.730,117.998,-146.129,106.276,-36.728,-78.144,91.038,-35.946,-46.886,-8.987,-20.708,17.192,18.364,-111.355,80.488,-62.125,79.316,-37.118,-20.708
'[04:51:47.285 05/09/2075]',-203.956,7.814,-76.972,113.309,-235.995,114.481,-142.613,103.541,-31.648,-64.860,71.502,-34.383,-50.012,-12.503,-9.377,11.722,32.039,-70.330,77.753,-64.078,74.237,-40.635,-9.377
'[04:51:47.289 05/09/2075]',-200.830,12.894,-72.674,110.965,-230.916,112.137,-143.394,112.527,-35.165,-88.303,94.945,-25.006,-45.714,-16.801,-10.549,19.536,1.563,-166.838,73.455,-76.581,69.939,-30.867,-10.549
'[04:51:47.293 05/09/2075]',-201.612,9.377,-81.270,121.123,-227.009,110.574,-145.739,109.792,-29.695,-92.601,99.634,-30.085,-38.681,-8.987,-12.503,8.205,-7.424,-190.281,82.051,-65.641,75.409,-28.523,-12.503
'[04:51:47.297 05/09/2075]',-193.797,7.814,-75.800,123.077,-219.194,110.965,-139.878,109.011,-16.020,-66.422,68.767,-23.443,-35.556,0.000,-8.205,7.033,22.271,-100.806,76.581,-69.939,87.131,-25.788,-8.205
'[04:51:47.301 05/09/2075]',-183.248,-10.159,-80.879,130.110,-218.413,105.104,-140.269,107.448,-17.192,-68.376,60.171,-20.317,-36.728,-9.377,-8.987,8.987,19.145,-103.932,81.661,-74.237,82.051,-19.536,-8.987
'[04:51:47.305 05/09/2075]',-186.374,-6.642,-75.018,134.017,-219.585,105.495,-135.189,114.481,-19.927,-76.581,77.363,-12.503,-33.211,-4.298,-8.596,14.066,1.172,-139.487,75.800,-64.860,70.720,-10.159,-8.596
'[04:51:47.309 05/09/2075]',-182.076,-2.344,-60.562,105.495,-222.711,102.759,-128.156,107.057,-21.099,-71.893,67.204,-14.847,-34.383,-20.317,0.000,13.675,9.377,-88.303,61.343,-59.780,63.297,-33.602,0.000
'[04:51:47.313 05/09/2075]',-184.420,8.987,-53.919,94.554,-223.101,102.369,-128.156,113.700,-22.271,-68.767,54.310,-13.675,-35.946,-28.523,-0.781,14.457,13.675,-109.011,54.701,-55.873,48.449,-39.853,-0.781
'[04:51:47.316 05/09/2075]',-191.062,11.331,-48.449,92.601,-220.366,100.024,-130.110,115.263,-19.145,-78.535,62.125,-20.708,-24.225,-23.053,-15.238,6.252,0.000,-171.526,49.231,-60.562,85.958,-49.231,-15.238
'[04:51:47.320 05/09/2075]',-183.248,6.642,-59.780,97.289,-214.505,99.243,-134.017,109.402,-11.331,-50.794,29.695,-31.258,-22.662,-16.410,-25.006,0.391,21.490,-95.336,60.562,-65.641,103.932,-50.403,-25.006
'[04:51:47.324 05/09/2075]',-182.466,5.079,-66.422,95.336,-214.896,97.289,-132.845,101.978,-6.642,-39.853,12.503,-34.383,-22.271,-21.099,-28.913,4.298,39.853,-46.886,67.204,-60.952,87.912,-42.198,-28.913
'[04:51:47.328 05/09/2075]',-180.122,-3.907,-79.707,109.792,-214.115,92.210,-138.315,104.322,-14.066,-60.562,32.821,-30.085,-25.788,-21.490,-35.165,10.940,19.536,-123.077,80.488,-69.548,91.429,-31.648,-35.165
'[04:51:47.332 05/09/2075]',-179.731,0.391,-91.819,111.355,-215.287,91.038,-139.487,101.978,-17.192,-69.158,40.244,-28.913,-25.788,-32.430,-36.728,19.927,10.940,-111.746,92.601,-52.747,64.078,-32.821,-36.728
'[04:51:47.336 05/09/2075]',-186.764,17.192,-66.032,80.098,-213.333,93.382,-133.626,97.289,-7.814,-46.886,11.331,-28.132,-28.523,-25.397,-38.291,21.490,36.337,-26.178,66.813,-54.310,70.720,-43.370,-38.291
'[04:51:47.340 05/09/2075]',-184.811,18.364,-57.045,62.906,-212.943,91.429,-134.017,94.164,-12.112,-55.482,16.801,-33.602,-30.085,-23.834,-40.635,10.549,22.662,-83.223,57.827,-51.575,72.674,-50.403,-40.635
'[04:51:47.344 05/09/2075]',-181.294,14.066,-57.045,66.813,-209.426,90.256,-134.017,95.336,-12.503,-73.846,37.900,-35.946,-25.397,-21.099,-45.714,8.987,2.344,-148.083,57.827,-53.529,85.958,-53.919,-45.714
'[04:51:47.348 05/09/2075]',-176.606,7.424,-71.111,71.111,-209.426,88.694,-133.236,84.396,-8.596,-51.575,16.020,-45.324,-26.569,-17.973,-40.635,-3.907,22.271,-52.357,71.893,-47.668,78.535,-46.496,-40.635
'[04:51:47.352 05/09/2075]',-175.043,0.391,-78.535,69.939,-214.896,84.786,-133.236,79.707,-7.424,-28.913,-12.894,-47.277,-30.085,-14.066,-35.556,-15.238,34.383,9.768,79.316,-48.059,71.111,-34.774,-35.556
'[04:51:47.355 05/09/2075]',-170.745,-5.470,-89.084,83.223,-212.552,81.661,-134.017,81.270,-12.894,-57.045,19.145,-41.807,-27.350,-20.317,-34.383,-10.159,2.735,-99.243,89.866,-42.198,58.608,-28.132,-34.383
'[04:51:47.359 05/09/2075]',-175.824,-3.126,-101.978,97.289,-210.598,78.144,-134.017,81.661,-16.801,-64.469,29.304,-29.304,-23.053,-19.536,-41.026,2.344,-4.298,-105.495,102.759,-35.165,64.078,-32.430,-41.026
'[04:51:47.363 05/09/2075]',-171.526,9.768,-50.403,41.807,-206.691,81.270,-122.686,76.581,-9.377,-42.198,4.689,-24.615,-23.443,-12.503,-34.774,0.000,19.927,-34.774,51.184,-41.807,69.939,-43.761,-34.774
'[04:51:47.367 05/09/2075]',-164.493,5.079,-62.125,51.966,-202.002,74.237,-123.858,81.270,-16.410,-44.933,2.344,-14.066,-33.211,-19.536,-27.741,7.814,11.331,-69.548,62.906,-38.291,45.324,-39.853,-27.741
'[04:51:47.371 05/09/2075]',-161.368,0.781,-59.780,46.886,-200.830,71.893,-121.514,75.800,-19.927,-47.277,11.722,-13.675,-31.258,-15.629,-23.443,3.126,-1.172,-57.827,60.562,-38.291,56.264,-41.807,-23.443
