'Time and date','FP1-F7','F7-T7','T7-P7','P7-O1','FP1-F3','F3-C3','C3-P3','P3-O1','FP2-F4','F4-C4','C4-P4','P4-O2','FP2-F8','F8-T8','T8-P8','P8-O2','FZ-CZ','CZ-PZ','P7-T7','T7-FT9','FT9-FT10','FT10-T8','T8-P8'
'hh:mm:ss.mmm dd/mm/yyyy','uV','uV','uV','uV','uV','uV','uV','uV','uV','uV','uV','uV','uV','uV','uV','uV','uV','uV','uV','uV','uV','uV','uV'
'[09:22:42.000 14/03/2059]',-54.701,5.861,14.847,53.138,-214.896,196.532,-101.587,139.096,238.730,13.284,14.847,-10.159,160.195,94.945,25.397,-23.834,-42.589,21.490,-14.066,-102.369,93.773,60.562,25.397
'[09:22:42.004 14/03/2059]',0.391,0.391,0.391,0.391,0.391,0.391,0.391,0.391,0.391,0.391,0.391,0.391,0.391,0.391,0.391,0.391,0.391,0.391,0.391,0.391,0.391,0.391,0.391
'[09:22:42.008 14/03/2059]',0.391,0.391,0.391,0.391,0.391,0.391,0.391,0.391,0.391,0.391,0.391,0.391,0.391,0.391,0.391,0.391,0.391,0.391,0.391,0.391,0.391,0.391,0.391
'[09:22:42.012 14/03/2059]',0.391,0.391,0.391,0.391,0.391,0.000,0.000,0.781,0.000,0.391,0.391,0.391,0.000,0.000,0.391,0.391,0.391,0.391,0.391,0.000,0.391,0.391,0.391
'[09:22:42.016 14/03/2059]',0.391,0.391,0.391,0.391,0.000,0.781,-0.391,1.172,0.781,0.391,0.391,0.391,0.781,0.391,0.391,0.391,0.391,0.391,0.391,0.391,0.391,0.391,0.391
'[09:22:42.020 14/03/2059]',1.172,0.781,0.781,0.391,0.000,2.344,2.735,-1.563,2.735,0.391,0.781,0.391,2.344,1.563,0.391,0.000,-0.391,-0.781,0.000,2.735,0.391,-0.781,0.391
'[09:22:42.023 14/03/2059]',0.781,0.781,0.391,0.391,0.391,0.781,5.470,-4.298,1.172,0.391,0.781,0.391,1.172,1.563,0.000,0.000,-0.391,0.391,0.391,0.781,0.000,1.563,0.000
'[09:22:42.027 14/03/2059]',-0.781,0.391,0.000,0.781,0.391,-1.172,-0.391,1.172,-1.563,0.000,0.391,1.172,-1.172,0.000,0.391,0.781,0.000,1.563,0.781,-5.079,0.781,5.079,0.391
'[09:22:42.031 14/03/2059]',-1.172,0.391,0.391,0.391,-1.563,0.391,-7.033,8.205,0.000,0.391,0.391,1.172,-0.391,-0.781,1.954,0.391,0.391,0.391,0.391,-2.344,1.563,0.391,1.954
'[09:22:42.035 14/03/2059]',0.391,1.954,1.172,-0.391,-1.563,3.126,1.563,0.391,2.735,0.391,0.781,0.781,3.126,0.391,1.563,-0.391,0.781,-1.954,-0.391,8.987,0.000,-8.205,1.563
'[09:22:42.039 14/03/2059]',1.563,1.954,1.172,0.391,-2.344,5.079,14.066,-10.940,6.642,0.391,1.172,0.781,5.861,4.689,-0.391,-0.781,-1.172,-2.344,-0.391,6.252,-0.391,-0.781,-0.391
'[09:22:42.043 14/03/2059]',2.735,5.861,3.516,0.391,-8.987,19.536,18.755,-14.847,23.053,0.000,5.079,0.781,17.192,16.410,0.000,-5.079,-10.940,-8.205,-2.735,1.954,1.563,9.768,0.000
'[09:22:42.047 14/03/2059]',5.079,10.159,4.689,-1.172,-8.596,20.708,35.556,-28.132,25.006,-3.516,7.814,3.907,21.099,20.708,0.781,-8.596,-16.020,-10.549,-3.907,10.940,-1.954,7.814,0.781
'[09:22:42.051 14/03/2059]',-5.861,13.284,2.344,1.563,-21.490,19.927,33.993,-20.317,20.708,-5.470,6.642,13.675,17.192,22.662,2.344,-7.033,-19.145,-8.205,-1.563,-3.907,1.954,19.536,2.344
'[09:22:42.055 14/03/2059]',-12.503,18.364,1.563,0.781,-31.648,24.615,23.053,-6.252,19.927,-7.814,6.252,20.317,17.973,14.847,13.675,-7.814,-19.536,-11.331,-0.781,-16.020,7.033,18.364,13.675
'[09:22:42.059 14/03/2059]',-17.582,25.788,2.344,-0.391,-40.635,26.178,28.523,-4.298,19.145,-7.033,5.079,26.960,21.880,12.112,19.145,-8.987,-10.549,-18.364,-1.563,3.907,5.079,-2.344,19.145
'[09:22:42.063 14/03/2059]',-25.788,29.695,1.954,2.344,-52.357,29.304,38.681,-6.252,15.629,-5.079,0.000,35.165,21.880,11.722,19.145,-7.033,-0.781,-22.271,-1.172,10.159,10.549,-9.768,19.145
'[09:22:42.066 14/03/2059]',-30.085,33.211,4.689,5.079,-58.608,37.900,37.900,-3.907,19.536,-1.172,-3.516,35.946,23.834,14.847,18.364,-7.033,5.079,-27.741,-3.907,-5.470,18.755,5.861,18.364
'[09:22:42.070 14/03/2059]',-32.430,40.635,6.252,1.954,-63.687,47.277,32.821,0.391,19.145,2.735,-4.689,35.165,24.615,17.973,19.927,-9.768,10.940,-34.774,-5.470,-0.391,19.927,5.079,19.927
'[09:22:42.074 14/03/2059]',-37.118,42.979,6.642,3.516,-72.674,53.529,31.258,4.689,10.549,7.424,-7.814,40.244,19.145,18.755,21.099,-8.205,17.973,-35.165,-5.861,11.722,23.443,-6.252,21.099
'[09:22:42.078 14/03/2059]',-41.026,45.714,5.079,3.907,-79.316,59.389,33.993,0.391,7.424,10.159,-10.549,44.542,16.410,17.582,21.490,-4.298,20.317,-30.867,-4.298,-1.172,29.304,2.735,21.490
'[09:22:42.082 14/03/2059]',-38.291,49.621,4.689,2.735,-79.316,66.422,39.072,-7.033,8.987,14.847,-9.377,43.370,19.145,22.662,19.927,-4.689,19.927,-28.132,-3.907,-7.033,28.913,15.238,19.927
'[09:22:42.086 14/03/2059]',-40.244,51.575,4.298,3.516,-84.396,69.548,37.509,-3.126,8.987,18.755,-12.503,46.105,21.490,29.695,14.066,-4.298,24.225,-26.960,-3.516,8.205,30.085,7.424,14.066
'[09:22:42.090 14/03/2059]',-46.105,51.575,3.516,7.033,-89.866,70.720,33.602,2.344,10.549,21.099,-18.364,50.012,24.615,33.993,7.424,-2.735,25.006,-23.443,-2.735,9.377,34.774,10.549,7.424
'[09:22:42.094 14/03/2059]',-47.277,52.357,3.516,7.814,-89.475,73.846,33.993,-1.172,15.238,23.443,-24.615,46.886,29.304,33.993,2.344,-5.079,21.880,-24.225,-2.735,3.516,35.556,21.880,2.344
'[09:22:42.098 14/03/2059]',-47.668,51.575,0.391,7.424,-91.429,72.674,33.602,-2.344,13.675,24.615,-32.430,45.324,28.132,25.397,5.861,-7.424,20.708,-28.523,0.391,13.675,33.211,9.377,5.861
'[09:22:42.102 14/03/2059]',-50.794,48.840,-1.954,10.940,-92.991,66.422,31.648,1.954,12.112,21.490,-41.416,50.794,25.788,18.755,2.344,-3.126,17.192,-25.006,2.735,16.020,37.118,4.689,2.344
'[09:22:42.105 14/03/2059]',-49.231,46.496,-5.079,13.675,-90.256,64.860,29.304,1.172,16.020,17.192,-44.933,52.357,24.225,16.410,0.391,0.391,12.503,-21.880,5.861,3.516,39.463,15.629,0.391
'[09:22:42.109 14/03/2059]',-46.886,46.886,-7.033,10.940,-88.303,65.641,34.383,-8.205,17.973,14.847,-43.370,47.668,21.880,17.582,-1.172,0.000,10.159,-21.099,7.814,8.205,36.728,14.847,-1.172
'[09:22:42.113 14/03/2059]',-42.979,48.059,-7.814,10.159,-84.005,69.548,42.198,-19.927,21.880,11.331,-42.979,48.840,23.053,14.457,1.172,0.781,10.159,-17.582,8.596,15.238,36.337,7.033,1.172
'[09:22:42.117 14/03/2059]',-39.463,46.105,-9.768,14.847,-80.098,73.455,40.635,-22.271,25.006,9.768,-44.933,48.840,21.099,13.284,0.781,3.126,8.987,-8.596,10.549,7.033,40.244,11.331,0.781
'[09:22:42.121 14/03/2059]',-33.993,42.589,-10.159,14.066,-76.972,78.535,38.681,-28.523,25.006,11.331,-44.542,40.635,17.582,15.238,-0.391,0.391,8.596,-5.861,10.940,0.000,39.853,21.880,-0.391
'[09:22:42.125 14/03/2059]',-28.913,37.509,-6.642,13.284,-73.455,79.707,40.244,-31.258,25.788,13.675,-46.105,37.118,17.582,15.238,-0.781,0.391,13.284,-4.689,7.424,18.755,38.291,10.159,-0.781
'[09:22:42.129 14/03/2059]',-33.993,28.523,-2.735,18.755,-77.363,78.535,42.589,-32.821,24.225,17.192,-46.105,33.211,14.066,15.238,-1.563,1.563,16.801,4.298,3.516,24.225,39.072,10.549,-1.563
'[09:22:42.133 14/03/2059]',-39.072,23.834,0.391,21.099,-80.879,78.144,46.496,-37.509,23.834,19.536,-42.198,23.834,7.033,16.801,1.172,0.781,14.066,13.284,0.391,11.331,37.509,28.913,1.172
'[09:22:42.137 14/03/2059]',-41.807,23.053,4.689,20.317,-81.270,80.879,47.277,-39.072,26.569,22.662,-36.728,15.238,5.079,7.814,16.410,-1.563,16.801,17.192,-3.907,18.755,33.993,19.536,16.410
'[09:22:42.141 14/03/2059]',-44.542,20.708,8.987,26.960,-80.098,81.270,47.668,-35.165,28.913,23.834,-34.383,13.284,2.344,2.735,26.178,0.391,19.145,23.834,-8.205,28.132,34.774,5.861,26.178
'[09:22:42.145 14/03/2059]',-45.714,16.020,11.331,33.602,-75.800,78.535,53.919,-40.635,32.821,22.271,-33.211,10.549,-2.735,-0.391,31.258,4.689,20.317,28.132,-10.549,17.192,36.337,14.847,31.258
'[09:22:42.148 14/03/2059]',-43.761,12.894,16.020,35.556,-68.767,75.018,59.389,-43.370,35.946,23.053,-29.304,5.079,-5.470,-1.172,35.556,6.252,25.788,24.615,-15.238,14.847,35.165,17.973,35.556
'[09:22:42.152 14/03/2059]',-39.853,6.642,19.927,41.807,-62.515,67.985,58.999,-33.993,35.165,23.443,-26.569,3.516,-5.861,-5.079,39.072,9.377,31.648,23.053,-19.145,31.258,32.039,3.516,39.072
'[09:22:42.156 14/03/2059]',-40.635,0.391,22.271,48.449,-60.952,59.389,56.654,-24.615,30.476,22.271,-22.271,3.126,-8.987,-10.940,40.635,13.675,33.602,25.397,-21.490,31.258,30.085,4.298,40.635
'[09:22:42.160 14/03/2059]',-34.774,-3.907,23.834,48.840,-53.138,53.919,57.827,-23.834,26.569,23.834,-16.801,-3.907,-10.940,-10.159,39.853,11.331,35.165,21.490,-23.053,26.960,23.834,14.457,39.853
'[09:22:42.164 14/03/2059]',-31.648,-8.205,24.615,48.059,-47.668,48.840,60.562,-28.132,22.271,26.178,-13.284,-11.331,-10.940,-10.940,38.681,7.814,35.556,14.847,-23.834,33.602,16.801,15.629,38.681
'[09:22:42.168 14/03/2059]',-30.867,-13.284,25.788,51.966,-42.589,42.589,54.701,-21.490,19.927,23.443,-16.020,-10.940,-14.847,-13.284,32.821,12.112,36.337,14.457,-25.006,39.463,15.238,12.112,32.821
'[09:22:42.172 14/03/2059]',-30.867,-16.020,25.006,54.310,-34.383,35.556,49.621,-18.364,21.880,20.708,-17.192,-15.238,-19.536,-14.066,31.258,11.722,32.039,14.066,-24.225,26.178,14.066,22.271,31.258
'[09:22:42.176 14/03/2059]',-27.741,-15.238,26.960,51.966,-26.569,30.476,51.966,-19.536,27.741,18.755,-14.066,-24.225,-17.192,-23.053,41.807,7.033,26.960,10.549,-26.178,34.383,8.987,5.861,41.807
'[09:22:42.180 14/03/2059]',-27.350,-16.020,28.523,56.264,-19.927,21.880,53.919,-13.675,28.523,15.629,-10.549,-24.615,-18.364,-30.476,50.012,7.814,20.317,14.847,-27.741,46.496,7.033,-12.503,50.012
'[09:22:42.184 14/03/2059]',-27.741,-19.145,31.258,62.906,-13.284,12.894,55.482,-7.814,29.695,12.112,-8.596,-25.788,-21.880,-31.648,51.575,9.768,9.377,20.708,-30.476,33.211,7.033,-1.172,51.575
'[09:22:42.188 14/03/2059]',-24.615,-20.317,36.337,62.125,-3.516,5.861,56.654,-5.861,27.350,12.112,-3.907,-33.211,-26.178,-27.350,50.794,4.689,2.735,17.582,-35.556,27.350,5.861,9.377,50.794
'[09:22:42.191 14/03/2059]',-17.582,-22.271,41.416,63.297,9.377,-2.344,58.217,-1.172,23.834,10.159,-3.126,-35.165,-30.085,-26.960,49.231,4.298,1.172,12.894,-40.635,46.886,1.563,-1.954,49.231
'[09:22:42.195 14/03/2059]',-9.377,-24.615,42.979,69.158,25.006,-11.722,60.952,3.516,23.443,7.424,-5.079,-32.430,-32.821,-30.476,48.449,8.205,0.000,12.503,-42.198,46.886,1.172,-3.516,48.449
'[09:22:42.199 14/03/2059]',-3.516,-24.615,43.370,68.376,38.681,-20.317,63.297,1.563,27.350,5.861,-4.689,-38.291,-33.993,-30.476,50.403,3.907,-2.344,9.768,-42.589,34.774,-0.781,8.205,50.403
'[09:22:42.203 14/03/2059]',-1.172,-23.834,43.761,65.250,43.370,-26.569,60.562,5.861,30.085,5.079,-1.563,-42.979,-30.476,-32.430,54.701,0.000,-4.689,3.126,-42.979,48.840,-7.033,-1.954,54.701
'[09:22:42.207 14/03/2059]',-3.907,-26.569,42.979,69.548,42.589,-33.993,57.045,16.020,28.523,1.954,-1.172,-38.681,-30.085,-33.602,53.529,1.172,-7.424,3.126,-42.198,59.780,-8.987,-9.768,53.529
'[09:22:42.211 14/03/2059]',-7.424,-28.913,41.416,71.111,41.026,-40.244,61.343,12.112,24.225,0.781,-1.954,-37.900,-35.556,-26.960,46.105,1.954,-11.722,2.344,-40.635,47.277,-8.596,8.987,46.105
'[09:22:42.215 14/03/2059]',-5.861,-30.867,41.416,68.376,42.979,-42.979,66.032,6.252,19.536,1.563,-0.391,-40.635,-38.681,-26.960,46.105,0.000,-10.549,-4.689,-40.635,50.403,-12.503,10.940,46.105
'[09:22:42.219 14/03/2059]',1.954,-34.383,41.026,70.330,50.012,-44.933,60.171,13.284,14.847,1.954,-1.172,-35.946,-40.244,-36.728,54.701,1.954,-4.689,-8.987,-40.244,64.469,-15.629,-9.768,54.701
'[09:22:42.223 14/03/2059]',7.033,-37.509,36.728,72.283,57.045,-50.012,52.747,19.536,10.940,3.516,-3.907,-29.304,-43.370,-40.244,58.217,7.033,0.391,-10.159,-35.946,58.608,-15.238,-11.331,58.217
'[09:22:42.227 14/03/2059]',12.503,-38.681,34.383,66.813,66.813,-58.217,55.482,11.331,9.377,4.689,-0.391,-31.648,-41.026,-40.244,61.343,2.344,1.954,-17.192,-33.602,58.999,-21.880,-9.768,61.343
'[09:22:42.230 14/03/2059]',14.847,-38.681,30.867,62.125,71.502,-65.250,54.701,8.596,4.689,5.079,5.079,-32.039,-36.337,-41.807,63.297,0.391,2.735,-19.927,-30.085,73.065,-28.523,-21.490,63.297
'[09:22:42.234 14/03/2059]',13.675,-40.244,25.397,65.250,73.065,-76.190,53.529,14.066,-5.861,3.907,9.377,-25.006,-39.463,-39.463,59.389,2.344,1.954,-12.112,-24.615,69.158,-28.132,-19.536,59.389
'[09:22:42.238 14/03/2059]',11.331,-40.244,21.099,64.469,73.065,-83.614,54.310,13.284,-11.722,1.563,17.973,-26.569,-39.072,-31.258,51.966,0.391,-1.172,-5.470,-20.317,55.092,-28.132,-0.391,51.966
'[09:22:42.242 14/03/2059]',12.894,-40.244,22.662,62.906,73.065,-84.005,59.389,10.159,-15.238,1.563,29.695,-27.350,-35.165,-28.913,55.092,-1.172,0.000,-4.689,-21.880,67.204,-32.039,-10.549,55.092
'[09:22:42.246 14/03/2059]',18.755,-42.198,26.178,66.422,78.144,-84.396,64.469,10.940,-21.099,1.954,37.900,-20.708,-32.430,-29.695,59.780,1.563,3.907,2.344,-25.397,76.972,-31.258,-22.662,59.780
'[09:22:42.250 14/03/2059]',23.834,-46.105,28.523,68.767,82.051,-83.614,64.860,12.503,-26.178,3.126,44.151,-17.192,-32.821,-24.615,57.436,3.907,1.954,10.159,-27.741,61.343,-31.648,-5.079,57.436
'[09:22:42.254 14/03/2059]',33.211,-46.886,32.430,63.297,90.256,-80.879,65.250,8.596,-32.039,6.252,50.403,-17.582,-32.039,-23.834,59.389,3.907,0.391,10.549,-31.648,58.608,-36.337,-3.907,59.389
'[09:22:42.258 14/03/2059]',44.542,-48.059,35.556,60.562,99.634,-81.270,67.204,7.814,-42.589,8.987,51.966,-11.331,-32.039,-28.523,61.734,5.861,0.391,13.284,-34.774,71.893,-39.072,-22.662,61.734
'[09:22:42.262 14/03/2059]',44.933,-52.357,34.383,60.171,98.071,-86.349,73.455,3.126,-48.449,8.987,48.059,-4.689,-34.383,-26.960,54.701,10.159,-2.735,20.317,-33.602,62.906,-41.416,-15.629,54.701
'[09:22:42.266 14/03/2059]',41.026,-52.357,33.602,54.701,95.336,-90.647,82.442,-8.596,-46.496,6.252,43.370,-5.079,-34.383,-24.225,48.059,8.596,-7.814,17.582,-32.821,47.668,-43.370,-2.735,48.059
'[09:22:42.270 14/03/2059]',42.979,-50.794,34.774,46.496,98.071,-93.382,84.005,-14.457,-41.416,3.516,37.509,-3.126,-30.085,-25.397,44.542,6.642,-11.722,12.894,-33.993,56.264,-43.761,-14.457,44.542
'[09:22:42.273 14/03/2059]',45.714,-50.012,34.774,41.416,102.759,-95.726,84.005,-18.364,-36.337,-0.781,28.132,2.735,-28.132,-25.397,37.900,9.768,-14.847,12.112,-33.993,52.357,-42.198,-16.020,37.900
'[09:22:42.277 14/03/2059]',49.621,-45.324,35.165,30.476,111.355,-92.601,91.819,-39.072,-31.258,-4.298,22.271,1.172,-29.304,-21.490,29.695,9.768,-19.927,11.722,-34.383,31.648,-41.807,-0.391,29.695
'[09:22:42.281 14/03/2059]',61.343,-40.244,39.463,15.629,126.984,-83.614,99.634,-65.250,-27.741,-3.907,21.099,-0.781,-26.960,-17.973,26.178,7.814,-23.053,10.159,-38.681,28.523,-44.542,-0.391,26.178
'[09:22:42.285 14/03/2059]',66.422,-33.993,42.198,4.298,134.408,-75.409,103.541,-82.833,-27.350,-4.689,18.364,3.907,-29.304,-14.457,23.053,11.331,-21.490,16.410,-41.416,26.178,-46.886,-6.252,23.053
'[09:22:42.289 14/03/2059]',64.078,-28.913,41.416,-6.642,135.189,-66.032,105.885,-103.932,-26.569,-7.424,16.020,3.907,-35.165,-13.675,21.880,12.894,-23.053,22.662,-40.635,12.503,-50.012,-7.814,21.880
'[09:22:42.293 14/03/2059]',69.548,-21.490,41.416,-26.178,141.832,-51.575,109.402,-135.580,-18.364,-8.205,15.629,-1.172,-32.430,-16.801,26.960,9.377,-25.788,20.708,-40.635,-4.298,-57.045,-5.861,26.960
'[09:22:42.297 14/03/2059]',76.190,-12.894,41.416,-46.886,150.427,-39.853,110.183,-162.149,-11.331,-10.549,15.238,-1.172,-27.350,-19.145,29.304,8.205,-26.178,18.364,-40.635,-4.298,-64.860,-20.317,29.304
'[09:22:42.301 14/03/2059]',82.442,-6.252,37.900,-60.952,159.414,-27.741,103.932,-181.685,-7.424,-14.066,11.331,3.126,-28.523,-20.708,29.304,12.112,-28.132,21.099,-37.118,-26.960,-68.767,-16.020,29.304
'[09:22:42.305 14/03/2059]',94.554,-0.781,40.244,-77.363,175.043,-15.238,98.852,-201.221,-4.689,-15.629,10.549,4.689,-26.960,-16.020,25.006,14.066,-29.695,20.317,-39.463,-50.403,-73.846,1.563,25.006
'[09:22:42.309 14/03/2059]',103.932,1.172,44.933,-92.991,184.029,-5.470,94.945,-215.287,-6.642,-16.801,13.284,9.768,-23.443,-17.192,23.834,16.410,-27.741,17.192,-44.151,-39.853,-80.488,-12.503,23.834
'[09:22:42.313 14/03/2059]',107.448,1.954,43.761,-98.852,186.374,-1.172,94.164,-223.492,-19.145,-21.099,15.238,21.099,-30.867,-21.880,25.397,23.834,-24.225,20.317,-42.979,-37.900,-85.177,-24.225,25.397
'[09:22:42.316 14/03/2059]',109.792,-0.781,41.416,-103.150,185.201,2.735,86.349,-225.836,-29.304,-26.569,20.708,26.960,-37.118,-23.053,22.271,30.085,-26.569,23.443,-40.635,-54.701,-88.694,-11.331,22.271
'[09:22:42.320 14/03/2059]',109.402,-2.735,35.946,-111.355,179.341,4.298,72.283,-224.664,-35.556,-31.258,29.304,30.085,-35.556,-21.880,18.755,30.867,-27.350,17.973,-35.165,-51.184,-96.899,-12.894,18.755
'[09:22:42.324 14/03/2059]',106.276,-5.470,28.132,-112.527,169.573,2.344,59.389,-214.896,-42.198,-38.291,37.118,41.026,-34.383,-22.271,19.145,35.946,-24.225,16.801,-27.350,-37.509,-104.322,-26.960,19.145
'[09:22:42.328 14/03/2059]',110.574,-10.159,21.099,-106.667,166.838,0.781,51.184,-203.956,-49.231,-44.151,41.416,53.138,-37.118,-18.364,13.284,43.370,-23.443,21.099,-20.317,-45.714,-108.620,-14.066,13.284
'[09:22:42.332 14/03/2059]',119.170,-15.238,16.410,-103.541,168.791,-2.735,44.933,-193.016,-52.747,-46.105,47.277,58.217,-33.993,-21.490,16.020,45.714,-22.662,18.755,-15.629,-47.277,-115.653,-8.596,16.020
'[09:22:42.336 14/03/2059]',126.203,-22.662,14.847,-98.852,163.321,-6.642,34.383,-171.136,-57.045,-46.105,50.403,65.641,-31.258,-31.258,25.397,49.621,-18.755,19.927,-14.066,-25.788,-123.077,-30.867,25.397
'[09:22:42.340 14/03/2059]',135.971,-31.258,13.284,-87.521,160.977,-11.722,21.880,-140.269,-66.422,-45.324,50.403,75.409,-37.118,-36.728,30.476,57.436,-14.847,24.225,-12.503,-18.364,-125.812,-38.291,30.476
'[09:22:42.344 14/03/2059]',141.441,-43.370,13.284,-80.098,153.944,-19.536,19.145,-122.686,-69.158,-41.416,49.621,77.753,-38.291,-38.291,30.867,62.125,-14.847,23.834,-12.503,-18.755,-130.891,-28.913,30.867
'[09:22:42.348 14/03/2059]',141.832,-55.873,12.503,-73.846,139.878,-29.695,20.708,-107.057,-68.376,-38.681,49.231,78.926,-35.556,-37.509,30.867,63.687,-12.112,19.927,-11.722,-3.126,-133.236,-34.774,30.867
'[09:22:42.352 14/03/2059]',138.315,-68.376,12.112,-60.952,125.031,-42.198,14.066,-75.018,-71.502,-35.556,46.105,87.912,-38.291,-35.556,30.867,69.939,-5.861,21.490,-11.331,10.159,-135.580,-37.118,30.867
'[09:22:42.355 14/03/2059]',132.063,-81.270,12.503,-46.105,112.527,-55.482,13.675,-52.747,-72.674,-33.602,42.589,95.726,-41.026,-29.695,25.397,76.972,-3.907,25.006,-11.722,9.377,-132.845,-23.834,25.397
'[09:22:42.359 14/03/2059]',129.328,-91.819,16.801,-38.291,103.932,-63.297,15.629,-39.463,-67.204,-30.867,42.979,96.899,-35.946,-25.397,23.443,79.316,-3.126,23.053,-16.020,23.053,-133.626,-21.880,23.443
'[09:22:42.363 14/03/2059]',128.938,-97.289,23.053,-29.695,101.978,-67.595,14.066,-23.053,-66.422,-29.304,43.370,99.634,-37.509,-25.006,26.569,83.614,-1.172,28.132,-22.271,43.761,-134.799,-32.430,26.569
'[09:22:42.367 14/03/2059]',124.640,-101.197,27.350,-18.755,101.587,-70.330,10.159,-8.987,-62.515,-29.304,38.291,103.932,-43.761,-21.880,22.271,93.382,-4.689,35.165,-26.569,37.509,-130.891,-19.145,22.271
'[09:22:42.371 14/03/2059]',125.031,-101.587,30.476,-13.284,105.495,-71.893,6.642,0.000,-52.747,-30.476,37.509,99.243,-45.324,-20.708,21.880,98.071,-9.768,35.946,-29.695,28.523,-128.938,-7.033,21.880
'[09:22:42.375 14/03/2059]',123.858,-97.680,34.774,-11.331,109.402,-73.455,7.814,5.470,-44.151,-30.867,35.556,94.945,-46.496,-30.476,33.211,99.634,-10.159,34.383,-33.993,44.151,-130.110,-28.913,33.211
'[09:22:42.379 14/03/2059]',113.309,-94.554,35.946,-5.079,106.276,-77.363,12.894,8.205,-39.072,-32.039,31.648,95.336,-50.794,-36.728,36.728,105.885,-9.377,35.165,-35.165,46.496,-128.938,-35.946,36.728
'[09:22:42.383 14/03/2059]',103.932,-90.256,35.556,-1.954,105.104,-80.098,15.629,7.033,-32.430,-33.993,28.132,88.694,-54.310,-37.509,37.118,105.495,-12.503,33.602,-34.774,31.258,-126.593,-23.053,37.118
'[09:22:42.387 14/03/2059]',100.415,-83.614,35.165,-5.470,110.183,-81.661,9.768,8.596,-25.397,-36.728,26.960,77.753,-53.529,-40.244,39.463,96.508,-15.238,25.006,-34.383,38.291,-126.593,-28.913,39.463
'[09:22:42.391 14/03/2059]',91.819,-77.363,33.602,-6.252,111.355,-85.958,3.907,11.722,-21.490,-44.542,23.443,74.628,-56.654,-45.324,40.635,92.991,-19.145,20.317,-32.821,48.059,-123.077,-42.589,40.635
'[09:22:42.395 14/03/2059]',85.177,-73.455,30.476,-3.516,118.779,-93.773,1.563,11.331,-19.145,-53.138,20.317,68.376,-64.078,-46.496,37.118,89.475,-29.304,19.145,-29.695,33.211,-117.607,-29.695,37.118
'[09:22:42.398 14/03/2059]',83.223,-67.204,28.523,-5.470,130.891,-102.369,3.516,6.642,-14.847,-58.217,23.834,56.654,-66.032,-41.807,35.165,79.707,-37.900,16.410,-27.741,25.788,-113.700,-16.801,35.165
'[09:22:42.402 14/03/2059]',75.409,-60.952,29.695,-3.516,136.361,-110.965,1.954,12.112,-13.675,-61.734,30.476,51.184,-67.985,-39.853,37.118,76.972,-41.416,18.364,-28.913,35.165,-108.620,-26.178,37.118
'[09:22:42.406 14/03/2059]',67.595,-60.562,32.039,2.344,141.050,-119.560,-1.954,22.662,-18.364,-62.906,37.509,47.277,-74.237,-32.430,33.602,76.581,-45.324,25.397,-31.258,33.993,-101.978,-19.536,33.602
'[09:22:42.410 14/03/2059]',64.078,-55.873,32.039,2.735,147.692,-125.421,1.954,19.927,-18.364,-59.389,46.496,34.774,-73.846,-20.317,28.523,69.548,-47.277,27.350,-31.258,24.225,-97.289,-1.563,28.523
'[09:22:42.414 14/03/2059]',63.687,-50.794,31.258,1.563,153.944,-126.984,4.298,15.238,-15.238,-58.608,55.873,22.271,-69.939,-21.880,35.165,61.343,-44.933,26.569,-30.476,29.695,-95.726,-11.722,35.165
'[09:22:42.418 14/03/2059]',62.125,-47.277,25.006,4.689,155.897,-128.547,-1.954,19.536,-20.317,-60.171,58.608,17.192,-74.628,-23.834,35.165,57.827,-42.589,30.867,-24.225,31.648,-91.819,-21.099,35.165
'[09:22:42.422 14/03/2059]',60.952,-41.807,17.192,5.470,159.805,-131.282,-6.252,20.317,-20.708,-58.999,61.734,5.861,-75.800,-20.708,33.211,50.794,-42.198,34.774,-16.410,16.020,-87.912,-9.768,33.211
'[09:22:42.426 14/03/2059]',63.297,-35.556,10.549,0.391,162.540,-130.501,-7.814,15.238,-18.755,-54.701,65.641,-6.642,-69.548,-16.410,32.821,38.291,-35.556,31.648,-9.768,21.490,-88.694,-15.629,32.821
'[09:22:42.430 14/03/2059]',63.297,-32.039,5.861,0.391,161.758,-128.547,-11.722,16.801,-23.053,-51.966,67.985,-13.284,-68.376,-13.284,28.132,32.821,-28.523,32.821,-5.079,35.556,-88.303,-26.960,28.132
'[09:22:42.434 14/03/2059]',63.687,-31.648,1.172,0.781,162.149,-127.766,-16.410,17.973,-26.960,-47.668,68.376,-18.364,-70.330,-3.907,20.708,27.350,-24.225,34.383,-0.391,20.708,-85.958,-8.205,20.708
'[09:22:42.438 14/03/2059]',67.985,-29.304,-2.344,-0.781,162.930,-122.686,-21.099,16.801,-28.132,-40.635,70.330,-28.913,-65.641,1.954,16.801,17.973,-16.801,31.648,3.126,12.503,-84.396,1.172,16.801
'[09:22:42.441 14/03/2059]',69.939,-25.788,-5.470,-3.126,159.023,-116.044,-23.053,14.457,-33.211,-34.383,69.939,-31.258,-62.125,5.079,12.894,12.112,-7.424,30.476,6.252,27.350,-84.396,-13.675,12.894
'[09:22:42.445 14/03/2059]',67.595,-23.053,-11.722,-3.126,152.772,-112.918,-23.053,12.894,-39.853,-28.523,66.422,-28.523,-59.780,10.159,4.298,12.112,-1.563,35.946,12.503,24.615,-84.005,-12.503,4.298
'[09:22:42.449 14/03/2059]',70.330,-16.801,-17.973,-7.033,150.037,-108.620,-24.615,9.768,-45.714,-19.536,62.906,-31.258,-55.873,17.582,-5.861,8.205,2.735,35.556,18.755,8.205,-82.051,2.344,-5.861
'[09:22:42.453 14/03/2059]',76.581,-6.642,-21.490,-17.192,148.474,-98.852,-33.602,14.457,-50.794,-9.377,57.436,-33.602,-48.059,21.880,-15.629,3.126,8.596,31.258,22.271,16.410,-84.005,-5.861,-15.629
'[09:22:42.457 14/03/2059]',81.270,0.391,-23.834,-23.053,144.567,-89.866,-44.151,24.615,-55.873,-5.861,50.403,-28.913,-43.370,25.397,-26.569,2.344,13.284,30.476,24.615,21.880,-85.177,-12.503,-26.569
'[09:22:42.461 14/03/2059]',83.614,6.642,-24.615,-29.304,140.269,-82.051,-44.542,22.662,-60.171,0.000,42.589,-27.350,-39.072,24.225,-32.430,0.781,15.629,28.913,25.397,4.689,-85.568,-1.172,-32.430
'[09:22:42.465 14/03/2059]',87.521,15.238,-22.662,-41.026,135.580,-71.111,-41.807,17.973,-59.389,4.689,39.072,-30.867,-28.913,19.536,-31.648,-5.861,17.192,26.569,23.443,0.000,-89.084,-3.907,-31.648
'[09:22:42.469 14/03/2059]',87.521,23.053,-22.271,-48.449,128.156,-67.204,-44.151,23.443,-61.734,3.907,37.509,-26.569,-21.490,16.801,-35.165,-6.642,18.755,27.741,23.053,8.205,-92.991,-18.364,-35.165
'[09:22:42.473 14/03/2059]',86.349,27.741,-25.006,-53.529,120.733,-67.985,-47.277,30.867,-62.515,3.516,35.556,-21.880,-17.192,17.582,-41.416,-4.298,17.973,30.085,25.788,-0.781,-93.773,-16.410,-41.416
'[09:22:42.477 14/03/2059]',89.475,35.165,-26.960,-63.687,116.435,-66.422,-42.198,26.569,-61.343,3.516,37.900,-26.178,-9.768,19.927,-45.324,-10.159,14.066,25.397,27.741,-8.596,-98.462,-12.112,-45.324
'[09:22:42.480 14/03/2059]',93.382,42.979,-28.132,-72.283,113.700,-65.250,-41.026,28.132,-57.045,1.172,40.635,-25.788,-3.516,21.490,-47.277,-11.331,12.112,20.708,28.913,0.391,-105.495,-23.053,-47.277
'[09:22:42.484 14/03/2059]',89.866,47.668,-32.430,-74.237,104.713,-66.813,-45.714,38.681,-56.264,-1.563,34.774,-15.629,-3.126,21.490,-50.012,-7.424,8.596,19.536,33.211,-6.252,-105.104,-23.443,-50.012
'[09:22:42.488 14/03/2059]',91.038,54.310,-35.946,-80.098,100.415,-64.078,-46.105,39.463,-52.357,-7.424,33.602,-12.503,-0.391,25.397,-54.701,-8.987,2.344,16.410,36.728,-25.006,-105.495,-8.205,-54.701
'[09:22:42.492 14/03/2059]',92.991,62.906,-36.728,-89.866,96.508,-58.608,-42.979,34.774,-46.496,-12.503,35.556,-8.987,5.470,28.523,-57.436,-10.940,-0.391,12.894,37.509,-17.192,-110.183,-14.066,-57.436
'[09:22:42.496 14/03/2059]',93.773,63.687,-37.509,-95.336,91.429,-57.827,-39.072,30.085,-40.244,-19.536,33.993,-1.563,12.503,31.648,-62.125,-10.549,-3.907,13.284,38.291,-7.424,-110.183,-20.708,-62.125
'[09:22:42.500 14/03/2059]',92.601,61.734,-40.635,-98.852,84.005,-57.436,-35.165,24.225,-33.211,-24.225,34.383,-0.391,16.020,37.118,-66.813,-11.722,-12.112,16.801,41.416,-21.880,-110.574,-2.735,-66.813
'[09:22:42.504 14/03/2059]',90.647,60.952,-42.589,-105.495,74.628,-55.873,-33.602,19.145,-26.178,-24.615,34.774,-3.126,21.099,30.085,-56.264,-15.629,-15.238,14.066,43.370,-21.490,-115.653,-7.033,-56.264
'[09:22:42.508 14/03/2059]',85.958,60.562,-44.151,-108.620,63.687,-57.827,-27.741,16.410,-21.099,-24.615,31.258,0.391,26.569,24.615,-51.184,-14.847,-12.894,11.722,44.933,-5.470,-115.653,-27.741,-51.184
'[09:22:42.512 14/03/2059]',82.833,60.171,-49.621,-105.885,57.045,-60.562,-18.755,10.940,-16.410,-24.225,26.569,3.516,30.085,21.880,-52.357,-11.331,-9.768,14.847,50.403,-12.112,-112.527,-25.788,-52.357
'[09:22:42.516 14/03/2059]',82.833,64.078,-53.529,-107.839,53.919,-59.780,-8.596,0.391,-10.159,-24.225,25.006,0.781,35.165,23.053,-55.482,-12.112,-7.424,12.894,54.310,-23.053,-112.918,-12.894,-55.482
'[09:22:42.520 14/03/2059]',79.316,67.595,-54.701,-112.137,46.105,-58.608,0.000,-5.861,-4.689,-26.569,25.006,0.000,42.589,25.006,-58.608,-16.020,-7.424,12.894,55.482,-8.596,-113.309,-20.708,-58.608
'[09:22:42.523 14/03/2059]',71.502,65.250,-55.482,-107.448,33.602,-58.608,3.126,-4.298,-2.735,-30.085,22.662,3.516,45.324,23.443,-59.780,-16.020,-12.894,20.317,56.264,0.391,-110.965,-26.960,-59.780
'[09:22:42.527 14/03/2059]',62.515,62.515,-56.654,-103.932,20.317,-60.562,15.629,-10.940,-3.516,-33.993,20.708,4.298,45.324,16.801,-58.217,-17.192,-23.053,28.132,57.436,-8.987,-109.402,-16.410,-58.217
'[09:22:42.531 14/03/2059]',55.092,63.297,-54.701,-103.150,8.596,-57.045,27.741,-17.973,-7.814,-35.165,19.145,5.861,44.542,11.331,-55.873,-17.973,-30.476,33.602,55.482,-3.516,-108.620,-20.317,-55.873
'[09:22:42.535 14/03/2059]',48.059,61.734,-51.575,-96.508,1.954,-58.999,30.867,-12.894,-13.675,-32.821,14.066,10.159,41.807,8.596,-58.999,-13.675,-30.867,44.933,52.357,5.079,-101.978,-29.695,-58.999
'[09:22:42.539 14/03/2059]',39.853,61.734,-51.184,-90.256,-1.954,-60.562,34.383,-10.549,-14.457,-30.867,8.596,12.503,40.635,9.768,-66.813,-8.205,-27.350,52.357,51.966,-1.563,-95.336,-20.708,-66.813
'[09:22:42.543 14/03/2059]',39.072,67.204,-49.231,-93.382,0.391,-57.045,41.807,-19.536,-8.596,-26.960,6.642,7.814,44.933,19.145,-76.190,-9.768,-25.397,52.747,50.012,-5.470,-94.164,-6.642,-76.190
'[09:22:42.547 14/03/2059]',31.648,68.376,-46.105,-93.773,-6.252,-54.701,49.621,-27.350,-3.516,-22.662,3.907,5.079,50.012,19.145,-75.018,-11.331,-21.099,53.138,46.886,7.033,-92.210,-16.410,-75.018
'[09:22:42.551 14/03/2059]',16.801,66.813,-47.277,-87.912,-20.317,-54.701,49.621,-24.615,-0.391,-19.145,-1.563,8.205,52.747,11.722,-72.283,-6.252,-18.364,57.436,48.059,-1.172,-86.740,-15.238,-72.283
'[09:22:42.555 14/03/2059]',8.596,64.078,-48.059,-85.958,-29.695,-51.184,50.012,-28.523,-1.172,-15.238,-5.079,5.861,53.138,7.424,-70.330,-5.470,-20.317,58.999,48.840,-13.675,-83.614,-4.298,-70.330
'[09:22:42.559 14/03/2059]',6.252,60.952,-46.886,-84.396,-36.337,-46.105,53.529,-33.993,-2.344,-11.722,-5.861,4.298,52.747,4.298,-68.376,-5.861,-15.629,58.999,47.668,1.563,-81.661,-17.582,-68.376
'[09:22:42.563 14/03/2059]',2.735,57.827,-49.621,-76.972,-40.635,-45.714,57.045,-34.383,-5.079,-10.549,-8.987,7.814,50.012,1.563,-68.767,-0.391,-11.331,64.078,50.403,8.205,-78.144,-26.178,-68.767
'[09:22:42.566 14/03/2059]',6.642,52.747,-53.529,-72.674,-36.337,-47.277,58.217,-39.853,-1.954,-12.894,-12.503,5.861,47.668,1.172,-73.846,0.391,-14.457,66.813,54.310,-6.252,-73.846,-9.377,-73.846
'[09:22:42.570 14/03/2059]',7.424,51.184,-57.827,-75.018,-35.946,-48.059,57.827,-46.886,3.907,-16.801,-14.847,0.000,48.059,0.781,-76.190,-3.126,-19.145,61.734,58.608,-4.298,-75.800,-8.205,-76.190
'[09:22:42.574 14/03/2059]',0.781,46.105,-61.343,-73.065,-42.198,-53.138,58.217,-49.231,-0.391,-16.410,-19.927,-0.391,44.542,-3.907,-77.363,-0.781,-21.880,59.780,62.125,11.331,-75.409,-24.615,-77.363
'[09:22:42.578 14/03/2059]',-7.424,35.165,-62.125,-69.939,-48.059,-59.389,62.906,-58.608,-10.549,-18.364,-27.350,0.391,32.039,-9.377,-83.614,2.735,-27.741,59.389,62.906,8.205,-73.455,-17.582,-83.614
'[09:22:42.582 14/03/2059]',-14.066,27.741,-60.562,-70.330,-51.575,-60.562,67.204,-71.893,-13.675,-20.708,-30.085,-1.563,26.569,-10.549,-87.131,2.735,-31.258,54.310,61.343,5.470,-72.674,-7.424,-87.131
'[09:22:42.586 14/03/2059]',-22.271,20.708,-55.873,-68.767,-56.654,-61.343,65.250,-71.893,-14.457,-21.490,-30.476,-1.954,25.006,-9.377,-89.475,2.344,-29.304,50.403,56.654,24.615,-71.111,-17.582,-89.475
'[09:22:42.590 14/03/2059]',-29.304,12.112,-52.747,-60.952,-57.827,-63.687,58.999,-67.204,-13.675,-24.615,-35.556,-0.391,22.271,-16.410,-88.303,4.689,-28.913,48.449,53.529,31.258,-65.641,-25.006,-88.303
'[09:22:42.594 14/03/2059]',-31.648,5.861,-51.575,-56.654,-51.184,-65.641,57.827,-73.846,-10.159,-25.788,-37.900,-6.642,21.099,-25.788,-82.051,3.126,-29.695,41.416,52.357,22.271,-62.515,-18.755,-82.051
'[09:22:42.598 14/03/2059]',-36.337,3.126,-48.449,-55.873,-46.496,-68.376,57.045,-79.707,-10.159,-24.225,-39.853,-16.801,17.973,-31.258,-79.316,-0.781,-29.695,34.383,49.231,28.913,-61.343,-23.443,-79.316
'[09:22:42.602 14/03/2059]',-41.807,-1.954,-45.714,-50.012,-37.118,-76.190,51.966,-78.144,-17.192,-23.834,-46.886,-20.708,4.689,-37.509,-77.753,0.000,-28.523,30.476,46.496,36.337,-55.092,-31.648,-77.753
'[09:22:42.605 14/03/2059]',-44.933,-6.252,-42.979,-44.933,-24.615,-84.005,48.059,-80.098,-20.317,-24.225,-55.482,-23.443,-7.424,-39.072,-80.879,2.735,-26.960,26.178,43.761,25.397,-48.059,-20.708,-80.879
'[09:22:42.609 14/03/2059]',-42.589,-4.689,-41.416,-49.231,-8.205,-88.303,50.012,-91.429,-16.020,-23.053,-56.654,-32.821,-11.722,-36.728,-77.753,-2.735,-27.350,16.801,42.198,25.006,-46.105,-16.020,-77.753
'[09:22:42.613 14/03/2059]',-44.933,-3.907,-38.681,-45.324,2.344,-92.991,50.012,-94.164,-9.377,-21.099,-59.780,-37.118,-12.894,-35.556,-76.581,-4.298,-24.225,10.159,39.463,34.774,-40.635,-25.788,-76.581
'[09:22:42.617 14/03/2059]',-50.403,-6.252,-39.463,-39.072,10.549,-96.899,44.542,-94.554,-3.907,-19.927,-64.860,-41.026,-15.238,-33.211,-77.753,-4.689,-23.834,7.814,40.244,18.755,-33.602,-10.549,-77.753
'[09:22:42.621 14/03/2059]',-59.389,-5.079,-41.416,-37.118,12.894,-98.071,34.383,-94.164,-0.781,-16.020,-66.032,-50.794,-16.801,-29.695,-76.190,-12.112,-22.271,2.344,42.198,2.344,-27.350,4.298,-76.190
'[09:22:42.625 14/03/2059]',-63.687,-6.642,-35.946,-36.728,18.364,-98.852,29.695,-94.945,0.781,-12.112,-67.595,-56.654,-14.457,-24.225,-79.316,-18.364,-14.847,-3.516,36.728,15.238,-20.708,-1.954,-79.316
'[09:22:42.629 14/03/2059]',-64.469,-12.894,-31.258,-31.258,27.741,-101.587,29.304,-97.680,-1.172,-9.768,-72.674,-55.873,-16.020,-22.662,-84.005,-17.582,-7.814,-4.689,32.039,17.973,-10.940,-0.391,-84.005
'[09:22:42.633 14/03/2059]',-59.780,-16.410,-29.695,-29.695,41.026,-102.759,25.397,-101.978,-3.516,-7.814,-74.237,-59.389,-22.271,-22.271,-82.051,-18.755,-4.689,-7.033,30.476,0.391,-4.298,13.675,-82.051
'[09:22:42.637 14/03/2059]',-52.747,-20.708,-23.443,-33.211,54.310,-103.150,21.099,-105.495,-3.907,-3.516,-71.893,-64.078,-22.271,-18.755,-80.488,-23.443,-0.391,-13.675,24.225,4.689,1.172,14.066,-80.488
'[09:22:42.641 14/03/2059]',-48.059,-26.178,-20.317,-28.523,62.906,-101.587,16.801,-103.541,-4.689,-0.781,-71.502,-61.343,-21.880,-16.410,-78.926,-21.880,3.516,-14.066,21.099,15.629,5.861,5.079,-78.926
'[09:22:42.645 14/03/2059]',-42.979,-31.258,-22.271,-22.662,71.502,-100.024,12.894,-107.057,-5.861,1.954,-72.283,-61.343,-25.397,-10.159,-80.098,-22.271,6.252,-12.894,23.053,2.735,10.940,16.801,-80.098
'[09:22:42.648 14/03/2059]',-34.383,-36.337,-22.662,-20.708,81.661,-97.289,10.940,-112.137,-3.516,7.814,-69.939,-68.767,-22.271,-1.172,-80.488,-30.476,9.377,-14.847,23.443,0.000,13.675,27.741,-80.488
'[09:22:42.652 14/03/2059]',-26.960,-45.324,-21.490,-16.020,88.694,-94.554,3.516,-110.183,-4.298,13.675,-70.330,-72.674,-20.317,1.954,-78.144,-37.118,14.457,-14.847,22.271,16.410,14.847,19.145,-78.144
'[09:22:42.656 14/03/2059]',-21.099,-54.310,-23.053,-9.377,96.117,-94.945,-4.298,-106.667,-7.814,19.927,-72.674,-75.409,-23.834,3.907,-74.237,-41.026,16.801,-13.284,23.834,16.801,19.145,20.708,-74.237
'[09:22:42.660 14/03/2059]',-17.582,-60.171,-23.053,-9.768,100.415,-95.336,-4.298,-113.700,-6.252,25.397,-71.111,-83.614,-23.834,7.814,-67.985,-51.966,17.192,-16.801,23.834,9.768,21.880,33.602,-67.985
'[09:22:42.664 14/03/2059]',-19.145,-64.860,-21.490,-12.112,100.806,-93.773,-3.516,-123.468,-8.987,30.867,-69.158,-87.912,-24.225,15.238,-65.250,-60.171,18.364,-21.099,22.271,12.112,24.615,40.244,-65.250
'[09:22:42.668 14/03/2059]',-20.708,-66.422,-22.271,-10.159,99.634,-91.038,-12.894,-118.388,-12.503,31.258,-68.767,-80.879,-25.788,19.536,-65.250,-59.780,21.099,-19.536,23.053,19.536,32.039,32.821,-65.250
'[09:22:42.672 14/03/2059]',-22.662,-64.860,-26.960,-10.549,99.243,-87.131,-22.271,-116.435,-10.940,29.695,-68.376,-78.144,-25.788,27.741,-67.204,-62.906,22.271,-19.536,27.741,4.298,37.900,48.059,-67.204
'[09:22:42.676 14/03/2059]',-17.192,-62.906,-26.960,-14.457,103.541,-78.926,-27.741,-120.342,-5.079,31.648,-65.641,-79.707,-18.364,38.291,-70.330,-68.376,23.443,-23.443,27.741,12.112,36.728,52.357,-70.330
'[09:22:42.680 14/03/2059]',-8.205,-61.343,-26.960,-15.629,112.527,-74.628,-33.211,-118.388,-3.907,35.946,-65.641,-75.409,-15.238,37.900,-62.906,-69.158,25.397,-25.397,27.741,29.304,34.774,37.509,-62.906
'[09:22:42.684 14/03/2059]',2.344,-59.389,-30.476,-14.066,120.733,-71.502,-36.728,-116.044,-1.954,40.635,-69.158,-70.720,-16.410,39.463,-53.919,-69.548,25.788,-26.178,31.258,12.503,33.993,50.012,-53.919
'[09:22:42.688 14/03/2059]',15.238,-51.966,-33.211,-17.192,130.891,-66.032,-37.509,-115.653,1.954,47.277,-69.158,-71.502,-12.503,41.026,-44.542,-74.628,24.225,-29.304,33.993,0.781,31.258,58.999,-44.542
'[09:22:42.691 14/03/2059]',19.536,-45.324,-36.337,-20.317,131.282,-65.250,-37.900,-112.137,-1.172,51.575,-69.548,-66.813,-12.112,41.026,-38.681,-75.800,23.834,-31.648,37.118,14.847,28.523,43.370,-38.681
'[09:22:42.695 14/03/2059]',14.847,-37.900,-43.761,-20.317,121.905,-65.641,-34.774,-109.792,-7.033,49.621,-69.158,-59.389,-16.801,42.979,-38.681,-73.065,23.053,-25.397,44.542,7.814,28.523,44.151,-38.681
'[09:22:42.699 14/03/2059]',9.377,-27.741,-51.575,-22.271,113.309,-64.078,-32.039,-110.965,-6.252,48.840,-64.469,-59.389,-14.847,47.668,-39.072,-75.800,17.192,-19.145,52.357,-12.503,28.913,62.125,-39.072
'[09:22:42.703 14/03/2059]',7.033,-17.973,-52.357,-28.132,109.402,-61.734,-35.556,-104.322,-5.079,48.840,-57.436,-58.608,-10.940,53.529,-38.291,-76.972,16.801,-18.755,53.138,-4.298,24.615,57.436,-38.291
'[09:22:42.707 14/03/2059]',10.549,-8.596,-53.919,-26.178,111.355,-61.343,-38.681,-90.256,-7.424,49.621,-53.919,-50.012,-11.722,56.654,-33.211,-73.455,19.536,-16.801,54.701,-0.391,25.397,48.059,-33.211
'[09:22:42.711 14/03/2059]',17.582,1.172,-58.217,-24.225,118.388,-62.906,-32.821,-85.958,-2.344,49.231,-53.529,-44.542,-8.205,51.184,-23.443,-70.720,19.145,-16.410,58.999,-21.099,25.397,54.310,-23.443
'[09:22:42.715 14/03/2059]',26.960,13.284,-60.171,-25.788,127.375,-65.250,-23.443,-84.786,3.907,52.357,-51.184,-42.589,-1.563,52.747,-17.973,-69.158,19.145,-21.099,60.952,-26.569,21.880,56.264,-17.973
'[09:22:42.719 14/03/2059]',32.430,23.834,-63.297,-23.443,131.282,-68.376,-21.880,-71.502,4.689,54.701,-50.403,-37.118,0.000,50.403,-13.284,-64.078,23.443,-22.271,64.078,-19.536,19.927,41.807,-13.284
'[09:22:42.723 14/03/2059]',32.430,33.993,-69.548,-20.317,131.673,-74.628,-19.927,-60.171,5.861,55.873,-51.575,-33.602,1.172,47.668,-13.284,-58.217,26.960,-21.490,70.330,-32.430,21.880,44.151,-13.284
'[09:22:42.727 14/03/2059]',31.258,43.761,-70.720,-23.834,129.328,-73.455,-13.284,-60.952,9.768,60.171,-48.840,-37.509,5.470,50.012,-12.894,-58.608,27.741,-24.615,71.502,-39.463,19.536,52.747,-12.894
'[09:22:42.730 14/03/2059]',27.741,48.840,-67.595,-25.788,127.766,-73.455,-16.020,-54.701,14.066,61.734,-46.886,-37.900,10.549,47.668,-11.331,-56.654,30.476,-28.132,68.376,-27.350,16.410,42.979,-11.331
'[09:22:42.734 14/03/2059]',19.927,49.621,-69.939,-21.099,123.858,-78.926,-21.880,-43.370,14.066,58.999,-50.794,-31.648,8.987,40.635,-9.768,-49.621,30.085,-25.397,70.720,-30.867,20.317,37.900,-9.768
'[09:22:42.738 14/03/2059]',16.020,50.403,-71.502,-20.317,123.077,-82.051,-25.397,-40.635,14.847,55.092,-53.529,-28.523,5.861,32.821,-5.861,-44.933,25.397,-26.178,72.283,-44.151,19.927,45.324,-5.861
'[09:22:42.742 14/03/2059]',15.629,51.966,-70.330,-23.053,125.421,-84.005,-24.615,-41.807,17.582,51.966,-51.184,-25.397,9.768,26.569,-2.344,-41.807,23.443,-30.085,71.111,-31.258,15.238,34.383,-2.344
'[09:22:42.746 14/03/2059]',17.582,53.529,-69.939,-19.927,130.110,-86.349,-22.271,-39.463,13.675,48.449,-47.668,-18.364,7.814,21.099,1.563,-35.556,23.053,-28.132,70.720,-22.662,16.410,21.099,1.563
'[09:22:42.750 14/03/2059]',19.927,57.436,-69.548,-17.582,135.971,-84.786,-22.662,-37.118,9.768,45.714,-41.807,-14.847,2.344,17.192,6.642,-28.523,21.490,-24.225,70.330,-41.026,18.755,33.211,6.642
'[09:22:42.754 14/03/2059]',21.490,62.906,-64.469,-19.927,139.878,-78.535,-27.350,-32.821,12.503,44.542,-32.430,-14.457,5.470,18.755,9.768,-25.006,20.708,-23.443,65.250,-45.714,17.582,38.291,9.768
'[09:22:42.758 14/03/2059]',24.225,67.204,-60.171,-16.801,144.567,-74.628,-30.085,-26.178,10.159,42.589,-26.960,-7.814,3.907,15.629,13.675,-17.192,23.834,-24.225,60.952,-32.039,15.629,19.927,13.675
'[09:22:42.762 14/03/2059]',18.755,68.767,-55.873,-12.112,143.394,-73.455,-26.178,-23.443,7.814,37.509,-26.960,1.563,-1.172,6.252,21.490,-5.861,25.006,-21.880,56.654,-38.291,16.801,14.066,21.490
'[09:22:42.766 14/03/2059]',19.927,71.111,-51.966,-10.549,147.692,-70.720,-23.834,-25.006,8.987,33.993,-26.569,7.424,-1.563,2.735,22.662,-0.391,22.662,-25.788,52.747,-49.621,14.066,22.662,22.662
'[09:22:42.770 14/03/2059]',17.192,69.158,-46.496,-9.768,145.348,-71.502,-26.569,-16.410,9.377,31.648,-23.834,12.894,0.391,0.391,28.523,0.781,19.536,-28.913,47.277,-35.165,13.284,8.987,28.523
'[09:22:42.773 14/03/2059]',12.503,66.422,-40.244,-6.642,142.222,-75.800,-27.350,-7.033,8.205,28.913,-22.662,20.708,-1.563,-1.563,33.602,5.470,17.192,-24.615,41.026,-30.476,18.755,0.391,33.602
'[09:22:42.777 14/03/2059]',14.066,69.939,-37.118,-6.642,146.520,-77.753,-21.490,-5.861,9.768,26.178,-19.536,24.615,-3.126,0.000,35.556,8.987,12.112,-18.755,37.900,-45.714,21.490,12.503,35.556
'[09:22:42.781 14/03/2059]',15.238,75.409,-34.774,-9.768,147.302,-80.098,-11.722,-9.377,10.549,23.053,-13.675,27.741,-4.298,4.689,37.509,10.159,5.861,-15.238,35.556,-44.151,17.582,13.284,37.509
'[09:22:42.785 14/03/2059]',13.675,78.926,-32.039,-8.596,145.348,-84.005,-7.033,-1.563,7.424,17.192,-12.503,37.509,-10.549,5.470,39.072,15.629,1.954,-8.987,32.821,-38.291,18.755,2.344,39.072
'[09:22:42.789 14/03/2059]',14.847,83.223,-33.993,-8.205,145.739,-87.912,-6.252,3.907,4.298,8.987,-12.112,46.105,-17.192,3.126,39.072,21.880,-5.470,-4.298,34.774,-42.589,16.020,1.172,39.072
'[09:22:42.793 14/03/2059]',17.582,84.005,-32.430,-12.894,146.911,-88.694,-1.563,0.391,4.689,1.563,-7.424,47.277,-18.755,5.079,40.244,19.536,-16.020,-6.252,33.211,-51.575,12.503,12.112,40.244
'[09:22:42.797 14/03/2059]',21.490,80.488,-26.569,-15.629,145.348,-91.819,3.126,2.344,3.907,-1.954,-2.344,49.231,-18.755,0.391,48.059,18.755,-21.490,-7.033,27.350,-40.635,9.377,0.000,48.059
'[09:22:42.801 14/03/2059]',24.615,79.316,-25.397,-14.066,148.864,-96.899,0.391,11.331,1.563,-8.205,0.391,55.092,-24.225,-7.424,56.654,23.053,-25.006,-4.298,26.178,-50.012,10.159,-1.563,56.654
'[09:22:42.805 14/03/2059]',26.569,80.488,-21.490,-16.801,151.600,-96.899,-1.563,15.629,3.126,-11.331,5.079,55.482,-26.178,-7.033,61.734,24.615,-26.569,-4.298,22.271,-64.860,7.033,12.503,61.734
'[09:22:42.809 14/03/2059]',26.178,82.833,-17.192,-19.927,152.772,-99.634,0.781,17.192,3.907,-13.675,8.205,56.654,-25.788,-7.814,64.860,25.006,-24.615,-6.642,17.973,-51.184,4.689,0.000,64.860
'[09:22:42.813 14/03/2059]',19.145,83.223,-15.629,-19.927,148.083,-104.713,2.735,19.927,-2.735,-19.927,6.252,61.734,-35.556,-8.987,61.343,28.913,-23.443,-5.470,16.410,-42.198,3.907,-7.814,61.343
'[09:22:42.816 14/03/2059]',14.847,82.442,-12.112,-23.443,147.302,-108.620,2.344,19.536,-8.987,-24.615,2.344,62.125,-44.542,-12.503,58.608,29.695,-25.788,-5.079,12.894,-55.873,3.907,5.470,58.608
'[09:22:42.820 14/03/2059]',16.020,80.879,-7.424,-29.695,148.083,-112.137,2.735,20.708,-13.284,-28.132,1.954,59.389,-48.059,-16.020,58.608,25.006,-29.304,-9.377,8.205,-54.701,4.298,5.470,58.608
'[09:22:42.824 14/03/2059]',17.973,78.926,-3.126,-30.476,146.129,-117.998,7.033,26.960,-19.927,-32.430,0.781,64.860,-50.012,-17.973,55.482,25.006,-29.304,-8.596,3.907,-39.072,1.954,-5.470,55.482
'[09:22:42.828 14/03/2059]',17.973,75.409,-0.391,-28.913,146.129,-124.640,13.675,28.132,-23.443,-37.509,0.391,74.237,-52.357,-17.192,50.012,31.648,-32.039,-3.516,1.172,-44.542,1.563,3.126,50.012
'[09:22:42.832 14/03/2059]',19.927,75.409,2.735,-29.304,146.520,-127.375,23.053,26.960,-25.006,-39.853,1.954,74.237,-52.747,-13.675,45.714,31.648,-35.165,0.391,-1.954,-52.747,-0.391,16.410,45.714
'[09:22:42.836 14/03/2059]',15.238,75.800,3.907,-27.350,136.361,-129.328,25.397,34.774,-28.523,-41.807,3.907,74.237,-52.747,-10.549,39.853,31.258,-33.993,5.079,-3.126,-39.072,-3.907,8.596,39.853
'[09:22:42.840 14/03/2059]',8.205,71.893,6.252,-25.397,125.031,-131.673,23.834,43.761,-34.383,-46.886,3.126,74.628,-56.654,-18.364,39.072,32.821,-32.039,11.722,-5.470,-32.821,-1.954,-1.172,39.072
'[09:22:42.844 14/03/2059]',7.424,67.985,7.814,-23.053,120.342,-131.673,29.304,41.416,-40.635,-48.840,3.126,64.469,-61.343,-26.569,40.244,26.569,-29.695,12.894,-7.033,-41.416,2.344,2.344,40.244
'[09:22:42.848 14/03/2059]',9.768,63.687,11.722,-23.053,117.216,-131.673,38.291,39.072,-39.072,-50.794,6.252,55.873,-57.045,-30.476,40.244,19.145,-26.960,12.894,-10.940,-31.648,5.470,-3.126,40.244
'[09:22:42.852 14/03/2059]',7.814,53.529,16.020,-14.847,110.183,-133.626,36.728,49.621,-40.244,-53.529,5.861,56.654,-56.264,-30.085,33.993,20.708,-21.099,17.192,-15.238,-17.582,10.159,-9.377,33.993
'[09:22:42.855 14/03/2059]',7.814,43.370,18.755,-5.861,109.011,-137.143,38.291,53.919,-42.198,-54.701,3.907,58.217,-59.389,-29.304,28.913,24.225,-18.755,22.271,-17.973,-22.271,16.020,0.391,28.913
'[09:22:42.859 14/03/2059]',9.377,36.337,22.271,-1.563,108.230,-137.143,42.979,53.138,-41.416,-53.529,5.861,51.575,-58.217,-28.523,27.741,21.099,-17.192,20.317,-21.490,-16.410,17.582,2.344,27.741
'[09:22:42.863 14/03/2059]',3.907,27.350,26.178,3.516,99.634,-136.752,44.151,55.873,-43.370,-52.747,6.642,48.449,-58.999,-32.039,28.523,21.880,-13.284,21.880,-25.397,2.735,18.755,-12.112,28.523
'[09:22:42.867 14/03/2059]',-2.735,16.410,29.304,13.675,90.647,-136.752,42.979,60.562,-46.496,-53.529,4.298,48.840,-61.734,-36.728,24.615,27.350,-10.940,27.350,-28.523,-1.172,26.569,-6.642,24.615
'[09:22:42.871 14/03/2059]',-3.126,8.596,33.993,17.582,89.475,-134.017,39.463,62.906,-43.761,-52.747,6.252,41.807,-59.389,-34.774,19.927,25.397,-8.205,26.960,-33.211,-7.814,33.211,7.033,19.927
'[09:22:42.875 14/03/2059]',-3.126,1.563,41.807,19.927,84.396,-126.984,40.635,62.906,-40.244,-52.747,9.377,37.900,-55.482,-33.602,17.973,25.006,0.391,26.569,-41.026,11.722,33.602,-3.516,17.973
'[09:22:42.879 14/03/2059]',-5.861,-4.689,50.794,26.960,80.879,-120.733,41.416,64.860,-41.416,-51.575,9.377,39.072,-58.217,-32.821,15.238,30.867,10.159,30.085,-50.012,18.755,36.337,-4.298,15.238
'[09:22:42.883 14/03/2059]',-7.424,-9.377,58.608,30.867,78.535,-113.309,41.807,64.860,-41.026,-47.277,10.940,32.430,-63.687,-27.741,15.629,30.085,16.801,30.085,-57.827,4.298,37.900,15.238,15.629
'[09:22:42.887 14/03/2059]',-10.549,-8.205,64.469,30.085,72.674,-103.932,38.681,67.595,-40.244,-41.026,13.675,24.615,-64.469,-33.993,28.523,26.178,22.662,27.741,-63.687,6.642,38.291,7.033,28.523
'[09:22:42.891 14/03/2059]',-13.675,-9.768,70.720,33.211,67.595,-98.462,35.946,73.846,-39.853,-35.946,12.894,24.225,-62.906,-37.509,34.383,26.960,27.741,28.913,-69.939,18.364,40.635,-7.033,34.383
'[09:22:42.895 14/03/2059]',-18.364,-12.894,73.455,37.900,64.469,-98.462,38.681,73.455,-37.900,-32.039,7.424,24.615,-61.734,-36.337,30.085,29.304,27.350,29.304,-72.674,11.331,43.761,5.470,30.085
'[09:22:42.898 14/03/2059]',-20.708,-10.549,72.283,35.946,62.515,-94.945,41.807,66.032,-29.304,-28.913,4.689,18.364,-53.919,-34.383,28.523,24.615,25.006,26.569,-71.502,5.861,43.761,13.284,28.523
'[09:22:42.902 14/03/2059]',-21.490,-13.675,78.535,30.476,60.562,-91.819,38.681,64.860,-25.006,-26.569,3.516,14.066,-50.794,-33.602,28.132,22.271,26.178,25.006,-77.753,20.708,41.416,3.516,28.132
'[09:22:42.906 14/03/2059]',-25.788,-16.801,84.396,29.695,54.701,-87.912,34.774,67.985,-23.834,-25.006,2.344,12.112,-52.747,-29.695,24.615,23.053,27.350,27.350,-83.614,22.271,42.979,6.642,24.615
'[09:22:42.910 14/03/2059]',-25.397,-13.675,87.521,22.662,51.184,-79.707,39.463,59.389,-21.490,-22.271,6.252,2.735,-53.919,-24.615,26.569,17.192,28.132,26.960,-86.740,8.596,42.198,21.099,26.569
'[09:22:42.914 14/03/2059]',-25.006,-12.894,96.117,14.847,46.105,-71.111,46.105,51.184,-20.708,-17.973,11.331,-4.689,-53.919,-24.225,29.695,14.457,30.476,28.132,-95.336,7.033,41.807,23.834,29.695
'[09:22:42.918 14/03/2059]',-28.913,-13.284,98.462,16.410,38.291,-67.985,41.026,59.780,-22.271,-16.410,11.722,-2.344,-53.529,-22.271,26.178,18.755,34.383,31.258,-97.680,17.192,43.370,15.629,26.178
'[09:22:42.922 14/03/2059]',-34.383,-12.894,94.945,17.192,29.695,-66.032,37.118,63.297,-20.708,-14.066,9.768,-4.298,-52.747,-21.490,24.225,18.364,33.602,32.039,-94.164,3.907,46.496,25.788,24.225
'[09:22:42.926 14/03/2059]',-33.602,-12.894,94.554,11.722,26.569,-63.687,37.509,58.608,-16.020,-9.377,11.722,-12.894,-46.496,-29.695,34.383,12.894,35.946,25.006,-93.773,10.549,44.933,14.457,34.383
'[09:22:42.930 14/03/2059]',-28.523,-17.582,93.773,11.722,24.615,-62.515,37.509,58.608,-16.801,-5.861,13.284,-15.238,-43.761,-31.258,38.681,10.549,39.853,21.099,-92.991,30.085,44.542,-3.516,38.681
'[09:22:42.934 14/03/2059]',-29.304,-20.317,89.084,13.284,17.582,-61.734,37.509,57.436,-17.582,-3.907,13.675,-18.755,-45.324,-31.258,43.761,5.470,40.635,21.490,-88.303,16.020,46.496,7.033,43.761
'[09:22:42.938 14/03/2059]',-26.569,-20.708,85.568,10.159,13.675,-58.999,38.291,52.747,-23.443,-0.391,17.973,-25.788,-50.794,-28.913,48.059,0.000,41.416,18.755,-84.786,7.424,44.151,17.973,48.059
'[09:22:42.941 14/03/2059]',-28.132,-23.053,83.223,11.722,4.298,-55.092,41.807,51.184,-30.867,1.172,22.271,-25.397,-53.919,-24.615,48.059,-1.954,43.370,19.927,-82.442,26.178,39.853,5.470,48.059
'[09:22:42.945 14/03/2059]',-39.853,-24.225,77.753,17.582,-10.940,-56.654,46.886,50.794,-38.291,1.172,26.178,-19.927,-57.827,-23.443,50.012,0.391,43.370,27.350,-76.972,28.913,36.728,3.907,50.012
'[09:22:42.949 14/03/2059]',-46.105,-24.225,73.455,18.755,-17.973,-56.264,48.059,48.059,-41.026,3.907,31.258,-22.271,-59.780,-23.834,54.701,0.391,40.635,32.039,-72.674,16.020,34.774,14.457,54.701
'[09:22:42.953 14/03/2059]',-46.105,-26.569,75.018,16.020,-22.662,-51.184,43.761,48.059,-40.244,8.205,41.026,-27.350,-51.575,-21.490,57.436,-1.954,41.416,33.211,-74.237,29.304,31.648,7.814,57.436
'[09:22:42.957 14/03/2059]',-47.277,-28.132,71.893,16.410,-27.741,-47.277,36.728,51.184,-43.761,13.675,45.324,-24.225,-47.277,-19.145,57.436,0.391,43.370,37.900,-71.111,41.026,30.085,0.000,57.436
'[09:22:42.961 14/03/2059]',-43.761,-29.304,66.422,14.847,-28.523,-42.979,34.383,44.542,-47.277,17.973,44.933,-25.006,-48.059,-17.973,55.092,1.954,41.026,42.589,-65.641,25.006,28.913,14.847,55.092
'[09:22:42.965 14/03/2059]',-35.556,-30.867,64.078,10.940,-25.397,-35.946,35.556,33.211,-51.966,25.006,44.151,-30.085,-47.668,-13.675,50.403,-0.391,39.853,41.416,-63.297,21.880,26.178,22.662,50.403
'[09:22:42.969 14/03/2059]',-35.165,-34.774,58.608,12.112,-29.695,-33.993,30.085,34.383,-63.297,28.132,39.072,-27.741,-51.966,-22.271,54.310,-1.954,40.244,40.635,-57.827,36.337,23.834,3.516,54.310
'[09:22:42.973 14/03/2059]',-40.635,-39.072,51.966,16.020,-39.463,-35.165,24.225,38.681,-68.376,28.913,33.993,-29.304,-55.873,-28.523,56.264,-4.298,36.728,42.198,-51.184,31.258,25.006,0.391,56.264
'[09:22:42.977 14/03/2059]',-39.463,-41.416,49.231,13.284,-39.072,-32.821,28.523,25.788,-66.813,31.648,34.774,-39.072,-52.747,-30.476,55.482,-10.549,32.039,39.072,-48.449,27.741,22.271,4.689,55.482
'[09:22:42.980 14/03/2059]',-42.198,-43.761,47.277,10.940,-46.105,-30.085,25.397,23.443,-67.595,30.867,38.291,-44.151,-48.449,-34.383,55.482,-13.675,28.523,36.337,-46.496,40.635,17.973,-5.470,55.482
'[09:22:42.984 14/03/2059]',-48.449,-46.886,44.151,14.066,-53.529,-27.741,17.973,26.178,-72.283,26.960,38.291,-41.026,-53.138,-32.039,47.277,-8.987,25.788,41.416,-43.370,39.853,15.629,-3.516,47.277
'[09:22:42.988 14/03/2059]',-44.151,-48.059,44.542,10.940,-48.840,-23.443,13.675,21.490,-75.409,23.834,38.681,-41.807,-56.654,-24.225,35.165,-6.642,21.490,41.416,-43.761,25.788,15.629,12.894,35.165
'[09:22:42.992 14/03/2059]',-37.118,-46.886,45.324,5.470,-42.589,-17.582,15.238,11.331,-80.879,20.317,41.416,-43.370,-58.608,-23.443,29.695,-8.987,21.099,35.165,-44.542,35.165,12.894,4.298,29.695
'[09:22:42.996 14/03/2059]',-35.946,-46.496,44.542,4.689,-39.463,-14.847,15.238,6.252,-87.131,15.238,38.291,-40.244,-61.734,-23.443,22.271,-8.987,22.271,32.039,-43.761,45.714,14.847,-8.596,22.271
'[09:22:43.000 14/03/2059]',-32.821,-45.324,42.198,3.907,-33.211,-12.503,15.629,-0.391,-85.958,12.503,31.258,-40.635,-62.515,-19.536,10.940,-9.377,18.755,28.523,-41.416,26.960,20.708,5.470,10.940
'[09:22:43.004 14/03/2059]',-34.383,-41.807,39.463,0.391,-33.211,-7.814,11.331,-4.689,-84.396,9.768,26.960,-44.542,-58.608,-27.350,8.987,-13.284,14.066,19.536,-38.681,21.490,23.443,1.563,8.987
'[09:22:43.008 14/03/2059]',-42.198,-39.463,39.463,0.391,-40.244,-4.298,7.033,-4.689,-86.740,6.642,21.099,-42.589,-55.873,-32.821,2.344,-12.894,12.112,14.847,-38.681,37.118,27.350,-18.755,2.344
'[09:22:43.012 14/03/2059]',-46.886,-39.072,38.681,2.344,-44.542,-1.563,9.768,-8.205,-88.303,2.344,16.020,-39.072,-54.701,-36.728,-4.689,-8.596,9.768,16.801,-37.900,34.774,30.476,-22.271,-4.689
'[09:22:43.016 14/03/2059]',-50.012,-35.946,38.681,1.954,-45.324,3.907,13.675,-17.973,-90.647,0.391,17.973,-42.198,-55.873,-40.244,-8.987,-7.033,6.252,16.020,-37.900,23.834,32.430,-17.582,-8.987
'[09:22:43.020 14/03/2059]',-53.919,-33.602,41.416,0.000,-48.449,9.768,10.940,-19.145,-95.336,1.172,21.880,-44.151,-57.436,-37.118,-12.894,-5.861,6.252,14.847,-40.635,35.556,31.648,-27.741,-12.894
'[09:22:43.023 14/03/2059]',-54.701,-31.648,43.370,2.344,-46.105,12.894,6.642,-14.066,-98.071,-0.781,21.880,-39.463,-61.343,-33.602,-19.927,0.391,8.987,14.847,-42.589,41.416,30.476,-32.821,-19.927
'[09:22:43.027 14/03/2059]',-53.138,-29.695,42.979,7.033,-41.026,16.020,10.159,-17.582,-102.759,-2.735,21.490,-35.946,-69.158,-32.430,-24.225,6.642,5.079,13.284,-42.198,28.132,29.695,-22.662,-24.225
'[09:22:43.031 14/03/2059]',-54.310,-25.397,42.979,10.549,-37.118,17.192,11.722,-17.973,-103.150,-5.861,20.317,-31.258,-72.674,-26.569,-30.476,10.549,0.391,6.252,-42.198,30.085,24.615,-18.364,-30.476
'[09:22:43.035 14/03/2059]',-57.436,-25.397,43.370,19.536,-39.072,16.801,8.205,-6.252,-101.587,-13.675,17.582,-21.880,-76.972,-28.523,-27.350,14.457,-2.344,3.907,-42.589,41.026,23.053,-33.602,-27.350
'[09:22:43.039 14/03/2059]',-60.171,-24.225,41.026,29.695,-38.681,16.020,6.642,1.172,-100.024,-19.927,16.801,-13.284,-85.958,-31.648,-18.364,20.708,-7.424,5.079,-40.244,39.072,25.397,-44.151,-18.364
'[09:22:43.043 14/03/2059]',-58.217,-23.834,39.853,33.993,-32.821,17.973,8.205,-2.344,-89.866,-23.834,18.364,-13.675,-91.429,-22.662,-15.629,22.271,-14.066,0.391,-39.072,26.178,26.178,-31.258,-15.629
'[09:22:43.047 14/03/2059]',-54.701,-24.225,43.370,36.337,-28.523,19.927,10.940,-1.563,-84.786,-26.178,20.317,-13.284,-96.117,-17.973,-10.940,22.662,-15.629,-1.563,-42.589,36.337,25.788,-41.807,-10.940
'[09:22:43.051 14/03/2059]',-52.357,-26.178,41.807,44.933,-22.662,17.192,5.470,8.205,-85.958,-29.695,17.192,-5.861,-103.932,-15.238,-15.238,32.430,-17.973,2.735,-41.026,28.913,28.913,-37.509,-15.238
'[09:22:43.055 14/03/2059]',-50.403,-26.960,42.589,49.231,-16.020,15.629,0.781,13.675,-84.005,-33.602,17.582,-3.907,-105.885,-9.768,-25.006,38.291,-26.178,4.689,-41.807,12.894,28.913,-15.629,-25.006
'[09:22:43.059 14/03/2059]',-53.919,-28.132,44.933,52.357,-19.927,14.847,1.563,19.145,-82.833,-37.900,20.317,-0.391,-102.759,-10.549,-28.132,41.807,-29.695,4.298,-44.151,29.304,26.178,-26.960,-28.132
'[09:22:43.063 14/03/2059]',-57.436,-28.132,45.714,58.608,-23.834,12.894,3.907,24.615,-85.568,-43.761,19.536,7.814,-102.369,-17.973,-28.523,50.012,-32.821,8.987,-44.933,40.635,25.788,-42.979,-28.523
'[09:22:43.066 14/03/2059]',-58.608,-29.304,45.714,62.906,-25.788,15.629,4.689,26.178,-83.223,-48.059,19.536,10.549,-102.369,-20.708,-30.867,54.310,-39.853,11.331,-44.933,27.741,26.960,-29.695,-30.867
'[09:22:43.070 14/03/2059]',-57.827,-31.258,48.449,62.906,-31.258,19.927,4.689,28.132,-77.753,-49.621,18.364,8.596,-96.899,-17.582,-34.383,51.184,-44.542,7.424,-47.668,31.258,28.132,-26.178,-34.383
'[09:22:43.074 14/03/2059]',-55.482,-30.867,47.277,64.860,-35.165,21.099,2.735,35.946,-75.409,-51.184,14.457,10.549,-94.164,-15.629,-40.244,50.794,-44.933,7.033,-46.496,50.794,26.178,-39.072,-40.244
'[09:22:43.078 14/03/2059]',-51.966,-33.602,43.370,71.111,-38.681,23.053,3.126,40.244,-71.502,-53.529,11.331,14.066,-89.475,-11.722,-50.794,55.092,-48.840,12.112,-42.589,45.324,27.350,-27.741,-50.794
'[09:22:43.082 14/03/2059]',-50.012,-35.946,39.463,72.674,-45.324,27.350,4.298,39.463,-67.204,-51.966,10.549,14.847,-81.270,-7.814,-57.827,55.092,-50.794,13.675,-38.681,39.463,27.741,-13.284,-57.827
'[09:22:43.086 14/03/2059]',-44.933,-34.383,35.165,74.237,-48.059,29.304,1.172,47.277,-64.860,-50.794,10.159,18.364,-70.330,-17.973,-50.794,55.092,-46.886,14.066,-34.383,56.654,25.006,-35.165,-50.794
'[09:22:43.090 14/03/2059]',-39.853,-35.946,29.695,77.753,-50.794,31.258,-5.079,55.873,-64.469,-50.403,7.033,26.960,-59.780,-26.569,-49.231,58.217,-45.324,15.238,-28.913,62.515,25.006,-44.542,-49.231
'[09:22:43.094 14/03/2059]',-39.853,-37.118,24.615,77.753,-57.436,34.774,-3.516,51.575,-64.860,-49.231,3.907,30.085,-53.919,-31.258,-46.886,53.529,-48.059,17.192,-23.834,52.747,23.053,-32.039,-46.886
'[09:22:43.098 14/03/2059]',-36.337,-36.337,21.880,74.237,-62.515,38.681,-1.954,48.840,-60.562,-48.449,1.563,29.304,-46.886,-30.476,-46.105,47.668,-50.403,16.020,-21.099,58.999,19.145,-33.993,-46.105
'[09:22:43.102 14/03/2059]',-32.430,-35.556,19.145,74.628,-66.422,42.589,-10.549,60.171,-56.264,-48.840,-1.563,33.993,-41.807,-25.788,-49.621,46.886,-50.403,23.443,-18.364,67.595,17.973,-38.291,-49.621
'[09:22:43.105 14/03/2059]',-29.304,-34.383,16.020,75.409,-71.893,49.621,-14.457,64.469,-56.264,-47.668,-3.907,38.291,-41.807,-21.880,-53.138,48.840,-50.403,32.821,-15.238,57.045,17.973,-27.741,-53.138
'[09:22:43.109 14/03/2059]',-22.271,-31.648,17.192,69.939,-75.409,58.608,-10.159,59.389,-53.138,-44.542,-1.172,34.774,-37.509,-15.238,-53.919,44.151,-48.840,31.648,-16.410,58.999,16.410,-25.397,-53.919
'[09:22:43.113 14/03/2059]',-16.020,-30.476,18.364,67.985,-78.144,64.078,-9.768,62.906,-50.403,-41.807,-1.563,37.118,-31.258,-10.549,-55.482,41.807,-43.761,31.258,-17.582,75.409,15.629,-35.946,-55.482
'[09:22:43.117 14/03/2059]',-14.457,-30.085,14.847,69.939,-84.005,67.204,-12.894,68.376,-50.794,-40.635,-4.689,42.589,-29.304,-8.205,-58.608,42.979,-41.807,32.039,-14.066,66.032,17.192,-23.834,-58.608
'[09:22:43.121 14/03/2059]',-13.284,-29.304,10.159,69.548,-91.038,71.893,-16.801,72.283,-50.403,-36.337,-6.642,39.853,-27.741,-0.391,-61.343,36.728,-42.198,29.695,-9.377,55.482,18.755,-7.814,-61.343
'[09:22:43.125 14/03/2059]',-10.159,-27.741,7.033,68.767,-94.945,75.018,-20.708,77.753,-47.277,-31.258,-5.470,39.463,-19.145,4.689,-60.562,30.476,-38.291,28.523,-6.252,73.846,17.973,-18.364,-60.562
'[09:22:43.129 14/03/2059]',-12.894,-27.350,0.391,72.283,-102.759,74.628,-21.880,82.051,-48.059,-28.913,-5.079,41.807,-14.847,1.563,-54.701,28.523,-35.946,33.993,0.391,80.879,16.801,-27.741,-54.701
'[09:22:43.133 14/03/2059]',-9.768,-27.350,-3.126,74.237,-105.885,77.753,-21.880,82.833,-51.575,-25.006,-2.735,37.118,-17.582,3.907,-50.403,21.490,-36.337,39.463,3.907,66.422,18.364,-12.894,-50.403
'[09:22:43.137 14/03/2059]',-7.033,-28.913,-1.172,70.720,-110.965,81.270,-24.615,86.740,-48.059,-21.099,0.391,31.258,-10.940,4.689,-44.542,14.066,-32.821,38.291,1.954,74.237,17.192,-14.847,-44.542
'[09:22:43.141 14/03/2059]',-6.252,-31.648,-1.172,71.502,-116.825,82.442,-28.523,94.164,-47.668,-16.801,0.391,32.821,-7.424,3.907,-40.244,13.284,-27.350,37.900,1.954,88.694,16.801,-27.741,-40.244
'[09:22:43.145 14/03/2059]',-1.172,-31.648,-4.298,75.409,-117.216,84.396,-22.271,92.601,-50.794,-10.549,0.391,35.556,-7.814,7.814,-41.026,15.629,-21.880,43.370,5.079,77.753,17.973,-16.801,-41.026
'[09:22:43.148 14/03/2059]',3.516,-32.039,-4.689,73.846,-119.170,89.084,-18.364,87.912,-52.357,-0.781,2.735,33.602,-3.126,15.629,-41.807,13.284,-16.801,46.105,5.470,72.674,19.536,-6.642,-41.807
'[09:22:43.152 14/03/2059]',3.907,-30.476,-8.987,74.237,-122.295,90.647,-18.364,89.084,-56.264,8.596,7.814,32.430,1.563,20.708,-40.244,12.112,-9.377,50.794,9.768,84.786,15.629,-13.675,-40.244
'[09:22:43.156 14/03/2059]',6.252,-30.867,-12.894,78.535,-123.077,91.429,-21.099,93.382,-60.562,16.801,12.503,31.648,3.516,29.695,-44.151,12.112,-2.344,57.436,13.675,83.223,18.364,-7.033,-44.151
'[09:22:43.160 14/03/2059]',7.033,-31.258,-14.457,76.190,-123.858,94.164,-17.192,85.177,-60.171,25.006,17.192,23.443,8.596,32.430,-42.589,7.424,0.781,59.389,15.238,71.893,22.662,5.861,-42.589
'[09:22:43.164 14/03/2059]',6.642,-34.383,-14.457,73.455,-125.812,94.554,-14.847,76.581,-57.827,33.602,23.443,12.503,15.238,34.774,-40.244,2.735,5.079,56.264,15.238,73.065,21.880,10.159,-40.244
'[09:22:43.168 14/03/2059]',1.954,-35.946,-18.755,74.628,-132.454,92.601,-19.927,80.879,-60.952,36.728,25.006,12.503,16.410,35.556,-41.026,3.907,11.331,58.217,19.536,84.005,26.960,-3.516,-41.026
'[09:22:43.172 14/03/2059]',1.563,-37.118,-23.834,73.455,-134.408,93.382,-23.053,76.581,-64.469,39.463,25.397,10.940,14.847,35.946,-42.198,3.516,14.066,64.860,24.615,72.283,32.039,4.689,-42.198
'[09:22:43.176 14/03/2059]',0.391,-35.165,-24.615,66.032,-136.752,97.289,-17.582,62.906,-66.422,44.542,28.132,5.079,16.410,37.509,-39.072,-1.172,18.364,64.469,25.397,78.144,30.085,1.563,-39.072
'[09:22:43.180 14/03/2059]',0.391,-33.602,-28.132,64.469,-137.534,98.852,-14.847,55.482,-68.376,49.621,28.132,5.079,18.755,38.681,-39.072,-1.954,26.178,65.250,28.913,91.429,30.476,-10.940,-39.072
'[09:22:43.184 14/03/2059]',2.344,-33.602,-30.085,64.078,-134.017,102.369,-16.020,48.449,-67.595,56.264,25.397,4.298,20.317,44.933,-41.807,-2.344,29.695,70.330,30.867,74.628,37.509,6.642,-41.807
'[09:22:43.188 14/03/2059]',0.781,-35.946,-27.741,63.297,-132.454,107.057,-18.364,43.370,-63.687,64.860,25.006,-0.391,25.397,48.840,-42.979,-4.689,33.602,66.032,28.523,64.469,41.026,22.271,-42.979
'[09:22:43.191 14/03/2059]',1.954,-38.291,-26.960,62.515,-130.110,109.792,-22.662,41.026,-59.780,71.111,23.053,-0.391,32.430,50.012,-41.416,-5.861,39.072,60.171,27.741,81.661,41.416,10.940,-41.416
'[09:22:43.195 14/03/2059]',-3.907,-42.589,-29.304,67.595,-134.799,110.574,-23.834,37.509,-59.389,73.455,20.317,5.470,32.821,54.701,-43.761,-1.954,44.151,60.952,30.085,84.005,42.979,14.847,-43.761
'[09:22:43.199 14/03/2059]',-7.424,-46.496,-30.476,67.595,-137.143,114.872,-25.397,28.913,-58.217,75.409,19.927,5.861,30.085,50.012,-33.211,-1.954,45.714,58.608,31.258,71.893,42.589,24.225,-33.211
'[09:22:43.203 14/03/2059]',-6.642,-46.496,-32.039,63.687,-137.534,121.514,-31.648,24.225,-53.919,76.581,24.225,3.907,32.821,43.370,-19.145,-4.689,48.449,52.747,32.821,81.661,37.509,11.722,-19.145
'[09:22:43.207 14/03/2059]',-5.079,-48.840,-33.993,64.860,-138.706,126.203,-36.728,24.615,-50.794,77.753,24.225,8.205,35.165,43.370,-15.238,-1.563,52.357,51.966,34.774,91.038,35.946,2.344,-15.238
'[09:22:43.211 14/03/2059]',-1.172,-50.794,-33.993,66.032,-135.580,130.891,-33.993,17.192,-46.886,76.190,24.615,9.377,36.337,42.589,-14.847,0.391,50.794,53.138,34.774,76.581,38.291,15.238,-14.847
'[09:22:43.215 14/03/2059]',4.298,-48.840,-35.165,64.469,-128.938,135.189,-28.913,7.033,-43.761,74.628,25.006,7.814,38.681,39.463,-13.284,0.391,48.449,49.621,35.946,72.283,34.383,19.145,-13.284
'[09:22:43.219 14/03/2059]',2.344,-45.714,-38.291,65.641,-129.719,135.189,-28.523,5.861,-42.979,68.376,24.225,13.284,39.463,37.118,-13.675,1.172,48.840,45.324,39.072,81.270,30.867,8.205,-13.675
'[09:22:43.223 14/03/2059]',-7.033,-41.416,-42.589,66.422,-138.315,136.361,-30.867,6.252,-47.668,58.999,23.053,20.317,33.993,34.383,-15.238,3.126,47.277,42.589,43.370,73.065,30.085,9.377,-15.238
'[09:22:43.227 14/03/2059]',-11.722,-32.821,-46.105,61.343,-141.832,141.441,-23.834,-5.861,-48.449,51.184,28.132,19.145,32.039,23.834,-2.735,-1.563,44.151,34.774,46.886,61.734,23.053,8.205,-2.735
'[09:22:43.230 14/03/2059]',-14.847,-23.443,-46.496,57.045,-144.567,146.911,-25.788,-6.252,-47.668,44.542,31.648,19.927,33.602,20.708,2.735,-6.642,44.933,26.960,47.277,66.032,19.145,-1.172,2.735
'[09:22:43.234 14/03/2059]',-18.755,-19.536,-45.714,56.264,-149.646,149.255,-30.085,0.781,-51.575,38.681,30.867,25.006,30.476,18.364,3.126,-8.205,44.151,27.741,46.496,62.906,21.880,-4.689,3.126
'[09:22:43.238 14/03/2059]',-18.364,-15.629,-43.761,53.138,-149.255,153.162,-31.258,1.563,-48.449,33.211,30.476,25.788,30.867,23.443,1.563,-12.894,42.198,27.350,44.542,47.277,24.615,10.549,1.563
'[09:22:43.242 14/03/2059]',-16.410,-7.814,-42.979,45.714,-151.209,157.851,-26.960,-1.954,-46.105,31.648,33.993,23.053,34.383,29.304,1.172,-21.099,45.714,22.271,43.761,52.747,22.662,8.205,1.172
'[09:22:43.246 14/03/2059]',-17.192,-2.735,-42.979,39.463,-159.414,163.321,-24.225,-3.907,-47.277,29.304,33.211,24.615,34.774,32.039,0.391,-25.006,52.357,20.708,43.761,60.171,22.271,-1.563,0.391
'[09:22:43.250 14/03/2059]',-15.629,1.563,-43.370,33.602,-165.665,170.745,-21.880,-7.033,-46.496,28.523,34.774,21.880,33.211,38.681,-2.344,-28.913,58.999,18.364,44.151,39.072,23.053,16.410,-2.344
'[09:22:43.254 14/03/2059]',-13.675,8.205,-41.416,24.615,-170.354,178.168,-23.443,-6.642,-47.277,32.039,39.072,14.847,33.993,41.416,-1.172,-33.602,67.595,12.894,42.198,27.350,21.099,24.615,-1.172
'[09:22:43.258 14/03/2059]',-10.549,11.331,-39.072,18.364,-175.433,181.294,-22.662,-3.516,-48.840,32.821,37.900,11.331,36.728,31.648,3.126,-36.728,75.800,8.987,39.853,36.337,22.662,1.563,3.126
'[09:22:43.262 14/03/2059]',-12.894,9.768,-35.946,14.457,-182.857,180.904,-16.801,-5.861,-50.403,32.430,32.821,9.377,35.946,28.913,-1.172,-37.900,79.316,10.159,36.728,29.695,26.960,1.172,-1.172
'[09:22:43.266 14/03/2059]',-13.284,10.549,-35.165,7.033,-187.155,180.904,-13.284,-10.940,-49.231,33.602,29.695,1.172,39.072,25.397,-5.861,-41.807,78.926,6.642,35.946,13.675,29.304,11.331,-5.861
'[09:22:43.270 14/03/2059]',-12.894,14.457,-35.165,-2.344,-191.844,180.904,-15.238,-10.549,-46.105,31.648,27.741,-6.252,43.370,20.317,-7.033,-48.840,77.753,1.954,35.946,17.973,30.085,-0.391,-7.033
'[09:22:43.273 14/03/2059]',-12.894,15.629,-33.211,-8.596,-196.142,182.466,-18.755,-7.424,-46.105,30.085,25.006,-8.596,44.542,17.192,-10.940,-50.403,78.535,1.563,33.993,19.145,32.821,-6.642,-10.940
'[09:22:43.277 14/03/2059]',-12.112,17.582,-29.304,-14.847,-197.314,185.983,-14.457,-14.066,-45.324,32.039,26.178,-14.847,45.714,20.317,-16.410,-51.184,79.707,1.563,30.085,5.470,32.821,10.159,-16.410
'[09:22:43.281 14/03/2059]',-9.377,23.053,-24.615,-23.053,-196.142,190.672,-9.377,-20.317,-43.370,33.211,27.741,-21.490,48.059,24.225,-21.490,-53.919,81.270,1.563,25.397,-0.391,32.430,17.973,-21.490
'[09:22:43.285 14/03/2059]',-8.987,25.788,-21.880,-27.350,-197.705,193.407,-9.377,-19.145,-41.416,32.430,23.834,-19.927,50.794,20.317,-24.225,-50.403,85.568,2.344,22.662,5.861,32.430,6.252,-24.225
'[09:22:43.289 14/03/2059]',-8.596,26.569,-19.145,-32.039,-198.486,193.407,-9.768,-19.145,-40.635,32.039,19.536,-19.145,50.794,20.708,-32.039,-46.105,89.475,0.391,19.927,4.298,30.476,5.861,-32.039
'[09:22:43.293 14/03/2059]',-4.689,30.085,-19.145,-39.853,-192.625,192.234,-6.642,-27.741,-32.430,27.741,15.629,-23.834,53.529,16.801,-35.556,-46.105,85.568,-7.033,19.927,-15.629,27.741,19.536,-35.556
'[09:22:43.297 14/03/2059]',-1.172,30.476,-18.364,-46.105,-190.281,191.062,-3.907,-32.430,-25.006,19.927,12.112,-23.834,56.264,3.516,-30.085,-44.933,84.005,-15.238,19.145,-8.987,22.662,1.563,-30.085
'[09:22:43.301 14/03/2059]',0.391,28.523,-16.020,-45.714,-187.155,186.374,-6.252,-26.178,-24.615,12.503,6.252,-20.317,48.059,-2.735,-30.476,-39.072,78.926,-14.847,16.801,-17.582,21.880,0.391,-30.476
'[09:22:43.305 14/03/2059]',3.516,24.225,-12.894,-46.105,-182.466,184.029,-9.768,-23.834,-21.099,8.205,0.391,-22.271,40.635,-5.079,-32.430,-36.728,71.893,-16.410,13.675,-35.556,19.536,17.192,-32.430
'[09:22:43.309 14/03/2059]',6.642,23.834,-9.768,-47.668,-180.904,184.420,-7.814,-22.662,-14.847,4.689,-4.298,-22.662,39.072,-9.768,-30.085,-35.165,69.158,-20.708,10.549,-23.443,14.066,1.563,-30.085
'[09:22:43.313 14/03/2059]',7.814,21.880,-9.768,-46.886,-177.778,178.559,-7.424,-21.099,-10.940,0.391,-10.159,-19.145,35.165,-14.457,-30.085,-29.695,66.422,-22.271,10.549,-14.847,7.424,-11.331,-30.085
'[09:22:43.316 14/03/2059]',10.940,18.755,-11.331,-45.714,-171.526,173.871,-7.814,-22.662,-5.470,-0.781,-17.582,-18.755,29.304,-12.112,-33.993,-25.788,61.734,-25.397,12.112,-32.821,3.126,6.252,-33.993
'[09:22:43.320 14/03/2059]',14.847,20.708,-14.457,-47.668,-163.712,170.745,-11.722,-21.880,1.172,-4.689,-22.662,-19.145,28.132,-10.159,-36.728,-25.006,58.999,-35.946,15.238,-39.853,-1.563,11.331,-36.728
'[09:22:43.324 14/03/2059]',13.284,20.317,-17.582,-48.449,-160.195,162.930,-16.801,-18.364,5.079,-8.596,-28.913,-16.801,26.569,-13.675,-36.728,-24.225,57.436,-45.324,18.364,-28.132,-5.470,-4.298,-36.728
'[09:22:43.328 14/03/2059]',11.331,13.675,-19.536,-46.105,-155.116,151.600,-17.582,-19.927,4.689,-12.112,-38.291,-13.284,17.582,-14.847,-42.589,-18.364,50.794,-48.059,20.317,-35.165,-7.033,2.344,-42.589
'[09:22:43.332 14/03/2059]',10.549,7.033,-23.053,-48.840,-147.692,138.315,-17.582,-27.741,8.987,-14.847,-45.714,-18.364,14.457,-21.490,-42.198,-18.755,41.026,-54.701,23.834,-43.761,-11.722,9.377,-42.198
'[09:22:43.336 14/03/2059]',10.549,1.563,-27.350,-53.138,-139.878,124.640,-24.225,-28.913,12.503,-19.145,-51.184,-21.099,12.894,-34.383,-36.728,-20.708,32.430,-62.906,28.132,-26.960,-17.582,-12.503,-36.728
'[09:22:43.340 14/03/2059]',14.457,-7.424,-32.430,-55.092,-126.984,109.011,-33.993,-29.695,13.675,-26.569,-59.780,-21.099,5.861,-46.105,-35.165,-17.973,22.662,-67.204,33.211,-20.317,-20.708,-25.397,-35.165
'[09:22:43.344 14/03/2059]',17.582,-14.066,-38.291,-58.608,-116.044,97.289,-34.383,-41.026,18.755,-32.430,-67.595,-24.615,2.344,-50.012,-36.337,-20.317,13.284,-74.628,39.072,-31.648,-24.225,-14.457,-36.337
'[09:22:43.348 14/03/2059]',20.708,-18.755,-42.589,-61.734,-105.495,87.521,-37.900,-47.277,21.490,-37.509,-71.111,-27.741,0.391,-53.138,-36.337,-24.225,7.424,-85.568,43.370,-27.350,-28.913,-17.192,-36.337
'[09:22:43.352 14/03/2059]',17.192,-26.960,-44.151,-60.562,-101.587,76.190,-48.840,-41.416,23.053,-44.933,-75.409,-24.225,-5.861,-53.919,-39.072,-20.317,2.344,-87.912,44.933,-17.192,-32.039,-22.662,-39.072
'[09:22:43.355 14/03/2059]',11.722,-34.383,-48.059,-55.873,-98.852,64.469,-52.747,-39.853,21.880,-48.449,-81.270,-19.536,-12.894,-51.966,-44.542,-15.238,-3.516,-87.131,48.840,-25.006,-34.383,-10.549,-44.542
'[09:22:43.359 14/03/2059]',10.549,-39.072,-48.840,-57.045,-92.210,53.138,-51.575,-44.151,26.960,-52.357,-80.879,-21.880,-14.847,-50.403,-41.416,-18.755,-10.940,-92.210,49.621,-21.099,-39.463,-7.033,-41.416
'[09:22:43.363 14/03/2059]',7.424,-42.979,-48.840,-55.482,-86.740,41.416,-51.184,-43.370,30.867,-54.310,-82.051,-19.536,-16.020,-50.794,-39.463,-17.192,-16.410,-94.554,49.621,-4.298,-43.761,-18.364,-39.463
'[09:22:43.367 14/03/2059]',5.079,-48.449,-52.357,-49.621,-81.270,29.304,-53.138,-39.853,34.774,-57.045,-86.349,-17.192,-17.582,-57.045,-33.993,-14.847,-22.271,-94.945,53.138,-14.066,-39.853,-17.582,-33.993
'[09:22:43.371 14/03/2059]',3.126,-51.966,-54.310,-48.840,-75.409,17.973,-57.045,-37.509,34.774,-57.436,-89.866,-19.536,-21.490,-62.125,-28.523,-17.973,-28.913,-100.806,55.092,-24.225,-39.463,-11.331,-28.523
'[09:22:43.375 14/03/2059]',0.781,-53.529,-56.654,-50.012,-71.111,8.205,-60.952,-35.165,33.602,-58.608,-91.038,-19.927,-22.662,-66.032,-26.178,-18.364,-32.821,-109.792,57.436,-8.596,-42.198,-27.741,-26.178
'[09:22:43.379 14/03/2059]',-0.781,-58.608,-57.045,-47.668,-65.641,-3.126,-61.734,-34.383,27.741,-61.734,-94.945,-15.238,-28.523,-72.283,-25.397,-15.238,-39.853,-109.402,57.827,0.391,-41.807,-38.291,-25.397
'[09:22:43.383 14/03/2059]',-4.298,-62.515,-59.389,-46.496,-59.780,-13.675,-64.078,-35.165,23.834,-64.078,-98.852,-14.847,-36.728,-74.237,-23.834,-16.801,-49.621,-109.792,60.171,-10.940,-40.635,-25.788,-23.834
'[09:22:43.387 14/03/2059]',-5.079,-62.906,-59.389,-50.403,-53.138,-20.317,-67.985,-37.509,26.178,-64.078,-97.289,-17.582,-37.509,-72.283,-19.927,-20.708,-58.608,-112.918,60.171,-5.861,-44.151,-25.788,-19.927
'[09:22:43.391 14/03/2059]',-8.205,-64.078,-58.608,-49.231,-50.012,-25.788,-70.720,-33.993,27.350,-62.515,-100.415,-14.066,-38.291,-73.065,-16.410,-19.145,-63.297,-112.137,59.389,7.033,-44.151,-40.635,-16.410
'[09:22:43.395 14/03/2059]',-13.675,-65.641,-61.734,-43.761,-47.668,-33.602,-66.422,-37.509,31.648,-60.562,-106.667,-11.331,-38.681,-73.846,-15.238,-16.020,-66.422,-110.574,62.515,-3.126,-43.761,-32.430,-15.238
'[09:22:43.398 14/03/2059]',-14.457,-64.860,-63.687,-44.151,-41.026,-39.072,-62.906,-44.151,33.602,-55.482,-110.965,-14.847,-40.244,-68.376,-19.536,-16.801,-69.158,-113.700,64.469,-10.940,-45.714,-21.490,-19.536
'[09:22:43.402 14/03/2059]',-16.801,-65.250,-62.515,-43.761,-36.337,-46.886,-66.422,-39.853,34.383,-52.357,-115.653,-16.410,-41.026,-67.595,-21.099,-17.192,-68.767,-117.607,63.297,1.563,-49.621,-30.476,-21.099
'[09:22:43.406 14/03/2059]',-20.317,-66.813,-64.469,-40.244,-31.648,-55.873,-67.985,-36.337,35.556,-51.966,-120.342,-16.410,-44.151,-77.363,-9.768,-18.755,-68.376,-117.216,65.250,0.391,-49.231,-41.807,-9.768
'[09:22:43.410 14/03/2059]',-18.364,-65.641,-64.469,-40.244,-22.662,-60.171,-62.515,-43.761,33.211,-50.794,-119.560,-21.490,-51.184,-81.270,0.391,-25.788,-71.111,-117.216,65.250,-11.331,-52.747,-33.602,0.391
'[09:22:43.414 14/03/2059]',-16.020,-64.469,-60.562,-43.370,-12.503,-62.125,-54.310,-55.873,35.165,-50.403,-115.653,-27.350,-53.138,-84.786,12.503,-31.258,-74.628,-117.216,61.343,-11.722,-59.389,-34.774,12.503
'[09:22:43.418 14/03/2059]',-16.801,-65.250,-59.389,-37.118,-7.814,-64.469,-57.827,-48.840,36.337,-52.357,-114.090,-24.615,-55.482,-88.303,19.927,-29.304,-74.237,-110.183,60.171,-1.563,-59.780,-50.794,19.927
'[09:22:43.422 14/03/2059]',-17.192,-67.204,-60.562,-31.648,-3.516,-67.595,-58.608,-47.277,37.118,-53.919,-111.746,-25.397,-60.171,-85.568,20.317,-26.960,-77.753,-101.197,61.343,-13.284,-59.780,-40.635,20.317
'[09:22:43.426 14/03/2059]',-15.238,-66.813,-56.264,-32.430,1.954,-65.250,-55.482,-53.529,41.807,-51.966,-102.369,-34.383,-57.436,-80.488,21.099,-28.132,-80.879,-96.899,57.045,-7.033,-65.250,-40.244,21.099
'[09:22:43.430 14/03/2059]',-13.284,-64.469,-54.701,-28.132,6.252,-64.469,-51.966,-51.966,45.714,-51.966,-94.945,-35.946,-53.138,-76.581,22.271,-28.132,-79.707,-89.475,55.482,7.033,-67.595,-51.184,22.271
'[09:22:43.434 14/03/2059]',-16.801,-63.687,-52.357,-22.271,5.079,-63.297,-47.668,-50.794,44.933,-50.012,-92.210,-37.118,-57.045,-72.283,25.006,-28.132,-83.223,-78.926,53.138,-8.987,-63.687,-37.118,25.006
'[09:22:43.438 14/03/2059]',-18.364,-61.734,-46.496,-21.880,4.689,-58.217,-41.807,-55.092,44.933,-46.886,-84.005,-44.933,-57.827,-66.813,29.695,-35.165,-86.349,-74.237,47.277,-18.364,-64.860,-20.317,29.695
'[09:22:43.441 14/03/2059]',-18.755,-58.217,-38.681,-20.708,6.252,-55.482,-32.821,-55.482,41.416,-44.151,-77.753,-47.277,-56.654,-61.734,34.383,-42.589,-83.223,-70.720,39.463,-1.954,-65.250,-28.913,34.383
'[09:22:43.445 14/03/2059]',-19.145,-58.217,-34.383,-14.066,3.907,-52.357,-23.834,-55.092,35.165,-40.635,-72.674,-46.496,-58.608,-63.297,44.542,-46.105,-78.926,-60.171,35.165,0.000,-60.952,-35.165,44.542
'[09:22:43.449 14/03/2059]',-16.020,-56.654,-30.867,-11.722,5.861,-45.324,-18.364,-60.171,33.993,-35.946,-62.906,-51.966,-55.873,-59.389,52.747,-53.138,-74.628,-53.529,31.648,-13.675,-60.171,-19.927,52.747
'[09:22:43.453 14/03/2059]',-7.424,-52.357,-27.350,-12.112,12.112,-35.946,-15.629,-61.734,35.946,-29.695,-53.138,-58.217,-47.668,-55.482,60.952,-60.562,-67.204,-53.919,28.132,-6.642,-57.827,-25.788,60.952
'[09:22:43.457 14/03/2059]',0.000,-48.449,-26.178,-9.377,14.066,-26.960,-17.582,-55.873,35.556,-22.271,-50.403,-56.654,-42.198,-51.184,64.860,-63.687,-57.827,-51.575,26.960,-0.781,-52.747,-35.946,64.860
'[09:22:43.461 14/03/2059]',3.516,-46.886,-25.006,-7.033,18.364,-23.443,-11.722,-58.999,34.383,-17.192,-50.794,-57.436,-40.635,-45.714,62.125,-65.641,-54.310,-49.621,25.788,-15.629,-46.496,-21.099,62.125
'[09:22:43.465 14/03/2059]',4.298,-44.933,-23.053,-9.768,18.364,-20.708,-5.470,-66.422,34.383,-9.377,-53.138,-58.608,-35.165,-35.946,56.264,-70.330,-51.966,-51.966,23.834,-19.927,-43.761,-8.596,56.264
'[09:22:43.469 14/03/2059]',2.344,-41.416,-22.271,-11.722,12.894,-18.364,-9.768,-58.608,26.960,-2.735,-56.654,-52.357,-32.039,-28.913,51.575,-74.628,-47.668,-52.747,23.053,-7.814,-42.198,-17.973,51.575
'[09:22:43.473 14/03/2059]',0.391,-39.072,-23.443,-13.284,7.814,-15.238,-16.801,-52.747,19.145,0.000,-58.608,-45.714,-32.039,-23.053,46.886,-75.018,-44.151,-50.403,24.225,-11.331,-39.853,-14.457,46.886
'[09:22:43.477 14/03/2059]',0.391,-32.821,-23.443,-20.708,4.298,-8.596,-11.331,-62.515,16.410,2.735,-55.873,-44.151,-27.350,-12.112,38.291,-78.926,-40.244,-55.482,24.225,-20.317,-41.026,0.391,38.291
'[09:22:43.480 14/03/2059]',5.079,-24.615,-24.225,-26.569,2.735,-1.172,-10.549,-62.906,13.675,7.033,-51.575,-44.151,-20.708,-10.549,41.807,-82.833,-33.602,-60.952,25.006,-13.675,-42.589,-9.768,41.807
'[09:22:43.484 14/03/2059]',5.470,-19.536,-23.053,-28.523,-1.563,2.344,-10.549,-55.873,8.205,8.205,-48.059,-35.165,-21.099,-9.377,41.807,-76.581,-25.006,-57.436,23.834,-15.238,-39.463,-14.457,41.807
'[09:22:43.488 14/03/2059]',7.814,-16.020,-21.099,-28.913,-2.735,4.689,-7.814,-53.919,5.470,8.987,-43.761,-29.304,-19.536,-6.252,39.072,-69.548,-20.317,-54.310,21.880,-28.523,-38.291,0.000,39.072
'[09:22:43.492 14/03/2059]',13.284,-8.596,-18.755,-32.430,-1.954,8.596,-1.172,-53.138,2.735,14.066,-37.118,-23.053,-14.457,-6.252,44.151,-64.860,-14.457,-51.575,19.536,-19.145,-41.416,-8.596,44.151
'[09:22:43.496 14/03/2059]',16.801,-3.516,-15.238,-33.993,-1.563,12.112,3.126,-51.184,-7.033,15.629,-30.476,-12.503,-17.192,-5.079,45.324,-55.873,-8.987,-44.542,16.020,-5.861,-44.151,-21.099,45.324
'[09:22:43.500 14/03/2059]',17.582,1.563,-16.410,-33.993,-2.344,16.410,4.689,-51.184,-12.503,13.284,-24.225,-3.516,-18.364,-0.391,39.853,-46.496,-7.814,-36.728,17.192,-21.880,-46.496,-2.735,39.853
'[09:22:43.504 14/03/2059]',21.099,9.377,-17.192,-39.072,-1.172,21.099,5.470,-51.966,-16.410,15.238,-17.582,0.781,-16.801,5.470,34.383,-40.244,-8.205,-32.430,17.973,-30.476,-50.794,6.642,34.383
'[09:22:43.508 14/03/2059]',20.708,14.847,-17.973,-42.589,-8.596,26.178,6.642,-50.403,-23.443,15.238,-10.940,8.205,-16.410,5.470,33.993,-32.821,-1.954,-27.741,18.755,-18.364,-55.092,-10.549,33.993
'[09:22:43.512 14/03/2059]',13.284,21.490,-19.927,-41.416,-19.927,31.258,14.066,-52.357,-31.648,12.112,-5.079,17.192,-19.927,5.079,28.913,-20.317,2.735,-16.801,20.708,-23.834,-58.608,-10.549,28.913
'[09:22:43.516 14/03/2059]',13.675,28.913,-20.317,-41.807,-24.615,37.900,22.271,-55.873,-35.946,13.675,0.391,21.880,-21.880,4.689,29.695,-10.940,6.642,-7.033,21.099,-38.291,-65.641,0.000,29.695
'[09:22:43.520 14/03/2059]',15.629,37.118,-17.192,-45.324,-27.350,45.714,24.225,-53.138,-40.635,16.020,5.861,25.788,-22.662,0.391,37.509,-5.470,12.112,-3.516,17.973,-30.476,-70.330,-16.020,37.509
'[09:22:43.523 14/03/2059]',10.940,44.542,-16.801,-44.542,-34.383,52.357,21.490,-46.105,-42.979,13.675,5.079,36.337,-27.741,3.907,33.993,3.126,16.410,0.781,17.582,-26.178,-75.018,-20.708,33.993
'[09:22:43.527 14/03/2059]',14.066,50.794,-17.582,-46.105,-32.821,57.045,23.834,-46.886,-40.244,13.284,0.391,45.324,-29.304,10.940,24.615,12.503,13.675,6.252,18.364,-41.026,-76.972,-5.861,24.615
'[09:22:43.531 14/03/2059]',19.927,56.264,-17.582,-49.231,-28.523,61.343,26.960,-50.403,-35.165,11.722,-3.126,49.231,-32.821,26.178,15.238,13.675,10.940,7.033,18.364,-44.933,-74.628,-0.781,15.238
'[09:22:43.535 14/03/2059]',16.801,60.171,-18.364,-48.059,-33.993,63.687,23.443,-43.370,-36.728,9.377,-7.814,54.310,-37.509,33.602,5.470,17.192,8.987,12.894,19.145,-33.602,-71.502,-12.503,5.470
'[09:22:43.539 14/03/2059]',14.457,63.687,-20.708,-46.496,-37.509,64.860,20.708,-37.900,-36.728,7.424,-12.503,56.654,-36.337,32.821,-1.563,19.927,8.596,22.271,21.490,-32.039,-66.032,-18.755,-1.563
'[09:22:43.543 14/03/2059]',15.238,63.687,-19.536,-46.886,-37.900,67.204,25.788,-43.761,-33.993,6.642,-11.331,50.403,-31.648,36.337,-9.768,17.973,5.079,23.834,20.317,-40.635,-62.906,-5.079,-9.768
'[09:22:43.547 14/03/2059]',7.814,63.687,-17.582,-49.231,-47.277,68.376,27.350,-44.933,-34.383,6.252,-8.987,46.105,-24.225,36.728,-18.755,16.410,6.252,23.834,18.364,-25.397,-62.515,-10.549,-18.755
'[09:22:43.551 14/03/2059]',-1.172,65.250,-17.973,-46.105,-57.045,69.548,22.662,-36.337,-35.946,4.689,-10.159,51.575,-21.099,35.556,-26.960,23.443,6.252,30.867,18.755,-30.476,-57.827,-7.033,-26.960
'[09:22:43.555 14/03/2059]',-0.391,66.813,-16.410,-42.979,-55.482,73.065,21.099,-32.039,-32.821,2.344,-8.987,55.873,-17.192,41.416,-36.728,28.913,3.126,35.946,17.192,-48.840,-53.138,14.457,-36.728
'[09:22:43.559 14/03/2059]',0.391,68.767,-11.722,-43.370,-54.701,77.363,21.490,-30.476,-30.476,3.126,-6.642,57.827,-11.331,42.589,-36.728,29.695,3.907,36.728,12.503,-35.946,-50.012,5.079,-36.728
'[09:22:43.563 14/03/2059]',-3.126,69.158,-8.596,-37.900,-57.045,78.535,23.834,-26.960,-29.695,3.126,-8.205,65.250,-8.205,34.774,-29.304,34.383,4.689,41.807,9.377,-23.834,-44.542,-13.675,-29.304
'[09:22:43.566 14/03/2059]',-4.689,67.985,-7.033,-30.867,-56.264,79.316,23.834,-23.053,-26.960,4.298,-7.424,65.641,-4.298,33.211,-30.085,37.509,3.126,45.714,7.814,-37.900,-37.118,2.344,-30.085
'[09:22:43.570 14/03/2059]',-7.033,69.158,-3.516,-26.178,-58.217,81.661,23.053,-17.192,-27.350,10.159,-1.954,60.562,-1.172,39.072,-29.695,33.602,3.907,43.370,4.298,-37.900,-30.085,10.159,-29.695
'[09:22:43.574 14/03/2059]',-10.940,71.502,-0.391,-19.927,-63.297,84.005,25.788,-8.205,-28.523,13.675,1.954,58.999,1.563,38.681,-26.960,33.993,10.159,45.324,1.172,-22.271,-23.834,-3.516,-26.960
'[09:22:43.578 14/03/2059]',-14.847,74.628,0.391,-8.987,-68.376,87.521,32.821,-1.563,-29.695,14.847,4.689,62.125,1.954,41.026,-30.085,39.853,14.847,52.357,0.391,-30.085,-17.192,4.298,-30.085
'[09:22:43.582 14/03/2059]',-11.331,78.144,2.735,-2.344,-66.422,92.601,41.026,-0.781,-24.615,16.020,6.642,61.343,7.814,47.277,-34.774,39.853,19.145,55.092,-1.954,-40.244,-12.112,20.708,-34.774
'[09:22:43.586 14/03/2059]',-14.847,82.833,5.861,-0.781,-71.111,95.726,41.026,6.252,-17.973,12.894,8.205,63.297,14.847,46.496,-33.993,39.463,22.662,52.747,-5.079,-25.006,-9.768,9.377,-33.993
'[09:22:43.590 14/03/2059]',-19.927,80.098,8.205,3.907,-76.190,95.726,35.165,18.364,-14.066,7.033,6.252,69.548,18.755,42.979,-34.774,43.370,22.271,52.357,-7.424,-16.410,-4.298,3.516,-34.774
'[09:22:43.594 14/03/2059]',-21.099,78.144,9.768,7.424,-74.628,92.991,35.165,19.927,-7.424,4.298,8.205,69.158,23.834,42.589,-34.774,42.979,16.020,50.012,-8.987,-27.350,3.516,17.582,-34.774
'[09:22:43.598 14/03/2059]',-19.536,78.144,14.847,6.642,-70.330,94.164,35.165,21.099,-1.172,4.298,12.503,66.032,28.913,36.337,-23.443,40.244,11.722,44.933,-14.066,-23.053,11.331,10.159,-23.443
'[09:22:43.602 14/03/2059]',-23.053,75.800,19.536,10.159,-73.065,94.945,26.178,34.383,-0.391,1.954,18.364,65.250,28.913,30.867,-14.066,40.244,9.768,48.449,-18.755,-13.675,19.145,-2.735,-14.066
'[09:22:43.605 14/03/2059]',-25.006,74.237,19.927,14.847,-74.237,96.117,25.006,37.509,0.781,1.172,21.880,65.250,28.523,29.695,-9.377,40.244,8.987,54.310,-19.145,-23.053,25.006,2.735,-9.377
'[09:22:43.609 14/03/2059]',-21.490,76.581,22.662,11.331,-71.893,100.415,27.350,32.430,5.470,0.391,26.569,55.092,31.648,32.039,-7.033,32.039,8.205,53.529,-21.880,-23.834,24.615,8.205,-7.033
'[09:22:43.613 14/03/2059]',-18.755,77.363,24.615,9.377,-71.502,103.932,29.304,30.867,7.814,-2.344,29.695,47.277,32.821,30.867,-4.689,23.834,8.987,53.529,-23.834,-8.205,20.708,-1.563,-4.689
'[09:22:43.617 14/03/2059]',-15.629,75.409,23.053,14.066,-67.985,103.541,27.350,33.602,10.159,-5.861,26.569,43.761,30.085,30.867,-7.424,21.490,6.642,54.310,-22.271,-18.364,23.834,9.768,-7.424
'[09:22:43.621 14/03/2059]',-11.331,76.581,22.271,14.066,-62.515,106.276,22.271,36.337,17.973,-6.252,25.397,33.211,30.476,34.383,-9.377,15.238,2.735,51.184,-21.490,-32.039,27.350,26.960,-9.377
'[09:22:43.625 14/03/2059]',-5.861,76.972,25.788,13.284,-54.701,110.965,17.192,37.900,24.615,-6.252,26.569,24.225,33.602,34.774,-7.424,8.987,3.907,44.542,-25.006,-15.629,26.569,17.973,-7.424
'[09:22:43.629 14/03/2059]',-7.033,75.800,26.569,17.582,-52.357,114.090,11.331,39.463,27.350,-5.861,27.350,19.536,32.821,36.728,-6.252,6.252,5.470,45.714,-25.788,-7.033,29.304,14.066,-6.252
'[09:22:43.633 14/03/2059]',-8.987,76.972,24.225,19.145,-47.668,116.435,5.861,36.728,32.821,-3.907,27.350,11.331,32.821,32.821,1.172,1.172,2.735,46.496,-23.443,-22.271,34.383,25.397,1.172
'[09:22:43.637 14/03/2059]',-7.424,78.535,22.662,17.192,-41.026,118.388,-0.781,35.556,38.681,-1.563,30.085,1.954,35.165,29.695,9.377,-4.689,0.391,41.807,-21.880,-18.364,35.165,21.099,9.377
'[09:22:43.641 14/03/2059]',-7.033,78.926,20.708,19.536,-37.118,116.044,-3.907,37.509,38.291,-1.172,27.741,-0.391,32.039,27.350,12.894,-7.424,-1.172,39.853,-19.927,-5.470,39.072,7.424,12.894
'[09:22:43.645 14/03/2059]',-8.987,78.926,14.457,25.397,-34.774,111.746,-1.954,35.556,41.026,-3.907,23.053,-0.391,27.741,25.788,11.722,-5.470,-5.861,41.807,-13.675,-17.973,46.886,17.192,11.722
'[09:22:43.648 14/03/2059]',-9.377,78.144,13.284,26.569,-30.476,109.792,0.391,29.695,47.277,-3.516,21.099,-7.033,26.178,29.695,9.768,-8.205,-11.331,39.072,-12.503,-23.834,48.059,30.867,9.768
'[09:22:43.652 14/03/2059]',-7.033,74.628,15.238,29.304,-26.569,111.746,-5.079,33.211,50.403,-3.126,21.490,-12.112,25.788,29.304,10.940,-11.331,-10.940,38.291,-14.457,-7.033,46.105,22.271,10.940
'[09:22:43.656 14/03/2059]',-6.252,73.846,14.457,35.556,-24.615,115.653,-10.159,37.118,52.747,-3.126,21.099,-14.457,25.397,26.569,14.066,-10.549,-8.987,43.761,-13.675,-5.861,48.059,19.536,14.066
'[09:22:43.660 14/03/2059]',-3.516,74.237,13.675,37.900,-21.880,122.686,-7.424,30.085,57.045,-1.172,23.834,-23.053,27.350,29.304,13.675,-13.675,-7.424,40.244,-12.894,-17.973,48.059,35.946,13.675
'[09:22:43.664 14/03/2059]',0.781,75.409,14.847,39.072,-18.364,130.501,-1.954,21.490,62.515,1.172,27.350,-31.648,32.430,32.821,10.549,-16.410,-4.298,35.946,-14.066,-16.801,46.105,42.589,10.549
'[09:22:43.668 14/03/2059]',-1.563,76.190,13.675,44.933,-23.834,134.799,-6.252,29.695,61.734,1.954,28.913,-34.774,32.039,36.337,6.252,-15.238,2.735,37.118,-12.894,-5.861,47.668,34.383,6.252
'[09:22:43.672 14/03/2059]',-10.159,74.237,11.722,50.794,-31.258,136.361,-11.722,33.993,63.297,2.344,28.523,-41.416,28.913,35.946,3.126,-14.457,3.126,41.026,-10.940,-16.410,52.747,43.761,3.126
'[09:22:43.676 14/03/2059]',-14.847,70.720,12.503,50.012,-34.383,136.752,-9.768,27.741,66.422,5.079,33.211,-54.701,29.695,28.132,11.331,-19.536,3.516,39.072,-11.722,-7.814,50.012,35.556,11.331
'[09:22:43.680 14/03/2059]',-18.755,64.078,11.331,52.747,-39.072,135.189,-11.331,26.569,64.860,4.298,37.509,-62.906,28.132,22.271,14.457,-21.099,3.516,42.198,-10.549,12.503,51.184,14.457,14.457
'[09:22:43.684 14/03/2059]',-17.192,56.654,7.033,54.701,-37.509,130.891,-14.457,22.662,62.906,3.516,36.728,-69.939,24.225,20.317,8.205,-19.536,1.954,45.714,-6.252,-0.391,58.999,25.397,8.205
'[09:22:43.688 14/03/2059]',-10.940,53.529,2.735,51.184,-31.648,129.719,-16.020,15.629,64.860,5.470,37.900,-80.488,26.178,23.443,0.391,-21.099,1.954,40.244,-1.954,-11.722,61.734,40.244,0.391
'[09:22:43.691 14/03/2059]',-7.424,51.575,1.954,48.449,-30.476,132.454,-16.410,10.549,64.860,10.549,35.556,-86.349,29.695,26.960,-10.940,-18.755,9.768,34.383,-1.172,4.298,65.250,28.913,-10.940
'[09:22:43.695 14/03/2059]',-9.377,52.357,-0.781,50.403,-33.993,134.799,-17.192,9.377,62.515,14.066,30.476,-86.740,28.913,25.397,-18.755,-12.894,18.755,34.383,1.563,3.907,67.204,25.788,-18.755
'[09:22:43.699 14/03/2059]',-16.410,52.357,-4.689,50.794,-39.463,137.534,-17.973,2.344,62.515,18.364,26.960,-92.210,26.178,25.397,-25.788,-8.596,23.834,30.867,5.470,-10.940,66.422,41.416,-25.788
'[09:22:43.703 14/03/2059]',-20.317,49.231,-3.907,49.231,-44.933,142.222,-23.834,0.391,62.906,23.834,25.006,-98.852,25.788,27.350,-28.523,-8.987,30.867,20.708,4.689,1.563,58.608,38.291,-28.523
'[09:22:43.707 14/03/2059]',-21.490,44.542,-6.642,50.012,-48.840,142.222,-30.085,3.516,63.687,24.615,23.053,-98.071,25.397,26.569,-32.430,-4.298,37.118,14.457,7.424,12.894,55.873,27.350,-32.430
'[09:22:43.711 14/03/2059]',-22.271,38.681,-8.205,51.575,-49.231,139.878,-26.178,-3.907,63.687,25.006,23.443,-98.071,23.834,25.397,-34.383,1.172,40.244,9.768,8.987,1.563,52.357,41.026,-34.383
'[09:22:43.715 14/03/2059]',-21.490,33.993,-5.470,51.184,-46.496,138.706,-21.490,-11.331,65.641,29.304,26.178,-99.243,24.615,17.582,-21.880,2.735,44.151,3.516,6.252,0.391,46.105,38.291,-21.880
'[09:22:43.719 14/03/2059]',-17.582,29.695,-5.079,53.529,-46.105,136.752,-23.443,-4.689,64.078,32.821,30.867,-93.382,25.006,9.768,-7.424,7.033,50.012,1.172,5.861,13.675,42.198,17.973,-7.424
'[09:22:43.723 14/03/2059]',-16.020,26.569,-5.470,58.217,-43.370,133.626,-27.350,1.172,60.171,36.728,32.430,-84.786,21.490,3.907,6.252,11.722,53.138,3.907,6.252,11.331,38.681,13.675,6.252
'[09:22:43.727 14/03/2059]',-12.503,23.834,-2.344,57.827,-39.072,130.891,-20.708,-3.126,58.217,42.589,37.900,-83.223,18.364,5.861,18.364,12.112,53.919,2.344,3.126,7.424,30.867,22.662,18.364
'[09:22:43.730 14/03/2059]',-7.814,22.662,1.172,58.608,-36.337,130.110,-19.927,2.344,58.999,50.012,44.151,-79.707,22.271,9.768,27.741,12.503,56.264,0.391,-0.391,16.801,26.178,17.973,27.741
'[09:22:43.734 14/03/2059]',-10.159,19.536,4.689,62.906,-39.072,125.812,-23.053,14.847,57.436,52.747,46.105,-67.985,22.271,11.722,32.821,20.317,59.389,5.470,-3.907,19.145,25.006,16.410,32.821
'[09:22:43.738 14/03/2059]',-14.847,16.410,8.205,67.595,-40.635,120.733,-23.834,22.662,55.092,55.092,47.668,-58.999,18.755,11.722,39.463,27.741,60.562,7.033,-7.424,6.252,23.443,28.523,39.463
'[09:22:43.742 14/03/2059]',-12.503,15.238,10.549,66.032,-37.900,117.216,-21.490,23.443,55.482,60.952,50.403,-55.482,21.099,12.112,48.840,28.132,64.078,1.563,-9.768,13.284,19.536,23.053,48.840
'[09:22:43.746 14/03/2059]',-8.987,11.331,8.987,68.376,-33.602,110.183,-20.708,25.788,51.575,64.860,50.794,-47.277,20.317,12.894,54.701,30.867,68.767,-1.954,-8.205,25.397,17.192,11.722,54.701
'[09:22:43.750 14/03/2059]',-6.252,6.252,7.814,69.158,-25.006,103.150,-21.099,23.053,49.231,67.985,50.794,-41.416,16.410,15.238,58.608,34.774,69.548,-3.126,-7.033,12.112,15.238,25.397,58.608
'[09:22:43.754 14/03/2059]',-0.781,2.344,9.768,66.813,-14.847,96.117,-24.225,23.053,48.840,75.018,54.701,-43.761,17.582,21.099,62.125,33.211,70.720,-9.768,-8.987,7.424,12.894,37.118,62.125
'[09:22:43.758 14/03/2059]',1.172,0.391,11.722,65.250,-9.377,87.912,-26.569,28.523,46.886,79.707,56.654,-40.244,18.755,25.397,62.906,33.993,75.018,-12.503,-10.940,24.225,10.159,27.350,62.906
'[09:22:43.762 14/03/2059]',-0.391,-4.298,11.722,68.767,-6.252,76.581,-26.178,32.039,43.761,81.661,53.138,-33.602,14.847,19.536,69.548,39.853,76.581,-10.549,-10.940,25.006,9.377,20.317,69.548
'[09:22:43.766 14/03/2059]',-5.079,-7.814,9.768,66.032,-5.861,64.860,-26.569,30.867,39.853,84.396,50.794,-34.383,11.331,16.801,71.502,38.681,73.065,-14.457,-8.987,12.503,9.768,30.085,71.502
'[09:22:43.770 14/03/2059]',-6.642,-10.549,7.814,59.780,-5.861,55.873,-32.821,33.993,34.383,85.177,49.231,-36.337,8.987,14.457,73.065,34.774,71.502,-19.145,-7.033,19.927,11.722,18.755,73.065
'[09:22:43.773 14/03/2059]',-7.814,-17.582,6.642,58.217,-7.033,47.277,-39.463,39.072,28.132,84.005,45.324,-30.476,7.033,11.722,69.158,37.118,69.548,-17.582,-5.861,27.741,14.066,7.814,69.158
'[09:22:43.777 14/03/2059]',-9.768,-26.569,7.424,55.482,-7.033,40.635,-39.072,33.602,25.006,81.661,42.979,-28.132,6.252,11.331,65.250,37.509,64.469,-17.192,-6.642,17.582,15.629,18.755,65.250
'[09:22:43.781 14/03/2059]',-3.516,-33.993,10.159,52.747,-0.391,35.556,-38.291,30.867,24.615,80.098,43.761,-27.350,7.424,16.020,60.952,35.556,62.515,-19.145,-9.377,19.145,13.675,26.569,60.952
'[09:22:43.785 14/03/2059]',-2.735,-40.635,10.549,54.701,0.391,28.132,-44.151,39.072,22.271,76.972,40.244,-18.755,7.033,16.410,57.827,38.291,62.125,-18.755,-9.768,34.383,10.940,13.675,57.827
'[09:22:43.789 14/03/2059]',-8.596,-48.059,9.768,56.264,-3.126,18.755,-51.184,45.714,19.927,72.674,35.556,-11.722,3.907,14.066,57.827,39.072,60.171,-19.927,-8.987,39.072,8.596,7.424,57.827
'[09:22:43.793 14/03/2059]',-7.424,-50.403,7.814,53.919,1.172,10.159,-50.012,42.198,19.145,68.767,32.430,-12.894,1.172,13.675,55.482,35.556,54.310,-24.615,-7.033,25.788,8.596,20.317,55.482
'[09:22:43.797 14/03/2059]',-8.987,-53.138,8.596,50.012,0.781,2.735,-47.277,40.244,16.020,63.297,30.085,-11.722,-1.563,13.675,52.747,31.648,51.966,-28.913,-7.814,36.337,5.861,13.284,52.747
'[09:22:43.801 14/03/2059]',-14.066,-57.827,7.033,52.747,-1.172,-5.470,-50.012,46.105,10.159,55.092,24.615,-3.126,-6.252,0.391,56.264,36.337,47.668,-24.225,-6.252,32.821,8.205,4.689,56.264
'[09:22:43.805 14/03/2059]',-15.629,-60.952,5.861,53.919,-1.172,-12.112,-48.840,47.668,8.596,44.933,20.317,0.000,-10.549,-6.642,55.482,36.337,41.807,-21.880,-5.079,16.801,10.940,14.066,55.482
'[09:22:43.809 14/03/2059]',-15.629,-63.297,6.642,53.138,-3.126,-15.629,-45.324,46.886,9.768,36.728,18.755,2.344,-6.252,-12.894,54.310,35.165,37.900,-21.880,-5.861,33.211,9.768,-1.172,54.310
'[09:22:43.813 14/03/2059]',-16.020,-69.158,6.642,54.701,-2.735,-23.053,-44.151,48.059,8.987,28.132,12.112,7.814,-5.079,-21.099,50.403,35.165,33.602,-19.145,-5.861,48.059,10.159,-19.145,50.403
'[09:22:43.816 14/03/2059]',-18.755,-71.502,3.907,54.310,-0.781,-32.039,-45.714,48.059,9.768,19.145,3.126,8.987,-9.377,-23.053,44.151,31.648,22.662,-19.536,-3.126,30.867,15.238,-5.079,44.151
'[09:22:43.820 14/03/2059]',-19.145,-73.455,3.126,48.840,2.735,-38.681,-48.840,45.324,15.629,12.503,-4.298,3.907,-7.814,-23.834,39.853,21.099,12.894,-28.132,-2.344,25.006,18.364,0.391,39.853
'[09:22:43.824 14/03/2059]',-21.880,-74.628,2.344,44.933,4.298,-45.714,-50.794,43.761,17.582,7.424,-13.675,3.907,-9.768,-24.225,36.337,13.675,6.252,-35.946,-1.563,37.118,19.536,-10.940,36.337
'[09:22:43.828 14/03/2059]',-30.085,-76.190,0.391,43.761,2.344,-54.310,-48.449,39.463,16.801,-1.172,-23.443,8.205,-17.973,-24.615,32.039,10.940,-3.126,-37.900,0.391,26.569,24.615,-2.344,32.039
'[09:22:43.832 14/03/2059]',-34.774,-77.363,0.391,42.198,0.781,-56.654,-44.151,31.258,20.317,-8.596,-27.350,6.642,-19.145,-23.834,30.085,4.298,-14.847,-40.244,0.391,16.410,26.178,10.159,30.085
'[09:22:43.836 14/03/2059]',-34.774,-80.879,1.563,38.681,1.563,-58.608,-48.840,30.867,24.225,-13.675,-28.132,7.424,-14.847,-20.317,26.178,-0.391,-22.271,-43.370,-0.781,33.993,23.834,3.126,26.178
'[09:22:43.840 14/03/2059]',-39.072,-83.614,0.391,36.337,1.563,-64.078,-55.873,33.602,23.443,-19.927,-30.085,11.331,-16.801,-23.834,27.741,-1.172,-30.085,-41.807,0.391,42.589,25.006,-5.861,27.741
'[09:22:43.844 14/03/2059]',-41.807,-81.270,-1.563,32.430,3.907,-66.422,-54.701,25.788,28.523,-22.662,-29.695,9.377,-13.675,-27.741,33.602,-5.470,-37.900,-40.635,2.344,30.085,27.741,0.000,33.602
'[09:22:43.848 14/03/2059]',-38.681,-77.753,-4.298,25.006,9.377,-66.032,-54.310,14.847,31.258,-21.099,-25.397,2.344,-8.987,-27.741,37.509,-12.503,-37.118,-46.105,5.079,34.383,25.397,-3.126,37.509
'[09:22:43.852 14/03/2059]',-39.072,-72.283,-7.814,21.099,11.331,-66.813,-56.654,14.066,25.788,-20.708,-20.708,1.954,-12.894,-25.397,40.635,-15.238,-32.821,-45.324,8.596,41.026,26.178,-13.675,40.635
'[09:22:43.855 14/03/2059]',-44.542,-65.641,-11.331,22.662,6.252,-63.297,-53.919,12.112,20.317,-20.708,-16.410,3.516,-17.582,-21.099,39.853,-13.675,-27.350,-39.072,12.112,28.132,27.350,-5.470,39.853
'[09:22:43.859 14/03/2059]',-41.416,-58.217,-11.722,18.364,6.252,-54.310,-45.714,0.391,16.410,-17.192,-6.252,0.000,-14.457,-14.847,41.416,-19.145,-19.927,-42.198,12.503,24.225,19.927,3.516,41.416
'[09:22:43.863 14/03/2059]',-41.416,-52.357,-10.549,17.192,2.735,-47.277,-37.900,-3.907,7.424,-13.675,1.563,0.391,-14.847,-9.768,41.416,-19.927,-9.768,-41.026,11.331,36.728,12.112,-1.954,41.416
'[09:22:43.867 14/03/2059]',-44.151,-46.496,-13.284,21.490,-1.172,-42.979,-35.556,-1.172,-1.563,-14.457,5.861,7.424,-19.927,-8.596,41.026,-14.066,-6.642,-32.821,14.066,23.053,8.596,4.689,41.026
'[09:22:43.871 14/03/2059]',-39.072,-39.853,-14.457,21.099,1.563,-38.681,-33.602,-2.344,-6.642,-12.112,12.503,5.861,-19.536,-8.596,42.198,-13.675,-5.079,-31.258,15.238,8.205,4.298,16.020,42.198
'[09:22:43.875 14/03/2059]',-35.165,-34.774,-13.284,17.192,1.954,-35.165,-28.523,-4.298,-12.894,-8.596,17.973,7.033,-17.582,-5.470,40.244,-12.112,1.172,-32.039,14.066,20.317,0.391,3.516,40.244
'[09:22:43.879 14/03/2059]',-37.118,-28.132,-14.066,18.755,-1.563,-32.821,-19.145,-5.861,-19.536,-5.470,22.662,13.284,-18.364,-4.298,40.635,-5.861,6.642,-24.225,14.847,20.708,1.172,-5.470,40.635
'[09:22:43.883 14/03/2059]',-36.728,-20.708,-11.331,17.973,-1.172,-28.523,-11.722,-8.596,-24.615,0.391,26.178,16.020,-17.582,-4.689,44.933,-1.954,11.722,-19.927,12.112,0.781,3.126,4.298,44.933
'[09:22:43.887 14/03/2059]',-33.602,-13.675,-4.689,13.284,0.391,-21.880,-7.033,-9.768,-27.741,8.205,30.085,16.020,-15.238,-2.344,48.449,-1.172,20.317,-23.053,5.470,-0.391,0.781,3.126,48.449
'[09:22:43.891 14/03/2059]',-31.648,-4.298,-0.781,11.722,0.000,-16.801,-0.781,-6.642,-32.430,12.503,31.258,24.225,-14.457,-2.735,51.184,4.298,27.741,-21.880,1.563,4.298,-1.954,-10.940,51.184
'[09:22:43.895 14/03/2059]',-29.304,2.735,3.126,13.284,3.126,-14.066,8.205,-6.642,-34.774,12.503,29.695,34.383,-16.020,-1.172,48.449,12.894,30.867,-17.582,-2.344,-9.768,-4.298,-2.344,48.449
'[09:22:43.898 14/03/2059]',-25.397,11.722,10.549,10.549,7.814,-9.377,20.317,-10.159,-33.602,14.066,29.695,38.291,-16.020,2.344,45.714,16.801,30.867,-15.629,-9.768,-23.443,-8.205,7.033,45.714
'[09:22:43.902 14/03/2059]',-25.006,21.490,19.536,7.814,7.814,-4.298,28.132,-6.252,-32.039,16.020,32.039,46.886,-10.549,4.689,45.324,23.834,33.993,-11.331,-18.755,-19.927,-11.331,-1.954,45.324
'[09:22:43.906 14/03/2059]',-24.225,30.867,26.960,9.768,9.768,0.000,34.383,-0.391,-31.648,15.629,31.648,57.827,-8.987,8.987,41.026,33.602,36.337,-2.344,-26.178,-27.350,-9.768,-1.563,41.026
'[09:22:43.910 14/03/2059]',-19.536,40.635,34.774,4.298,14.066,7.033,48.840,-10.159,-30.867,19.145,33.602,60.562,-5.470,14.457,35.165,38.681,36.728,0.781,-33.993,-49.231,-10.549,15.629,35.165
'[09:22:43.914 14/03/2059]',-14.066,51.184,42.589,-1.563,17.973,14.847,67.204,-23.053,-30.085,21.880,39.853,64.078,0.391,14.457,34.774,46.105,36.728,4.298,-41.807,-62.125,-15.238,18.364,34.774
'[09:22:43.918 14/03/2059]',-11.722,58.217,49.621,-1.954,19.145,18.364,75.018,-19.536,-33.602,23.834,40.635,71.893,1.954,15.629,32.430,52.747,40.244,10.940,-48.840,-57.827,-16.020,6.642,32.430
'[09:22:43.922 14/03/2059]',-8.987,61.343,57.436,-3.907,23.053,19.927,83.614,-21.099,-37.900,24.615,41.807,75.800,-1.563,18.364,30.476,58.217,40.244,18.364,-56.654,-73.455,-13.675,14.847,30.476
'[09:22:43.926 14/03/2059]',-2.735,64.860,67.204,-9.377,31.258,19.927,96.117,-28.913,-37.118,29.304,45.714,73.455,0.391,12.112,39.853,58.217,39.463,18.364,-66.422,-75.409,-15.629,7.814,39.853
'[09:22:43.930 14/03/2059]',0.000,66.422,73.455,-14.847,35.556,19.145,102.759,-32.821,-33.993,30.867,44.151,74.237,5.079,11.331,41.026,58.217,42.589,19.927,-72.674,-63.687,-15.238,-7.033,41.026
'[09:22:43.934 14/03/2059]',1.563,66.422,75.409,-19.536,37.900,17.582,105.495,-37.118,-29.695,32.430,39.072,74.628,6.642,12.112,36.728,60.171,41.807,22.271,-74.628,-82.442,-12.503,4.298,36.728
'[09:22:43.938 14/03/2059]',4.689,68.767,76.581,-28.132,40.635,19.927,105.495,-44.151,-25.006,37.900,37.118,73.065,12.503,11.331,36.728,61.343,39.072,20.708,-75.800,-98.852,-15.629,14.457,36.728
'[09:22:43.941 14/03/2059]',7.033,70.330,80.488,-35.556,40.635,21.099,109.011,-48.840,-23.834,42.589,32.821,76.972,18.364,8.596,37.900,63.297,41.026,18.364,-79.707,-84.396,-19.927,-3.516,37.900
'[09:22:43.945 14/03/2059]',6.642,64.860,85.177,-38.681,37.118,18.364,115.653,-52.747,-29.304,44.933,28.132,83.223,14.457,9.377,35.556,66.813,40.635,22.271,-84.396,-78.144,-21.880,-7.814,35.556
'[09:22:43.949 14/03/2059]',7.033,58.608,90.647,-42.589,40.635,12.503,116.825,-56.264,-30.476,45.714,25.006,84.786,9.768,10.159,37.118,67.204,35.556,21.490,-89.866,-87.912,-21.099,5.079,37.118
'[09:22:43.953 14/03/2059]',12.112,50.794,96.899,-51.966,47.277,5.079,112.527,-57.827,-25.006,44.933,19.927,80.879,12.112,8.205,39.072,59.780,29.304,12.894,-96.117,-75.018,-22.271,0.391,39.072
'[09:22:43.957 14/03/2059]',14.457,39.853,101.587,-57.045,52.747,-3.126,105.495,-55.092,-19.536,42.589,15.238,78.144,15.238,12.112,33.211,54.701,23.443,8.596,-100.806,-57.827,-19.927,-4.298,33.211
'[09:22:43.961 14/03/2059]',14.847,28.132,101.587,-60.171,60.171,-14.847,101.978,-61.734,-11.331,40.244,8.205,74.237,16.020,10.549,33.602,49.621,10.940,5.079,-100.806,-66.032,-16.410,7.814,33.602
'[09:22:43.965 14/03/2059]',17.973,17.582,103.541,-67.985,69.158,-26.178,100.024,-70.330,-1.954,37.118,3.516,67.204,20.708,4.689,37.118,42.198,-0.781,-0.781,-102.759,-65.641,-15.629,9.768,37.118
'[09:22:43.969 14/03/2059]',13.675,4.298,105.885,-71.111,67.595,-37.118,90.647,-67.204,0.000,33.602,-0.781,64.469,16.801,7.424,35.556,35.165,-12.112,-4.298,-105.104,-45.714,-16.020,-1.172,35.556
'[09:22:43.973 14/03/2059]',9.377,-7.424,107.057,-73.065,68.376,-50.794,82.833,-63.687,1.563,26.178,-7.814,63.297,8.987,8.205,32.039,32.821,-26.569,-3.516,-106.276,-40.635,-14.457,0.391,32.039
'[09:22:43.977 14/03/2059]',12.112,-17.973,109.792,-80.098,74.237,-62.125,82.833,-70.720,7.033,19.927,-12.894,53.138,4.298,7.424,31.258,22.271,-38.681,-13.675,-109.011,-43.370,-14.457,8.205,31.258
'[09:22:43.980 14/03/2059]',13.675,-26.178,112.527,-83.223,74.628,-68.767,78.535,-68.376,13.284,16.020,-16.801,42.198,3.126,10.940,27.350,11.331,-47.668,-24.225,-111.746,-29.695,-15.629,7.033,27.350
'[09:22:43.984 14/03/2059]',8.987,-37.509,113.309,-79.707,68.376,-77.753,71.502,-57.827,16.020,9.768,-21.490,37.118,0.391,11.331,21.490,7.424,-52.747,-25.397,-112.527,-20.708,-12.503,7.033,21.490
'[09:22:43.988 14/03/2059]',6.252,-46.886,109.402,-74.628,60.171,-83.223,66.032,-48.449,21.490,3.516,-25.006,31.648,0.391,8.987,19.536,1.172,-59.780,-28.132,-108.620,-30.085,-5.079,17.973,19.536
'[09:22:43.992 14/03/2059]',5.079,-55.482,110.574,-69.939,49.231,-85.177,64.078,-38.291,25.397,2.735,-23.834,23.834,3.907,16.020,14.847,-7.033,-60.952,-32.430,-109.792,-12.503,-3.126,19.145,14.847
'[09:22:43.996 14/03/2059]',1.954,-64.078,111.746,-63.297,36.728,-85.958,63.297,-27.741,25.006,-0.391,-23.053,21.880,3.907,17.973,11.722,-10.940,-59.780,-30.085,-110.965,10.549,1.172,9.768,11.722
'[09:22:44.000 14/03/2059]',2.735,-70.720,108.230,-55.482,28.523,-87.912,63.297,-19.927,25.397,-3.516,-26.569,20.317,1.954,12.503,13.284,-13.284,-62.906,-25.788,-107.448,3.516,7.033,17.192,13.284
'[09:22:44.004 14/03/2059]',5.861,-75.409,104.322,-53.138,21.490,-85.958,57.436,-11.722,27.741,-3.126,-27.350,14.066,4.689,11.722,12.112,-18.755,-63.687,-29.304,-103.541,2.735,9.768,24.615,12.112
'[09:22:44.008 14/03/2059]',7.424,-78.535,97.680,-51.575,10.549,-84.396,54.701,-6.252,27.741,-4.689,-28.132,11.331,9.768,9.377,7.814,-21.490,-60.952,-31.258,-96.899,22.271,8.987,9.377,7.814
'[09:22:44.012 14/03/2059]',3.516,-79.707,86.349,-47.277,-3.516,-84.005,54.701,-3.907,24.615,-7.814,-28.913,10.549,8.596,7.814,0.391,-19.536,-60.952,-26.178,-85.568,25.006,8.987,6.642,0.391
'[09:22:44.016 14/03/2059]',1.563,-76.190,75.018,-46.105,-13.284,-81.661,52.747,-2.735,24.615,-9.768,-26.569,3.907,10.549,9.377,-5.470,-23.053,-61.734,-25.006,-74.237,11.722,11.722,20.708,-5.470
'[09:22:44.020 14/03/2059]',3.126,-69.548,68.767,-50.012,-18.364,-78.535,47.277,1.954,22.271,-11.331,-24.225,-2.344,10.940,12.112,-11.331,-28.913,-60.952,-28.132,-67.985,19.927,12.112,15.629,-11.331
'[09:22:44.023 14/03/2059]',2.735,-63.687,62.906,-50.012,-19.145,-79.707,41.807,8.596,17.192,-15.629,-26.569,-4.298,6.252,10.549,-19.145,-28.132,-60.171,-28.523,-62.125,28.913,14.066,6.252,-19.145
'[09:22:44.027 14/03/2059]',3.907,-58.608,57.045,-50.794,-16.020,-80.879,42.198,5.861,18.755,-19.145,-32.039,-6.642,7.033,7.033,-25.397,-28.913,-61.734,-31.648,-56.264,16.020,17.582,17.973,-25.397
'[09:22:44.031 14/03/2059]',1.563,-53.529,52.357,-54.701,-17.973,-82.442,46.105,-0.391,21.490,-22.662,-35.556,-10.549,8.987,6.252,-32.821,-30.867,-64.469,-39.072,-51.575,13.675,18.755,20.708,-32.821
'[09:22:44.035 14/03/2059]',-6.252,-48.840,49.231,-55.092,-26.569,-81.661,42.979,3.126,23.053,-24.615,-37.509,-7.424,12.503,10.159,-44.151,-26.569,-63.687,-38.291,-48.449,26.960,18.755,13.284,-44.151
'[09:22:44.039 14/03/2059]',-12.894,-41.026,46.496,-51.575,-32.430,-77.753,42.979,7.424,24.615,-26.569,-37.509,-3.907,14.847,5.861,-42.198,-23.443,-62.906,-31.648,-45.714,26.569,21.880,5.079,-42.198
'[09:22:44.043 14/03/2059]',-10.549,-32.430,44.933,-51.575,-29.304,-73.065,48.840,2.344,28.913,-25.006,-35.165,-7.033,17.973,6.252,-39.072,-25.006,-64.860,-28.523,-44.151,8.596,26.960,15.629,-39.072
'[09:22:44.047 14/03/2059]',-5.861,-24.615,50.794,-55.873,-23.053,-67.985,49.621,4.689,30.867,-23.053,-32.430,-10.159,22.271,6.642,-37.900,-27.741,-62.125,-28.132,-50.012,17.582,26.569,6.252,-37.900
'[09:22:44.051 14/03/2059]',-2.735,-19.536,55.092,-54.310,-17.582,-64.860,46.496,13.284,26.569,-22.662,-34.383,-7.424,18.755,6.252,-38.291,-26.569,-59.389,-21.880,-54.310,12.894,32.039,6.642,-38.291
'[09:22:44.055 14/03/2059]',1.172,-14.847,60.562,-56.654,-9.377,-62.515,41.807,19.927,23.443,-21.099,-37.509,-8.987,16.801,9.377,-42.979,-29.304,-59.780,-19.927,-59.780,-5.861,38.291,23.053,-42.979
'[09:22:44.059 14/03/2059]',1.172,-9.768,70.330,-64.860,-10.549,-57.045,43.370,19.536,23.443,-16.801,-36.337,-11.722,22.662,10.940,-43.761,-33.602,-55.092,-21.099,-69.548,6.642,36.337,14.457,-43.761
'[09:22:44.063 14/03/2059]',-0.781,-5.079,78.535,-66.422,-12.503,-50.794,46.496,23.053,19.145,-12.894,-36.728,-7.814,25.788,10.940,-46.105,-30.476,-50.012,-15.629,-77.753,16.801,36.728,3.516,-46.105
'[09:22:44.066 14/03/2059]',-3.907,-0.391,85.177,-69.939,-16.801,-42.979,48.449,21.099,18.755,-7.424,-36.728,-10.549,28.523,12.894,-50.012,-28.913,-48.059,-7.424,-84.396,0.000,37.509,20.317,-50.012
'[09:22:44.070 14/03/2059]',-2.344,7.424,94.554,-77.363,-19.536,-30.085,51.966,19.145,22.662,0.000,-31.648,-15.629,36.337,13.284,-46.886,-29.695,-44.151,-3.907,-93.773,-7.814,35.165,23.834,-46.886
'[09:22:44.074 14/03/2059]',2.735,16.410,102.759,-84.005,-19.927,-14.066,54.701,17.582,21.099,3.907,-27.350,-14.847,39.072,14.457,-46.105,-26.178,-34.383,0.781,-101.978,3.907,28.523,10.549,-46.105
'[09:22:44.078 14/03/2059]',9.377,25.397,107.057,-85.568,-19.145,-0.391,61.343,14.847,17.582,5.470,-25.397,-12.112,37.118,15.629,-48.449,-19.536,-25.006,10.549,-106.276,-7.424,25.397,14.457,-48.449
'[09:22:44.082 14/03/2059]',20.317,36.728,110.574,-90.256,-15.238,14.066,69.939,8.596,19.145,8.205,-22.662,-11.722,39.463,9.768,-39.853,-17.192,-15.629,15.238,-109.792,-24.225,19.536,19.145,-39.853
'[09:22:44.086 14/03/2059]',30.867,47.277,112.918,-98.071,-14.847,30.476,69.939,7.424,23.443,8.987,-18.755,-10.940,44.542,6.252,-32.821,-15.629,-4.689,16.020,-112.137,-15.629,7.424,4.298,-32.821
'[09:22:44.090 14/03/2059]',35.165,55.482,108.230,-100.806,-20.317,39.853,65.641,12.894,19.927,7.814,-19.536,-3.907,44.151,0.391,-29.304,-9.768,1.954,20.317,-107.448,-15.629,0.391,-8.205,-29.304
'[09:22:44.094 14/03/2059]',37.509,64.078,99.243,-104.322,-28.132,50.012,68.376,5.470,19.927,7.033,-17.973,0.781,46.105,-2.344,-26.178,-6.642,1.954,24.225,-98.462,-36.337,-6.642,1.172,-26.178
'[09:22:44.098 14/03/2059]',43.370,72.674,89.866,-113.309,-33.993,64.078,66.422,-4.298,17.973,6.252,-13.284,1.954,47.668,1.172,-28.132,-7.424,1.563,22.662,-89.084,-39.853,-19.536,3.907,-28.132
'[09:22:44.102 14/03/2059]',53.138,77.753,74.237,-114.872,-36.728,72.674,54.701,0.391,11.331,3.907,-10.549,9.377,47.277,3.126,-32.430,-3.126,4.689,25.788,-73.455,-36.728,-29.695,-3.907,-32.430
'[09:22:44.105 14/03/2059]',60.562,79.316,58.608,-113.700,-40.635,77.753,48.449,-0.391,5.470,1.563,-11.331,15.629,44.933,3.516,-36.337,0.000,4.689,29.304,-57.827,-47.668,-35.165,0.781,-36.337
'[09:22:44.109 14/03/2059]',77.753,80.488,48.449,-122.295,-36.337,87.131,47.277,-12.894,5.079,0.781,-9.768,13.675,48.449,7.424,-42.589,-3.907,5.861,23.834,-47.668,-49.231,-46.496,9.377,-42.589
'[09:22:44.113 14/03/2059]',91.038,75.800,37.509,-125.031,-35.946,89.866,43.370,-17.192,3.516,-1.172,-11.722,15.629,55.092,-0.781,-41.807,-5.470,5.861,20.317,-36.728,-30.867,-54.701,-10.549,-41.807
'[09:22:44.117 14/03/2059]',94.945,65.641,23.053,-121.514,-43.370,86.349,33.211,-13.675,1.172,-6.252,-22.271,24.615,56.264,-8.987,-45.324,-3.907,0.781,19.927,-22.271,-34.383,-53.138,-14.066,-45.324
'[09:22:44.121 14/03/2059]',98.852,55.482,14.847,-125.031,-49.621,87.912,23.053,-16.020,1.172,-9.377,-27.350,23.053,60.562,-10.159,-54.310,-8.987,-5.470,14.457,-14.066,-41.026,-55.092,-1.563,-54.310
'[09:22:44.125 14/03/2059]',105.495,44.933,8.205,-129.719,-53.529,88.303,13.284,-17.192,-0.391,-10.159,-29.695,18.364,66.422,-8.596,-61.734,-16.801,-8.205,7.033,-7.424,-18.755,-60.562,-13.675,-61.734
'[09:22:44.129 14/03/2059]',107.448,35.165,0.000,-128.156,-60.171,84.396,8.987,-17.582,-3.907,-10.549,-32.821,17.582,66.032,-9.377,-65.250,-21.880,-9.768,5.470,0.781,-6.642,-61.343,-24.615,-65.250
'[09:22:44.133 14/03/2059]',114.090,30.085,-7.814,-131.282,-57.827,82.833,6.642,-25.006,-9.768,-8.987,-32.821,8.596,64.469,-6.252,-71.893,-29.304,-14.847,4.298,8.596,-19.145,-62.515,-7.424,-71.893
'[09:22:44.137 14/03/2059]',126.984,30.867,-16.801,-141.050,-50.403,83.223,-1.172,-28.523,-11.331,-7.424,-30.867,0.000,67.595,-3.907,-76.190,-37.118,-19.927,-1.563,17.582,-17.192,-68.767,-7.033,-76.190
'[09:22:44.141 14/03/2059]',132.063,32.821,-32.039,-143.394,-50.012,79.707,-8.205,-30.476,-15.238,-8.987,-32.821,-1.172,68.376,-8.596,-78.144,-40.244,-23.443,-5.079,32.821,-5.861,-72.283,-25.006,-78.144
'[09:22:44.145 14/03/2059]',134.408,35.165,-50.012,-143.785,-50.403,78.144,-14.066,-35.946,-18.364,-11.331,-36.337,-3.516,67.595,-7.424,-88.694,-41.416,-28.913,-5.470,50.794,-17.192,-74.237,-14.457,-88.694
'[09:22:44.148 14/03/2059]',141.050,41.416,-64.860,-152.772,-47.277,80.879,-22.662,-45.324,-16.801,-10.159,-35.946,-11.722,69.939,-7.033,-91.819,-47.277,-32.821,-10.940,65.641,-29.695,-81.661,-5.470,-91.819
'[09:22:44.152 14/03/2059]',141.441,46.496,-76.190,-158.632,-51.966,84.396,-33.602,-44.151,-15.629,-8.205,-37.118,-15.629,72.283,-14.847,-81.270,-54.310,-34.774,-12.112,76.972,-20.317,-89.475,-25.397,-81.270
'[09:22:44.156 14/03/2059]',140.269,51.184,-85.958,-164.103,-58.608,85.958,-42.979,-41.416,-15.238,-5.079,-40.635,-16.020,71.893,-17.192,-76.581,-57.045,-37.509,-9.768,86.740,-25.397,-92.601,-31.648,-76.581
'[09:22:44.160 14/03/2059]',148.083,58.608,-90.647,-173.480,-54.310,90.647,-43.370,-48.840,-12.894,-1.172,-41.026,-21.490,72.283,-18.755,-70.330,-62.125,-42.979,-8.987,91.429,-44.933,-100.415,-19.927,-70.330
'[09:22:44.164 14/03/2059]',153.553,66.422,-94.554,-183.639,-52.747,94.945,-39.853,-58.608,-15.238,0.781,-39.853,-25.397,70.720,-18.364,-63.687,-67.985,-48.059,-9.377,95.336,-53.529,-105.885,-17.973,-63.687
'[09:22:44.168 14/03/2059]',155.507,71.111,-96.899,-187.155,-53.919,97.680,-46.105,-53.529,-17.192,1.172,-38.681,-23.053,68.767,-14.457,-64.078,-69.158,-47.277,-6.252,97.680,-48.059,-107.839,-24.615,-64.078
'[09:22:44.172 14/03/2059]',159.023,75.018,-100.024,-188.718,-50.403,102.759,-51.575,-53.919,-16.801,1.954,-37.900,-24.615,67.204,-3.907,-69.548,-70.720,-47.668,-1.954,100.806,-61.734,-109.011,-6.642,-69.548
'[09:22:44.176 14/03/2059]',162.930,84.005,-99.634,-197.705,-45.324,108.230,-48.840,-62.515,-11.331,6.642,-32.039,-32.039,71.502,2.735,-64.860,-78.535,-48.059,-1.954,100.415,-64.078,-112.918,-1.172,-64.860
'[09:22:44.180 14/03/2059]',162.149,92.210,-97.680,-203.175,-48.059,113.700,-42.979,-67.204,-6.642,16.801,-30.476,-34.774,76.581,9.768,-59.780,-83.223,-42.979,2.344,98.462,-53.138,-116.435,-10.549,-59.780
'[09:22:44.184 14/03/2059]',162.149,100.806,-92.991,-205.128,-46.886,118.388,-37.118,-68.376,-1.954,28.132,-32.430,-37.118,77.363,20.708,-59.780,-83.223,-41.807,10.159,93.773,-73.065,-116.825,9.768,-59.780
'[09:22:44.188 14/03/2059]',168.400,114.090,-84.005,-212.161,-39.072,125.421,-25.006,-73.065,1.172,41.416,-32.039,-43.761,78.535,21.490,-47.668,-85.958,-38.291,14.457,84.786,-96.508,-116.435,21.880,-47.668
'[09:22:44.191 14/03/2059]',170.354,125.031,-71.893,-216.850,-38.291,133.626,-10.549,-75.800,1.563,52.747,-32.430,-44.933,78.535,24.225,-40.635,-86.349,-29.695,17.973,72.674,-91.038,-118.779,10.940,-40.635
'[09:22:44.195 14/03/2059]',171.526,130.891,-60.562,-214.896,-34.774,141.050,0.391,-78.144,7.033,56.654,-33.211,-44.151,79.707,26.569,-39.072,-80.879,-21.490,24.615,61.343,-95.336,-116.825,10.549,-39.072
'[09:22:44.199 14/03/2059]',175.824,134.799,-52.357,-211.380,-25.006,148.083,9.768,-84.786,13.284,60.952,-30.085,-48.059,81.270,30.085,-37.118,-78.535,-17.582,32.430,53.138,-117.998,-112.918,30.085,-37.118
'[09:22:44.203 14/03/2059]',178.559,134.799,-43.370,-210.598,-17.582,155.897,14.457,-92.210,23.053,65.641,-21.490,-56.264,87.131,36.337,-30.476,-82.442,-10.159,35.165,44.151,-115.263,-109.792,32.821,-30.476
'[09:22:44.207 14/03/2059]',176.996,130.501,-35.946,-201.612,-12.894,160.586,15.238,-91.819,31.648,71.893,-14.847,-58.217,92.991,43.370,-27.350,-78.535,-0.781,42.198,36.728,-105.885,-101.587,28.913,-27.350
'[09:22:44.211 14/03/2059]',173.871,123.858,-32.430,-186.374,-3.907,160.586,20.708,-97.680,36.337,77.753,-10.940,-59.389,92.601,48.449,-25.788,-71.893,5.470,50.012,33.211,-119.560,-91.819,47.668,-25.788
'[09:22:44.215 14/03/2059]',176.606,116.825,-27.350,-176.215,8.205,162.930,26.960,-107.839,42.589,82.442,-7.814,-62.906,92.991,53.529,-23.053,-69.158,15.238,50.012,28.132,-123.468,-82.442,58.999,-23.053
'[09:22:44.219 14/03/2059]',172.698,110.183,-21.490,-163.321,14.847,162.930,21.490,-100.415,47.277,84.396,-7.424,-60.171,91.429,55.092,-23.443,-58.999,26.569,48.449,22.271,-108.230,-75.409,48.059,-23.443
'[09:22:44.223 14/03/2059]',168.400,104.322,-15.238,-149.255,22.271,161.758,16.410,-92.991,47.668,82.051,-8.596,-55.482,85.177,53.919,-27.350,-46.105,37.509,48.840,16.020,-107.839,-67.204,50.012,-27.350
'[09:22:44.227 14/03/2059]',165.275,96.508,-8.987,-137.924,29.695,161.758,19.536,-96.899,52.747,77.753,-5.470,-54.701,83.223,53.919,-28.523,-37.509,46.105,47.277,9.768,-111.355,-62.906,61.343,-28.523
'[09:22:44.230 14/03/2059]',158.242,93.382,-4.689,-128.938,32.430,158.632,17.192,-91.429,57.827,73.846,0.000,-53.919,86.349,53.138,-28.523,-31.648,53.529,45.714,5.470,-99.243,-59.780,56.654,-28.523
'[09:22:44.234 14/03/2059]',146.520,85.568,-7.033,-109.011,31.258,148.083,9.377,-73.065,57.045,67.204,2.344,-43.761,84.396,52.747,-31.258,-21.490,58.217,54.310,7.814,-89.866,-53.138,54.310,-31.258
'[09:22:44.238 14/03/2059]',135.971,73.846,-11.331,-87.521,30.085,136.361,3.126,-58.999,57.827,59.389,5.470,-35.165,83.223,45.324,-25.788,-14.457,57.436,62.125,12.112,-92.601,-42.979,56.654,-25.788
'[09:22:44.242 14/03/2059]',128.547,63.687,-12.894,-71.111,32.039,121.905,0.781,-47.277,58.217,54.310,11.331,-29.304,87.521,42.198,-21.490,-12.503,54.701,65.641,13.675,-74.237,-35.946,46.105,-21.490
'[09:22:44.246 14/03/2059]',117.607,51.184,-14.066,-51.966,32.430,104.322,0.391,-34.774,54.701,46.496,18.755,-20.708,87.912,40.635,-21.099,-7.424,48.840,72.674,14.847,-47.668,-26.178,30.476,-21.099
'[09:22:44.250 14/03/2059]',111.746,35.556,-14.066,-31.648,39.853,85.568,-2.344,-21.490,48.840,37.118,24.225,-13.675,82.442,41.026,-23.834,-1.172,40.244,82.442,14.847,-47.668,-12.112,41.416,-23.834
'[09:22:44.254 14/03/2059]',107.839,24.225,-15.629,-15.238,51.575,67.985,-7.033,-11.722,49.231,29.695,30.867,-10.940,83.614,44.151,-26.960,-0.781,32.430,85.177,16.410,-43.761,-1.563,52.747,-26.960
'[09:22:44.258 14/03/2059]',99.243,14.457,-18.755,1.563,57.436,49.231,-11.722,0.391,45.714,20.708,37.509,-4.689,83.614,46.105,-29.304,0.000,26.569,85.958,19.536,-16.801,9.768,41.807,-29.304
'[09:22:44.262 14/03/2059]',86.349,0.781,-24.615,25.397,61.343,29.304,-15.238,12.112,38.681,14.066,39.853,4.298,78.926,46.496,-31.648,4.298,21.490,88.303,25.397,-3.516,23.834,40.244,-31.648
'[09:22:44.266 14/03/2059]',69.548,-11.331,-32.821,47.277,60.171,9.768,-18.755,21.099,37.509,8.596,42.589,10.549,78.144,46.886,-30.085,4.689,12.112,86.349,33.602,-5.470,35.946,53.138,-30.085
'[09:22:44.270 14/03/2059]',55.482,-24.615,-36.728,64.469,58.999,-5.470,-28.523,33.602,35.946,3.907,47.277,14.457,80.488,49.621,-28.132,2.344,6.252,76.972,37.509,18.364,46.105,44.542,-28.132
'[09:22:44.273 14/03/2059]',45.714,-42.198,-39.072,84.005,59.389,-22.662,-35.165,47.277,29.304,1.172,46.886,23.834,78.535,51.575,-30.476,3.516,3.516,69.548,39.853,46.105,55.873,33.602,-30.476
'[09:22:44.277 14/03/2059]',39.072,-56.654,-42.979,101.978,61.734,-37.118,-35.165,51.966,25.006,-1.563,43.370,32.821,75.800,46.105,-26.960,5.079,1.954,59.780,43.761,49.621,62.515,36.728,-26.960
'[09:22:44.281 14/03/2059]',31.258,-67.204,-41.026,112.137,60.952,-45.324,-32.430,51.575,19.927,0.000,41.807,36.337,73.065,42.198,-17.973,1.563,3.907,46.886,41.807,62.906,66.032,31.258,-17.973
'[09:22:44.285 14/03/2059]',22.271,-72.283,-39.072,121.905,57.827,-52.747,-36.337,63.297,7.033,0.391,38.681,46.496,64.469,37.509,-12.503,2.735,8.987,38.291,39.853,87.521,69.158,11.331,-12.503
'[09:22:44.289 14/03/2059]',4.298,-73.065,-36.728,133.236,46.886,-60.952,-37.509,77.753,0.000,1.563,34.383,57.827,59.389,36.337,-7.814,5.861,10.549,36.728,37.509,94.164,70.720,7.814,-7.814
'[09:22:44.293 14/03/2059]',-8.205,-71.111,-32.430,137.534,41.807,-67.595,-33.211,82.442,1.172,3.126,30.867,62.515,57.827,40.244,-4.689,4.298,7.814,32.430,33.211,85.568,72.674,21.880,-4.689
'[09:22:44.297 14/03/2059]',-17.582,-66.813,-25.006,139.878,41.026,-76.190,-25.397,90.256,-0.391,4.689,27.350,68.767,58.999,41.416,-1.563,2.735,5.079,25.788,25.788,98.852,71.111,16.801,-1.563
'[09:22:44.301 14/03/2059]',-25.788,-62.515,-23.053,149.646,40.635,-89.866,-22.662,108.620,-4.298,6.642,19.145,82.833,57.045,41.416,-1.563,7.424,3.126,26.960,23.834,99.243,74.628,14.847,-1.563
'[09:22:44.305 14/03/2059]',-33.602,-57.827,-21.880,155.507,40.635,-103.150,-17.582,120.342,-7.814,7.033,13.284,92.991,53.919,42.979,0.000,8.987,-0.391,24.615,22.662,84.786,78.144,27.350,0.000
'[09:22:44.309 14/03/2059]',-42.198,-50.794,-21.099,154.725,38.291,-114.090,-10.549,125.421,-17.192,8.596,11.722,97.680,50.794,41.807,1.172,7.033,-3.126,18.364,21.880,98.852,77.753,14.066,1.172
'[09:22:44.313 14/03/2059]',-54.701,-45.324,-23.053,156.679,31.258,-126.984,-2.735,130.110,-23.443,7.424,10.549,105.104,48.840,39.463,1.172,9.377,-4.298,19.536,23.834,113.700,75.409,-2.735,1.172
'[09:22:44.316 14/03/2059]',-67.204,-42.198,-25.397,160.977,25.397,-138.315,0.391,136.752,-26.569,3.516,10.159,105.104,45.714,39.853,-3.126,9.768,-12.894,26.960,26.178,99.243,76.972,12.112,-3.126
'[09:22:44.320 14/03/2059]',-80.879,-41.026,-23.443,157.460,17.582,-146.911,1.563,138.315,-26.178,0.000,11.722,97.289,44.933,30.085,1.954,4.689,-23.053,27.350,24.225,98.462,76.190,9.377,1.954
'[09:22:44.324 14/03/2059]',-94.554,-37.509,-21.880,156.679,9.768,-157.070,4.689,143.394,-28.913,-4.689,12.503,96.117,43.761,16.020,8.987,3.516,-31.258,28.132,22.662,115.653,74.628,-15.629,8.987
'[09:22:44.328 14/03/2059]',-104.713,-34.774,-23.834,160.586,5.079,-168.791,10.940,147.302,-34.383,-10.159,9.768,99.243,37.509,7.033,11.722,5.861,-42.589,36.728,24.615,108.620,78.144,-18.364,11.722
'[09:22:44.332 14/03/2059]',-111.355,-29.695,-25.397,157.460,4.689,-176.215,17.973,141.832,-33.993,-16.020,8.987,95.726,32.430,2.735,14.066,3.126,-55.092,35.165,26.178,94.554,78.144,-11.722,14.066
'[09:22:44.336 14/03/2059]',-113.700,-23.834,-27.350,151.600,6.252,-182.857,19.536,140.659,-33.602,-21.490,8.596,91.819,27.741,-1.563,17.582,0.781,-65.250,29.695,28.132,103.150,73.065,-26.178,17.582
'[09:22:44.340 14/03/2059]',-116.825,-19.927,-29.695,150.427,5.861,-186.374,19.927,141.441,-31.258,-28.132,7.033,91.429,21.880,-3.516,15.238,4.689,-71.502,28.913,30.476,104.322,69.158,-32.039,15.238
'[09:22:44.344 14/03/2059]',-122.295,-15.238,-30.867,144.567,4.298,-185.983,28.132,127.375,-26.178,-35.165,5.861,82.051,15.629,-1.954,7.814,4.689,-77.753,23.834,31.648,83.614,68.376,-14.847,7.814
'[09:22:44.348 14/03/2059]',-128.156,-10.940,-28.913,135.580,3.516,-185.201,35.946,109.792,-23.443,-39.853,7.033,69.548,7.424,-6.252,7.814,2.735,-82.051,15.629,29.695,79.316,62.125,-12.894,7.814
'[09:22:44.352 14/03/2059]',-141.050,-9.377,-26.178,128.547,-5.079,-184.811,32.821,106.667,-24.225,-45.714,8.205,62.906,0.391,-12.503,8.596,4.689,-80.098,13.284,26.960,82.442,59.389,-25.788,8.596
'[09:22:44.355 14/03/2059]',-148.474,-8.596,-25.788,123.858,-10.159,-183.248,33.993,97.680,-23.834,-50.403,9.768,56.264,-8.596,-13.284,9.768,3.907,-76.190,13.284,26.569,67.985,57.436,-20.317,9.768
'[09:22:44.359 14/03/2059]',-146.129,-7.033,-23.053,110.965,-5.079,-178.559,36.728,80.098,-21.490,-50.794,17.192,41.416,-15.238,-21.490,25.006,-1.172,-73.846,6.252,23.834,57.827,48.059,-24.225,25.006
'[09:22:44.363 14/03/2059]',-141.832,-4.689,-20.317,100.806,-2.735,-169.963,37.900,66.422,-19.145,-51.575,27.350,31.258,-19.145,-28.523,39.463,-2.735,-64.860,3.516,21.099,64.078,37.118,-41.807,39.463
'[09:22:44.367 14/03/2059]',-138.706,0.000,-19.927,95.336,-2.344,-158.632,35.556,59.389,-20.708,-51.966,33.211,28.523,-28.523,-28.132,44.933,1.563,-56.264,8.596,20.708,46.496,32.430,-37.900,44.933
'[09:22:44.371 14/03/2059]',-132.063,5.470,-16.801,85.958,1.563,-143.785,32.821,49.621,-21.490,-49.621,41.416,19.536,-36.728,-25.788,48.449,3.516,-49.621,11.331,17.582,24.225,27.350,-23.834,48.449
