'Time and date','FP1-F7','F7-T7','T7-P7','P7-O1','FP1-F3','F3-C3','C3-P3','P3-O1','FP2-F4','F4-C4','C4-P4','P4-O2','FP2-F8','F8-T8','T8-P8','P8-O2','FZ-CZ','CZ-PZ','P7-T7','T7-FT9','FT9-FT10','FT10-T8','T8-P8'
'hh:mm:ss.mmm dd/mm/yyyy','uV','uV','uV','uV','uV','uV','uV','uV','uV','uV','uV','uV','uV','uV','uV','uV','uV','uV','uV','uV','uV','uV','uV'
'[10:02:37.000 08/07/2079]',163.321,-185.592,-1.954,25.006,9.768,-8.205,3.516,-4.298,-19.145,-14.457,6.252,-19.145,82.442,-85.568,-17.582,-25.788,-31.648,5.470,2.735,8.596,42.589,-8.596,-17.582
'[10:02:37.004 08/07/2079]',0.391,0.391,0.391,0.391,0.391,0.391,0.391,0.391,0.391,0.391,0.391,0.391,0.391,0.391,0.391,0.391,0.391,0.391,0.391,0.391,0.391,0.391,0.391
'[10:02:37.008 08/07/2079]',0.781,0.000,0.391,0.391,0.391,0.391,0.391,0.391,0.391,0.391,0.391,0.391,0.781,0.000,0.391,0.391,0.391,0.391,0.391,0.391,0.391,0.391,0.391
'[10:02:37.012 08/07/2079]',3.516,-2.735,0.781,1.172,0.781,1.172,0.391,0.000,0.391,0.391,0.391,0.391,3.126,-1.954,0.391,0.391,0.391,0.781,0.000,0.391,0.391,0.391,0.391
'[10:02:37.016 08/07/2079]',-1.954,1.954,0.000,0.391,0.000,-0.391,-0.391,1.563,0.391,0.391,0.000,0.391,-1.172,1.172,0.000,0.391,0.391,0.000,0.781,0.000,0.391,0.391,0.000
'[10:02:37.020 08/07/2079]',-14.847,16.020,-1.172,-3.516,-1.954,-3.907,-0.391,2.735,0.000,0.000,-0.391,0.000,-12.503,12.112,0.000,-0.781,0.781,-1.563,1.954,0.391,0.391,0.391,0.000
'[10:02:37.023 08/07/2079]',-7.033,8.987,0.391,-2.735,0.000,-0.391,1.172,-0.781,1.172,0.391,0.781,0.391,-6.252,8.205,0.781,0.391,0.391,-0.391,0.391,1.954,-0.391,-0.781,0.781
'[10:02:37.027 08/07/2079]',20.708,-20.708,2.735,5.079,4.298,6.252,1.563,-4.689,1.172,0.391,1.954,1.563,16.410,-14.457,0.391,2.735,-0.781,2.735,-1.954,1.563,0.391,-0.781,0.391
'[10:02:37.031 08/07/2079]',16.020,-17.192,1.172,5.470,2.735,2.735,-0.781,0.391,-1.172,-0.391,0.000,0.781,11.722,-14.066,-0.391,1.172,-0.391,1.563,-0.391,-2.344,2.344,1.563,-0.391
'[10:02:37.035 08/07/2079]',-26.178,28.132,-2.344,-7.033,-4.689,-7.033,-2.344,6.642,-0.781,0.000,-2.344,-0.781,-21.099,19.145,0.391,-3.516,1.954,-3.516,3.126,-1.954,0.391,1.563,0.391
'[10:02:37.039 08/07/2079]',-51.575,52.357,-3.516,-12.112,-7.814,-10.159,-4.298,7.424,1.954,-0.781,-2.344,0.781,-39.853,40.635,-0.781,-0.781,1.954,-5.861,4.298,3.126,-1.563,-1.954,-0.781
'[10:02:37.043 08/07/2079]',-87.912,86.349,-10.940,-19.927,-11.722,-26.178,-7.814,13.284,-3.126,-7.814,-6.642,4.298,-78.535,70.720,-7.424,1.172,0.781,-13.675,11.722,1.172,-0.391,-3.516,-7.424
'[10:02:37.047 08/07/2079]',-99.634,111.355,-9.768,-34.774,-7.814,-29.304,3.907,0.000,-1.954,-7.033,-1.954,-2.344,-98.071,90.256,-0.391,-5.861,0.391,-16.801,10.549,4.298,-5.079,-8.205,-0.391
'[10:02:37.051 08/07/2079]',-61.734,61.343,-1.954,-19.145,2.344,-8.596,-11.722,-3.126,4.689,-12.503,-5.079,8.205,-62.125,55.482,-7.033,8.205,-2.735,-16.020,2.735,12.112,0.000,-15.238,-7.033
'[10:02:37.055 08/07/2079]',-38.291,36.728,0.391,-17.192,4.689,-7.424,-8.987,-7.033,-4.298,-18.755,-4.298,6.252,-51.184,29.304,-6.642,6.252,-7.033,-12.112,0.391,0.391,4.689,-14.847,-6.642
'[10:02:37.059 08/07/2079]',-63.687,67.204,2.344,-26.178,0.000,-7.033,-5.079,-7.033,-2.735,-13.675,-1.954,2.344,-72.674,46.105,8.205,0.391,-2.735,-10.940,-1.563,-3.516,0.391,-16.020,8.205
'[10:02:37.063 08/07/2079]',-87.131,89.084,5.470,-31.258,-8.205,-4.689,-5.470,-4.298,2.735,-11.722,-0.391,6.642,-85.177,65.641,9.768,5.861,1.563,-10.940,-4.689,3.516,-8.205,-16.801,9.768
'[10:02:37.066 08/07/2079]',-70.330,76.581,7.424,-24.225,-7.033,-5.861,5.470,-2.344,-2.344,-12.112,6.252,10.549,-80.098,62.125,2.735,16.410,2.344,-4.298,-6.642,-0.391,-15.238,-10.159,2.735
'[10:02:37.070 08/07/2079]',-48.449,71.893,10.549,-21.490,0.391,1.563,18.364,-7.814,-5.470,-5.079,13.675,-0.391,-75.800,64.860,3.907,8.596,10.159,-0.391,-9.768,-7.814,-15.238,-4.298,3.907
'[10:02:37.074 08/07/2079]',-59.780,76.972,12.894,-16.801,2.344,5.079,3.126,0.781,8.205,-5.470,8.205,0.391,-66.032,58.999,4.689,12.503,16.801,-7.424,-12.112,-4.689,-16.410,-2.735,4.689
'[10:02:37.078 08/07/2079]',-64.860,82.442,5.861,-15.629,2.735,3.907,-11.722,12.503,5.079,-14.066,3.907,7.033,-70.720,64.860,-15.629,22.662,16.020,-13.284,-5.079,-4.689,-9.768,-3.516,-15.629
'[10:02:37.082 08/07/2079]',-61.734,81.661,3.907,-18.755,7.033,-3.907,2.735,-0.781,11.722,-5.079,8.596,-7.033,-62.125,44.151,17.192,7.814,16.020,-5.861,-3.126,-14.066,-6.642,-17.582,17.192
'[10:02:37.086 08/07/2079]',-58.999,68.376,6.252,-14.066,3.126,-10.549,12.112,-3.516,10.159,-3.126,13.284,7.424,-64.078,37.900,27.741,25.788,13.675,-2.344,-5.470,-7.814,-21.490,-12.894,27.741
'[10:02:37.090 08/07/2079]',-46.105,73.065,4.689,-17.582,11.331,-11.331,12.112,1.563,10.549,1.172,13.284,6.252,-57.827,46.105,21.880,21.490,14.457,-1.563,-3.907,-7.033,-23.053,-6.252,21.880
'[10:02:37.094 08/07/2079]',-49.621,73.065,8.987,-12.503,5.470,-21.880,26.569,8.987,-0.781,3.907,19.927,0.391,-75.800,49.621,29.695,18.755,12.112,0.391,-8.205,-8.987,-27.350,-8.205,29.695
'[10:02:37.098 08/07/2079]',-50.403,74.628,16.020,-25.397,12.112,3.516,9.377,-10.940,9.768,8.205,17.582,-7.814,-71.111,62.515,26.569,9.377,19.927,-0.781,-15.238,-5.079,-22.662,-2.735,26.569
'[10:02:37.102 08/07/2079]',-48.449,64.078,9.377,-13.284,8.205,6.642,-5.470,2.344,9.768,3.126,10.940,1.954,-64.860,48.840,22.271,19.536,17.192,-12.112,-8.596,-1.954,-29.304,-4.689,22.271
'[10:02:37.105 08/07/2079]',-32.039,47.668,4.298,-18.755,10.940,2.735,-8.205,-3.907,5.861,0.391,11.722,-1.954,-60.171,34.774,25.397,16.020,16.801,-14.457,-3.516,-4.689,-26.569,-10.940,25.397
'[10:02:37.109 08/07/2079]',-37.509,48.840,0.391,-23.053,8.596,2.344,-6.642,-15.629,8.596,2.735,16.410,3.516,-63.687,44.542,28.523,22.271,19.927,-12.112,0.391,-9.768,-30.867,-1.563,28.523
'[10:02:37.113 08/07/2079]',-30.867,60.171,3.907,-10.549,15.238,2.735,4.689,0.000,11.331,7.424,22.271,13.284,-66.813,54.310,32.430,35.946,25.397,-10.549,-3.126,-11.722,-41.807,3.907,32.430
'[10:02:37.117 08/07/2079]',-4.689,41.026,5.079,-6.252,19.145,7.424,7.814,0.000,5.079,7.033,24.225,6.252,-49.231,37.900,25.788,28.523,26.178,-10.549,-4.298,-7.814,-33.993,-2.344,25.788
'[10:02:37.121 08/07/2079]',-3.516,39.463,2.735,-6.642,21.880,12.894,1.563,-5.470,0.781,7.424,19.145,-1.172,-48.059,33.993,19.145,21.490,26.960,-8.596,-1.954,-7.814,-29.695,-1.563,19.145
'[10:02:37.125 08/07/2079]',-23.443,55.092,1.954,-5.470,19.927,10.940,-1.954,-1.954,5.079,9.377,17.582,-5.079,-57.045,39.853,30.085,14.457,27.350,-12.503,-1.172,-12.503,-31.258,-4.689,30.085
'[10:02:37.129 08/07/2079]',-38.291,68.376,-6.252,-19.145,13.675,1.954,-7.424,-3.516,0.391,3.126,14.457,-8.596,-62.125,39.072,25.788,6.252,19.536,-16.020,7.033,-5.861,-31.648,-10.940,25.788
'[10:02:37.133 08/07/2079]',-21.490,53.138,-9.377,-17.192,12.112,3.907,-2.735,-9.768,0.000,4.689,19.927,-1.172,-55.482,33.211,32.821,12.503,19.927,-7.033,10.159,-7.424,-40.244,-10.549,32.821
'[10:02:37.137 08/07/2079]',-0.391,36.728,-10.159,-14.457,18.364,1.563,7.424,-17.192,11.722,7.033,26.178,0.000,-39.463,31.648,39.072,13.284,20.708,-2.735,10.940,-17.973,-39.853,-2.735,39.072
'[10:02:37.141 08/07/2079]',-14.066,59.389,-8.205,-10.549,14.847,0.781,12.503,-3.126,10.159,7.033,23.834,10.549,-41.026,33.211,39.853,21.099,26.178,-5.470,8.987,-15.238,-34.774,-5.861,39.853
'[10:02:37.145 08/07/2079]',-14.847,64.860,-1.172,-22.271,8.596,26.569,-3.907,-7.033,14.457,8.596,23.053,0.781,-43.370,44.151,39.072,8.596,32.821,-8.596,1.954,-5.470,-38.291,-6.642,39.072
'[10:02:37.148 08/07/2079]',-36.337,72.674,-0.391,-5.470,20.317,9.768,-3.516,2.344,9.377,3.126,15.238,15.238,-51.966,41.416,29.304,25.397,26.960,-11.722,1.172,-16.410,-21.880,-7.033,29.304
'[10:02:37.152 08/07/2079]',-30.476,67.595,0.391,-12.503,18.755,5.861,3.126,-4.689,5.470,0.000,13.284,11.722,-50.403,33.602,27.741,19.536,19.927,-13.284,0.391,-15.238,-20.317,-8.596,27.741
'[10:02:37.156 08/07/2079]',-22.271,58.217,8.205,-16.410,16.410,10.159,0.391,-0.391,4.298,-3.126,16.020,8.596,-46.496,31.648,25.397,15.238,18.364,-10.940,-7.424,-7.033,-24.615,-10.159,25.397
'[10:02:37.160 08/07/2079]',-28.132,55.092,2.735,-5.079,15.238,2.735,-1.172,7.033,6.252,-3.516,8.596,12.503,-50.012,32.821,19.927,20.708,13.284,-10.940,-1.954,-17.973,-19.145,-7.033,19.927
'[10:02:37.164 08/07/2079]',-35.165,53.138,1.563,2.735,5.079,-4.298,12.112,8.596,7.424,-4.298,10.940,24.225,-46.886,33.602,22.662,28.523,8.596,-6.642,-0.781,-19.145,-10.940,-6.642,22.662
'[10:02:37.168 08/07/2079]',-26.569,53.529,7.033,-1.172,2.735,-2.735,21.099,10.549,7.814,-0.781,14.457,21.880,-40.635,32.821,28.523,23.443,9.768,-5.079,-6.252,-10.159,-13.675,-9.377,28.523
'[10:02:37.172 08/07/2079]',-21.880,51.966,2.344,4.689,8.205,-3.126,16.410,15.238,7.814,-0.391,10.940,21.880,-30.085,28.913,19.927,22.271,8.987,-4.689,-1.563,-21.099,-3.126,-2.344,19.927
'[10:02:37.176 08/07/2079]',-49.621,51.575,-5.861,25.788,-7.424,-27.350,18.755,37.509,-7.033,-10.940,0.781,42.979,-47.277,25.788,5.861,39.853,-0.391,-8.205,6.642,-21.490,1.954,-1.172,5.861
'[10:02:37.180 08/07/2079]',-37.900,71.893,7.033,-19.927,5.470,-24.615,41.416,-0.391,3.907,2.735,11.722,-0.781,-46.886,50.012,19.927,-3.907,6.642,-1.172,-6.252,-14.066,1.172,0.781,19.927
'[10:02:37.184 08/07/2079]',-36.728,48.449,6.642,4.689,3.516,1.172,0.781,17.192,2.344,-1.954,1.172,7.424,-39.072,30.476,10.940,6.252,7.033,-6.642,-5.861,-5.079,-4.298,2.735,10.940
'[10:02:37.188 08/07/2079]',-27.741,25.397,5.861,8.205,-0.391,-2.735,5.079,10.549,3.907,-5.861,2.735,11.722,-27.350,14.847,13.675,10.940,3.907,-7.424,-5.079,-8.987,4.689,-2.344,13.675
'[10:02:37.191 08/07/2079]',-26.178,38.291,7.033,-3.516,8.205,-7.424,11.722,1.954,11.722,1.954,8.596,3.516,-34.383,21.490,36.728,1.954,7.033,-8.205,-6.252,-10.159,6.642,-10.159,36.728
'[10:02:37.195 08/07/2079]',-35.165,46.496,10.549,-6.252,10.549,10.940,-12.894,5.861,15.238,-2.344,7.814,2.344,-33.602,23.834,30.476,2.735,8.987,-14.457,-9.768,-0.391,2.735,-13.284,30.476
'[10:02:37.199 08/07/2079]',-27.350,35.946,6.642,-0.391,12.894,1.563,-4.298,4.298,7.424,0.000,0.781,7.424,-33.602,14.457,26.178,8.987,5.079,-12.503,-5.861,-6.642,6.252,-12.503,26.178
'[10:02:37.203 08/07/2079]',-19.536,32.430,6.252,-5.861,13.675,-2.735,8.205,-6.252,10.159,5.079,1.563,-0.391,-23.443,15.238,24.225,0.781,3.516,-8.987,-5.470,-12.112,5.079,-4.689,24.225
'[10:02:37.207 08/07/2079]',-25.397,42.589,5.861,-8.596,7.814,6.252,-1.172,1.563,3.126,4.689,1.563,1.563,-31.258,22.662,18.364,1.172,5.861,-7.033,-5.079,-4.689,-4.689,-2.344,18.364
'[10:02:37.211 08/07/2079]',-29.304,46.105,4.689,-3.516,4.689,7.033,-5.861,11.722,-1.563,5.861,3.907,15.629,-35.556,21.490,29.304,7.814,7.814,-5.079,-3.907,-6.252,-7.424,-1.954,29.304
'[10:02:37.215 08/07/2079]',-32.430,47.668,0.781,-7.814,-1.172,1.172,4.298,3.516,-0.781,3.907,8.205,18.364,-35.165,23.053,30.085,11.331,3.907,-2.344,0.000,-10.940,-7.424,-2.344,30.085
'[10:02:37.219 08/07/2079]',-14.847,42.979,4.298,-13.284,9.377,10.159,2.735,-4.689,4.689,7.424,14.066,10.549,-25.397,17.192,41.807,3.907,7.033,-1.563,-3.516,-8.987,-13.675,-7.424,41.807
'[10:02:37.223 08/07/2079]',-3.516,29.695,10.549,-4.298,10.549,12.112,-0.391,8.596,2.735,9.377,15.238,15.238,-19.536,14.457,35.556,13.284,10.549,0.000,-9.768,-7.814,-14.066,-3.907,35.556
'[10:02:37.227 08/07/2079]',-18.755,39.463,5.470,-2.344,5.079,6.252,0.000,12.112,0.391,8.205,13.675,16.410,-28.523,23.834,28.523,15.629,9.768,0.391,-4.689,-12.112,-8.987,-2.344,28.523
'[10:02:37.230 08/07/2079]',-18.755,41.416,2.344,-9.768,5.470,8.205,2.344,-2.344,3.907,6.642,14.457,3.516,-23.443,24.225,25.397,3.516,9.768,-0.781,-1.563,-9.768,-14.066,-0.781,25.397
'[10:02:37.234 08/07/2079]',-7.424,33.211,11.722,3.126,6.252,13.675,8.205,10.549,-8.205,5.079,22.662,18.364,-25.788,17.582,28.132,17.973,12.503,5.470,-10.940,-5.079,-13.675,-2.344,28.132
'[10:02:37.238 08/07/2079]',-9.377,32.039,4.298,3.516,1.172,10.159,10.940,7.424,-8.205,4.298,18.755,17.973,-20.317,7.424,26.569,18.755,12.894,7.424,-3.516,-6.642,-21.099,-3.126,26.569
'[10:02:37.242 08/07/2079]',-13.284,48.059,2.735,-8.987,4.689,10.940,15.238,-4.298,-8.596,8.596,17.973,8.596,-31.648,15.629,33.211,8.987,16.410,9.768,-1.954,-11.331,-28.913,-0.391,33.211
'[10:02:37.246 08/07/2079]',-24.615,62.515,5.861,-10.940,-3.907,14.847,17.192,2.735,-3.907,10.159,22.662,17.192,-38.681,27.741,37.900,19.536,19.927,14.457,-5.079,-8.205,-35.946,-3.516,37.900
'[10:02:37.250 08/07/2079]',0.391,47.668,5.079,-5.079,2.344,15.238,19.536,10.549,0.391,11.722,24.615,18.755,-23.834,22.271,35.556,21.880,21.880,20.708,-4.298,-8.205,-37.509,-5.470,35.556
'[10:02:37.254 08/07/2079]',12.112,26.569,3.516,-8.596,2.735,27.741,5.079,-1.954,6.252,10.159,17.582,7.424,-9.377,13.284,28.132,10.940,20.317,18.755,-2.735,-7.033,-34.774,-0.391,28.132
'[10:02:37.258 08/07/2079]',-8.987,37.118,2.344,-13.284,1.954,23.443,-6.252,-2.735,3.126,4.689,15.629,3.516,-21.880,19.927,25.788,5.079,15.238,7.814,-1.563,-1.172,-34.774,0.391,25.788
'[10:02:37.262 08/07/2079]',-10.159,39.853,0.391,-9.768,3.907,10.549,-5.861,10.549,0.391,3.126,10.549,1.172,-26.960,25.397,15.238,3.126,12.112,3.126,0.391,2.344,-29.695,-2.344,15.238
'[10:02:37.266 08/07/2079]',-14.066,29.304,-3.907,-9.768,3.126,0.781,-5.079,0.781,-3.907,5.079,5.470,-9.377,-24.225,17.582,14.457,-9.768,8.596,3.126,4.689,0.391,-29.304,4.298,14.457
'[10:02:37.270 08/07/2079]',-14.457,27.741,-3.126,-5.079,5.470,-3.907,6.252,-3.516,-4.689,5.470,9.377,-1.563,-19.927,12.894,15.238,0.000,7.424,6.642,3.907,-3.516,-22.271,6.252,15.238
'[10:02:37.273 08/07/2079]',-8.596,31.648,1.172,-2.735,3.126,-9.377,16.410,10.549,-1.172,7.424,15.629,0.391,-16.020,15.238,24.225,0.391,8.205,10.159,-0.391,-2.735,-22.271,1.954,24.225
'[10:02:37.277 08/07/2079]',-18.364,25.006,3.516,11.331,4.689,5.079,-10.940,23.443,3.516,5.470,8.987,18.755,-18.755,10.159,26.960,18.755,13.675,11.331,-2.735,6.642,-23.834,-1.954,26.960
'[10:02:37.281 08/07/2079]',-32.039,30.867,6.642,5.079,1.563,1.172,-4.298,12.112,1.954,0.781,7.033,19.145,-30.476,20.317,19.536,19.536,7.424,7.033,-5.861,3.907,-24.615,5.470,19.536
'[10:02:37.285 08/07/2079]',-15.629,21.880,3.126,-2.344,5.861,-2.735,-2.735,6.642,3.126,-2.344,-0.781,10.549,-22.662,18.755,6.252,8.596,1.172,0.391,-2.344,8.596,-21.880,3.907,6.252
'[10:02:37.289 08/07/2079]',-23.834,19.927,-0.391,-3.907,0.781,-7.814,-9.768,8.205,1.563,-5.470,-9.768,10.940,-18.755,9.377,-0.391,7.033,-1.172,-5.079,1.172,11.722,-17.582,-1.172,-0.391
'[10:02:37.293 08/07/2079]',-35.165,28.913,-1.954,-2.735,-2.735,-23.443,6.642,7.814,0.781,-5.079,-9.768,6.252,-23.443,19.927,-4.298,0.781,-6.642,-2.344,2.735,-0.781,-12.503,7.814,-4.298
'[10:02:37.297 08/07/2079]',-35.165,32.430,1.954,-16.801,-3.126,-10.940,3.907,-6.252,-3.126,-7.033,-7.424,-0.781,-26.178,30.867,-15.629,-7.424,-12.112,-4.689,-1.172,3.907,0.781,4.689,-15.629
'[10:02:37.301 08/07/2079]',-35.165,25.006,6.252,-0.781,-3.516,-3.907,-4.689,7.814,-3.126,-2.344,-3.907,12.894,-23.834,0.391,17.192,9.768,-9.377,0.000,-5.470,9.768,-12.894,-12.894,17.192
'[10:02:37.305 08/07/2079]',-26.960,13.284,7.424,6.642,-3.126,-5.861,-3.126,12.894,-2.344,-3.126,-3.516,17.973,-17.582,-2.735,13.284,14.457,-11.331,3.126,-6.642,1.172,-8.205,-7.033,13.284
'[10:02:37.309 08/07/2079]',-30.476,24.225,2.344,-1.172,0.391,-5.079,-3.126,3.126,-8.596,-3.516,-3.907,12.894,-38.291,17.582,7.033,8.205,-10.940,0.000,-1.563,-1.954,-5.861,0.781,7.033
'[10:02:37.313 08/07/2079]',-39.853,38.291,3.126,-0.781,-1.954,-6.252,-2.344,12.112,0.391,0.391,-8.596,10.549,-34.774,16.801,14.457,5.861,-7.424,-2.344,-2.344,0.000,-7.033,-5.079,14.457
'[10:02:37.316 08/07/2079]',-30.867,23.053,0.000,2.344,-8.596,-8.987,2.344,9.377,1.954,3.126,-8.987,6.642,-19.145,9.768,10.159,0.781,-8.987,0.781,0.781,-1.563,-0.781,-4.298,10.159
'[10:02:37.320 08/07/2079]',-8.596,8.987,0.391,1.954,1.172,-4.689,5.861,0.391,0.000,5.079,-3.516,3.126,-12.894,10.549,5.861,0.391,-7.424,4.298,0.391,-6.252,0.391,5.079,5.861
'[10:02:37.324 08/07/2079]',-14.847,13.284,2.344,-4.689,-5.470,1.563,-2.344,3.126,0.391,6.252,0.391,-2.344,-16.020,16.410,9.768,-5.470,-4.298,1.172,-1.563,-0.391,-2.344,-0.391,9.768
'[10:02:37.328 08/07/2079]',-23.834,20.708,-0.391,-3.516,-10.549,0.391,-7.033,10.159,0.781,7.033,3.516,5.470,-17.582,22.271,12.894,0.000,-1.172,2.344,1.172,3.907,-5.079,-1.172,12.894
'[10:02:37.332 08/07/2079]',-12.112,21.099,-1.563,-2.735,-1.563,-7.424,8.987,3.907,-4.689,4.298,7.814,7.814,-21.880,22.662,10.159,4.689,-0.781,7.424,2.344,-4.689,-5.079,2.735,10.159
'[10:02:37.336 08/07/2079]',4.689,16.410,0.391,-8.205,3.907,-3.907,21.880,-7.424,-2.344,8.596,10.159,-1.172,-13.284,23.834,8.987,-3.907,0.391,11.331,0.391,-8.596,1.172,1.954,8.987
'[10:02:37.340 08/07/2079]',5.470,19.145,1.563,-0.391,3.516,0.000,20.708,1.172,2.735,8.596,5.861,12.112,-2.344,10.549,13.675,8.205,1.563,14.066,-0.781,-4.298,3.907,-4.298,13.675
'[10:02:37.344 08/07/2079]',-2.344,30.476,1.563,-0.391,0.781,-14.847,39.463,3.126,-1.954,8.596,10.159,0.781,-7.424,12.894,14.847,-1.954,0.000,17.582,-0.781,-10.549,8.987,-5.079,14.847
'[10:02:37.348 08/07/2079]',-1.563,25.006,5.079,-3.907,3.907,16.020,10.940,-6.642,3.907,7.033,8.205,-7.814,-1.172,9.768,11.331,-7.424,6.252,16.801,-4.298,-6.642,15.629,-12.503,11.331
'[10:02:37.352 08/07/2079]',-3.516,12.112,1.954,7.814,-5.079,18.755,3.907,1.172,-0.781,6.642,4.689,-0.781,5.861,0.781,4.298,-0.781,3.907,12.112,-1.172,-1.563,9.377,-5.861,4.298
'[10:02:37.355 08/07/2079]',-13.284,15.629,1.954,11.722,-10.549,12.112,-0.781,16.020,-0.391,5.861,6.642,-0.781,5.861,0.781,5.861,-0.781,4.298,12.112,-1.172,-1.563,1.172,-7.033,5.861
'[10:02:37.359 08/07/2079]',-14.066,26.178,-4.689,2.735,-4.689,10.940,-5.861,9.768,-1.563,6.252,5.861,8.596,-5.861,14.847,1.954,8.596,6.642,12.894,5.470,-10.940,-1.563,-0.391,1.954
'[10:02:37.363 08/07/2079]',-9.377,32.039,-13.675,1.954,-4.689,4.298,0.781,9.768,-4.298,3.126,5.079,19.927,-17.582,22.662,2.344,16.410,5.861,9.768,14.457,-5.861,-11.331,-2.344,2.344
'[10:02:37.367 08/07/2079]',5.079,25.397,-16.020,-1.172,-2.735,1.172,6.252,7.033,0.391,1.172,7.424,24.615,-1.172,12.112,5.470,18.755,5.861,12.894,16.801,1.172,-16.410,-8.596,5.470
'[10:02:37.371 08/07/2079]',20.708,16.801,-10.549,-3.516,2.344,7.814,10.940,1.563,-14.066,0.000,8.596,20.708,-5.470,5.470,-1.954,18.364,8.205,15.629,11.331,-11.331,-8.987,-3.907,-1.954
'[10:02:37.375 08/07/2079]',11.331,20.708,-7.814,-8.596,-4.689,12.112,12.503,-5.079,-12.503,0.391,5.861,8.205,-8.987,5.079,1.172,4.689,10.159,14.457,8.596,-3.516,-10.940,-5.470,1.172
'[10:02:37.379 08/07/2079]',-25.788,40.244,2.735,-9.377,-8.205,11.331,0.391,4.689,-8.987,1.172,3.516,4.689,-14.457,9.768,0.781,4.689,10.549,9.377,-1.954,0.000,-6.252,-7.814,0.781
'[10:02:37.383 08/07/2079]',-12.503,28.132,0.781,-12.112,-2.344,4.298,4.298,-1.954,-5.861,1.172,1.563,-1.954,-1.172,-1.954,-2.344,1.954,8.987,10.159,0.000,-4.298,-7.424,-8.987,-2.344
'[10:02:37.387 08/07/2079]',3.516,8.987,-2.735,-1.954,2.735,1.563,6.252,-3.907,-6.642,0.391,1.563,1.954,1.563,-11.331,0.391,7.033,5.470,9.377,3.516,-7.424,-8.596,-5.079,0.391
'[10:02:37.391 08/07/2079]',1.954,14.066,-5.470,-6.252,5.079,0.391,-1.563,0.000,1.563,-0.391,-0.391,1.172,2.735,0.391,-2.344,2.344,5.079,0.781,6.252,-1.954,-10.159,-5.470,-2.344
'[10:02:37.395 08/07/2079]',9.768,19.536,-8.987,-13.284,9.768,-6.642,-0.391,3.126,6.642,1.563,-3.126,1.172,3.516,9.377,-5.079,0.000,6.642,-1.172,9.768,-2.344,-14.066,-1.563,-5.079
'[10:02:37.398 08/07/2079]',10.549,9.377,-3.907,-6.252,10.940,6.642,-6.252,-2.344,-4.298,0.781,-1.954,-1.954,-13.675,14.457,-3.516,-2.735,5.861,-0.781,4.689,-4.298,-11.331,2.735,-3.516
'[10:02:37.402 08/07/2079]',14.066,0.781,-5.079,-4.298,13.284,7.424,-9.377,-6.252,0.781,5.470,-7.033,-2.344,-8.596,13.284,-2.735,-4.298,6.642,-5.861,5.861,-4.298,-6.642,4.689,-2.735
'[10:02:37.406 08/07/2079]',16.020,-3.126,-7.424,-4.689,10.549,6.642,-16.801,0.391,10.159,8.987,-12.503,-4.689,4.689,7.424,-2.735,-6.642,7.814,-8.987,8.205,-0.391,-13.675,2.735,-2.735
'[10:02:37.410 08/07/2079]',5.079,3.126,-7.814,7.033,8.596,5.079,-17.192,10.159,3.516,10.549,-12.894,1.954,-7.033,10.940,-0.391,1.954,7.424,-7.424,8.596,-6.252,-11.331,5.470,-0.391
'[10:02:37.414 08/07/2079]',5.861,10.159,-11.331,2.735,12.112,2.344,-9.768,1.954,6.642,14.847,-10.940,-0.391,-8.987,16.020,3.907,0.391,7.424,-8.205,12.112,-8.205,-14.457,4.298,3.907
'[10:02:37.418 08/07/2079]',12.112,13.284,-9.768,-7.424,12.112,7.424,-10.159,-1.954,10.940,18.364,-7.033,-6.642,5.079,19.536,-0.391,-6.252,11.331,-11.331,10.549,-7.033,-17.973,7.424,-0.391
'[10:02:37.422 08/07/2079]',16.410,14.847,-10.549,-3.516,17.973,10.940,-14.457,1.954,3.907,18.755,-1.172,-4.689,-1.172,14.066,8.987,-3.907,16.410,-7.033,11.331,-9.768,-23.053,4.298,8.987
'[10:02:37.426 08/07/2079]',8.987,20.708,-10.940,-4.298,19.536,7.033,-13.675,0.391,-7.033,16.020,2.344,-6.642,-22.271,21.880,8.596,-3.516,17.192,-7.814,11.722,-17.973,-23.443,9.377,8.596
'[10:02:37.430 08/07/2079]',-1.563,28.523,-9.768,-6.642,14.457,4.689,-12.112,1.954,-1.954,17.192,3.516,-8.205,-21.099,30.085,8.596,-6.642,18.755,-7.033,10.549,-10.940,-24.225,7.033,8.596
'[10:02:37.434 08/07/2079]',19.536,13.675,-6.252,-1.172,19.927,7.033,-7.814,5.861,-2.735,16.801,7.814,-5.470,-11.722,17.582,14.847,-4.689,17.192,0.391,7.033,-6.252,-25.788,1.954,14.847
'[10:02:37.438 08/07/2079]',27.741,-0.391,-1.172,0.781,19.145,10.159,-0.781,-1.172,0.391,15.629,11.722,-0.391,-0.781,10.159,17.582,0.391,15.629,3.516,1.954,-12.112,-17.582,6.642,17.582
'[10:02:37.441 08/07/2079]',13.284,8.987,-0.781,-3.126,12.503,11.722,-3.516,-3.516,8.596,13.284,12.894,0.781,-1.954,23.834,15.629,-0.391,16.801,-3.126,1.563,-7.424,-16.410,9.768,15.629
'[10:02:37.445 08/07/2079]',12.112,26.178,-10.159,-8.987,16.020,10.159,-7.814,0.391,13.284,10.159,11.331,5.861,-4.689,29.695,14.066,2.735,19.536,-5.079,10.940,-10.549,-14.066,2.735,14.066
'[10:02:37.449 08/07/2079]',21.490,17.192,-8.596,-9.377,17.582,3.126,2.735,-4.689,5.861,6.252,13.675,5.079,-3.907,17.973,12.894,5.861,18.364,-0.781,9.377,-10.549,-18.755,2.735,12.894
'[10:02:37.453 08/07/2079]',23.443,10.159,-10.549,-0.391,16.801,0.000,7.814,-3.516,2.735,5.861,14.847,0.000,1.563,11.331,9.377,2.344,16.020,1.954,11.331,-16.020,-16.020,9.768,9.377
'[10:02:37.457 08/07/2079]',15.629,21.099,-16.410,-0.391,8.987,-8.596,8.596,10.549,5.079,6.642,3.516,5.470,0.391,6.252,6.642,8.987,17.582,2.344,17.192,-13.284,-20.708,1.563,6.642
'[10:02:37.461 08/07/2079]',10.159,26.960,-1.563,-26.960,4.298,0.781,12.894,-10.940,7.814,12.894,10.159,-23.443,0.391,11.331,15.238,-18.364,17.973,5.861,2.344,0.000,-17.582,-4.689,15.238
'[10:02:37.465 08/07/2079]',-8.205,15.629,-2.735,1.563,1.172,19.536,-16.020,0.391,3.907,3.126,5.079,-1.954,-6.252,5.861,5.079,5.861,16.020,-0.781,3.516,-5.079,-3.907,0.781,5.079
'[10:02:37.469 08/07/2079]',0.391,12.503,-4.298,3.516,1.954,20.317,-8.205,-2.344,10.549,3.126,4.298,-4.298,1.954,-2.344,7.814,7.814,17.582,-3.516,5.079,1.954,-8.596,-7.814,7.814
'[10:02:37.473 08/07/2079]',-1.172,8.596,-1.563,2.344,10.549,16.020,-13.675,-4.689,10.940,0.391,6.252,-9.377,5.079,-9.377,8.987,4.298,19.145,-4.689,2.344,3.516,-3.126,-9.768,8.987
'[10:02:37.477 08/07/2079]',-15.629,16.801,-2.344,13.675,11.722,12.112,-14.847,1.563,5.079,-1.954,7.033,0.391,-7.814,-2.344,6.642,14.847,20.317,-0.391,3.126,-1.954,4.689,-2.735,6.642
'[10:02:37.480 08/07/2079]',-19.536,22.271,4.298,1.563,9.768,8.205,-1.172,-7.424,12.503,0.391,6.642,-5.470,-7.033,3.126,9.377,8.987,22.271,1.172,-3.516,-4.298,-0.781,0.000,9.377
'[10:02:37.484 08/07/2079]',-2.344,12.503,7.814,-4.298,9.768,8.987,1.563,-8.596,16.410,4.298,6.252,-10.940,6.642,-4.298,13.675,0.391,23.053,1.954,-7.033,3.126,-2.735,-8.987,13.675
'[10:02:37.488 08/07/2079]',4.689,-0.391,5.470,-5.079,5.861,4.298,3.126,-9.377,10.940,1.172,1.954,-11.331,13.675,-16.020,10.159,-4.298,17.973,4.298,-4.689,0.781,6.252,-12.894,10.159
'[10:02:37.492 08/07/2079]',1.563,10.159,3.516,-8.596,11.331,1.563,1.172,-8.987,10.549,-1.172,-1.563,-16.801,7.033,-4.298,1.563,-13.284,16.020,-1.563,-2.735,-1.954,5.079,-5.470,1.563
'[10:02:37.496 08/07/2079]',-17.192,23.053,1.172,-3.126,1.172,-4.689,3.516,2.735,1.172,-3.516,-2.344,-8.596,-11.331,5.079,0.000,-7.424,12.894,-3.907,-0.391,9.377,-6.252,-4.298,0.000
'[10:02:37.500 08/07/2079]',-9.377,15.629,0.391,5.470,3.516,-8.596,9.768,6.642,0.000,-6.252,0.391,0.781,-1.172,-7.814,4.298,-0.391,8.205,0.391,0.391,4.689,8.205,-8.205,4.298
'[10:02:37.504 08/07/2079]',-12.503,-3.516,14.847,15.629,6.642,7.814,-8.205,7.424,1.954,-5.470,-4.298,15.238,0.391,7.424,-12.894,12.894,7.033,-0.391,-14.066,2.735,13.284,20.317,-12.894
'[10:02:37.508 08/07/2079]',-24.615,9.768,14.457,16.410,2.344,7.424,-7.814,13.284,9.377,0.000,-5.861,16.801,-4.298,1.172,14.457,8.205,7.814,-7.033,-13.675,2.735,16.801,2.344,14.457
'[10:02:37.512 08/07/2079]',-31.648,24.225,15.238,10.549,6.252,8.596,-12.894,15.629,21.880,1.954,-5.079,12.503,2.735,6.252,18.364,4.298,10.159,-10.549,-14.457,5.861,20.708,-3.126,18.364
'[10:02:37.516 08/07/2079]',-31.258,18.364,11.331,12.112,5.861,8.987,-13.284,8.987,21.099,0.000,-8.205,8.596,8.596,3.907,6.642,2.344,7.424,-8.987,-10.549,1.563,23.053,1.954,6.642
'[10:02:37.520 08/07/2079]',-15.629,21.490,7.814,3.907,13.675,6.252,0.391,-2.344,25.397,2.735,-3.907,-0.781,19.536,-0.391,10.549,-6.252,7.814,-6.642,-7.033,-7.033,18.364,3.516,10.549
'[10:02:37.523 08/07/2079]',-21.099,26.960,7.424,3.126,3.126,5.470,1.172,5.079,18.364,1.954,3.907,-2.735,14.847,6.252,6.642,-5.079,7.424,-3.907,-6.642,-1.954,11.722,5.861,6.642
'[10:02:37.527 08/07/2079]',-22.662,24.615,7.033,4.298,0.391,11.331,-10.940,12.503,10.549,0.391,6.252,-0.781,5.861,17.973,-3.907,-2.735,6.642,-1.172,-6.252,-3.907,12.894,11.722,-3.907
'[10:02:37.531 08/07/2079]',-17.192,27.350,5.861,8.596,7.033,15.629,-11.331,12.894,2.344,3.907,6.642,1.563,-7.033,8.987,14.457,0.000,6.252,-1.172,-5.079,-7.814,7.033,1.954,14.457
'[10:02:37.535 08/07/2079]',-6.252,21.880,1.172,2.344,5.470,8.987,-5.861,8.987,1.563,4.298,9.377,0.391,-1.172,2.344,15.629,0.391,3.516,-0.781,-0.391,-3.126,-2.344,-2.735,15.629
'[10:02:37.539 08/07/2079]',-4.689,25.397,-2.735,-3.126,9.377,0.781,-6.642,9.768,-1.954,4.689,4.298,-9.377,-3.907,-0.391,12.112,-9.768,2.735,-0.391,3.516,-1.954,-3.126,-7.033,12.112
'[10:02:37.543 08/07/2079]',-16.801,32.821,-11.331,7.033,5.079,-6.642,-5.470,18.755,-1.172,1.172,-0.391,14.066,-12.894,2.735,7.814,14.457,1.563,3.516,12.112,-8.596,-7.033,-5.861,7.814
'[10:02:37.547 08/07/2079]',-14.457,47.277,-7.814,-25.788,1.172,-15.629,23.834,-11.331,14.066,5.470,10.940,-13.675,-3.126,23.053,10.940,-14.066,-2.344,7.814,8.596,-6.252,-9.768,-2.735,10.940
'[10:02:37.551 08/07/2079]',-14.457,28.132,-7.814,-7.424,-2.735,2.344,-3.516,1.172,3.907,-2.735,9.768,0.781,-5.470,8.596,6.252,1.954,-2.344,2.735,8.596,-0.391,-8.987,-5.861,6.252
'[10:02:37.555 08/07/2079]',6.252,10.549,-4.298,3.516,5.861,21.490,-19.536,7.814,0.391,-7.424,10.159,15.238,-3.126,-1.563,5.470,16.801,-3.907,4.298,5.079,0.781,-10.940,-4.298,5.470
'[10:02:37.559 08/07/2079]',-8.205,20.317,-9.377,-8.205,-3.126,14.847,-16.410,-1.172,0.781,-11.722,5.861,1.563,0.000,-5.079,2.344,0.391,-7.033,-0.391,10.159,1.563,-7.033,-8.205,2.344
'[10:02:37.563 08/07/2079]',-16.801,25.397,-7.424,-10.159,7.814,8.205,-30.867,4.298,-3.907,-8.987,-4.298,-1.172,-14.066,0.391,-2.735,-1.954,-6.252,-8.987,8.205,7.033,-9.768,-7.424,-2.735
'[10:02:37.566 08/07/2079]',-8.596,17.192,-8.205,3.126,2.735,5.861,-24.225,17.582,-9.768,-9.377,-5.079,3.516,-8.205,-10.159,-3.907,0.781,-8.596,-4.298,8.987,9.768,-11.331,-12.894,-3.907
'[10:02:37.570 08/07/2079]',1.563,0.391,-9.768,-0.781,1.172,-7.424,-9.377,6.642,-10.940,-8.987,-6.642,-0.781,-1.563,-16.020,-4.689,-5.861,-12.503,-5.079,10.549,3.907,-5.079,-11.331,-4.689
'[10:02:37.574 08/07/2079]',-4.689,6.252,-5.470,-3.516,0.391,-10.940,-6.642,8.987,-7.814,-9.768,-6.252,-0.781,-5.470,-5.470,-7.033,-7.033,-12.112,-12.503,6.252,8.596,-4.689,-7.814,-7.033
'[10:02:37.578 08/07/2079]',-17.192,16.801,-6.252,7.033,-3.907,-8.596,-13.675,25.788,-8.205,-16.410,-7.424,17.973,-14.457,0.391,-10.940,8.987,-12.894,-15.238,7.033,12.503,-5.079,-8.987,-10.940
'[10:02:37.582 08/07/2079]',-17.973,11.722,-8.987,-5.861,-4.689,-9.768,-11.722,5.079,-1.954,-21.880,-13.284,6.642,-0.781,-7.814,-19.145,-3.516,-16.801,-15.629,9.768,10.549,0.391,-6.642,-19.145
'[10:02:37.586 08/07/2079]',-5.470,-1.172,-6.642,-9.768,2.735,-9.768,-11.722,-5.470,0.781,-21.490,-17.192,-0.781,10.940,-14.457,-25.006,-10.549,-17.582,-17.582,7.424,12.112,8.205,-8.205,-25.006
'[10:02:37.590 08/07/2079]',-10.159,3.516,-8.987,-7.424,-2.735,-6.642,-19.536,5.079,-6.642,-17.973,-19.536,-7.424,0.391,-19.145,-16.801,-17.192,-17.192,-17.192,9.768,9.768,3.126,-10.940,-16.801
'[10:02:37.594 08/07/2079]',-24.615,5.861,-16.410,-10.940,-14.847,-15.629,-17.582,1.563,-12.894,-18.755,-17.582,-1.563,-8.596,-18.364,-15.238,-9.768,-16.020,-13.284,17.192,3.516,8.596,-15.629,-15.238
'[10:02:37.598 08/07/2079]',-16.410,-3.907,-3.907,-9.377,-8.596,-17.192,-1.954,-5.861,-19.145,-10.549,-14.066,-4.689,-17.192,-12.112,-10.549,-9.768,-13.675,-8.987,4.689,4.689,12.894,-8.596,-10.549
'[10:02:37.602 08/07/2079]',-14.457,-4.689,1.172,8.987,-8.596,-16.410,5.079,11.331,-11.331,-7.424,-12.503,7.814,-5.079,-14.457,-10.549,5.079,-11.331,-7.033,-0.391,5.470,11.331,-7.033,-10.549
'[10:02:37.605 08/07/2079]',-9.768,0.000,0.000,9.377,-1.563,-21.880,11.722,10.549,-0.781,-3.907,-5.470,12.894,10.549,-10.159,-6.252,7.424,-7.424,-1.563,0.781,3.516,13.284,-1.954,-6.252
'[10:02:37.609 08/07/2079]',-14.847,0.391,1.172,8.987,5.079,-8.987,-3.126,4.689,-0.781,-2.344,-8.596,11.722,6.642,4.689,-14.457,2.344,-5.470,-1.172,-0.391,5.861,25.397,7.033,-14.457
'[10:02:37.613 08/07/2079]',-22.271,10.549,-5.861,0.391,5.079,-12.894,-7.424,-1.563,1.172,-1.172,-10.159,6.642,5.861,11.331,-15.629,-4.689,-7.033,-8.596,6.642,5.861,31.258,0.391,-15.629
'[10:02:37.617 08/07/2079]',-13.675,-1.172,-9.768,-3.126,-0.391,-11.331,-11.331,-5.079,0.781,-1.172,-4.689,-0.391,15.238,-1.563,-6.642,-12.112,-6.252,-7.424,10.549,11.722,29.695,-12.503,-6.642
'[10:02:37.621 08/07/2079]',-7.814,-23.834,-9.768,-2.344,0.000,-7.814,-17.973,-17.582,-11.722,-3.516,-9.768,-13.284,8.987,-3.907,-19.145,-25.788,-8.987,-10.549,10.549,10.159,39.072,-1.563,-19.145
'[10:02:37.625 08/07/2079]',-25.006,-7.424,-11.722,3.126,-2.735,-10.159,-16.410,-11.331,-10.549,-8.987,-16.410,-16.801,5.861,3.907,-35.556,-28.523,-10.549,-17.973,12.503,9.377,46.105,1.172,-35.556
'[10:02:37.629 08/07/2079]',-37.509,3.516,-19.536,-3.126,-13.675,-19.927,-8.987,-12.894,-3.126,-7.424,-13.284,-13.284,9.377,7.424,-28.913,-26.178,-10.940,-15.238,20.317,17.582,40.635,-7.424,-28.913
'[10:02:37.633 08/07/2079]',-19.927,-8.596,-25.397,-3.516,-15.238,-17.973,0.781,-23.834,-12.112,-8.987,-11.722,-16.020,8.987,0.000,-31.648,-27.350,-14.066,-8.596,26.178,14.847,38.291,-4.298,-31.648
'[10:02:37.637 08/07/2079]',-12.112,-16.801,-35.556,14.457,-23.834,-23.053,7.033,-9.377,-16.410,-14.847,-17.582,9.377,16.410,-8.596,-52.357,3.516,-18.755,-7.814,36.337,9.377,33.993,-1.563,-52.357
'[10:02:37.641 08/07/2079]',3.126,-3.516,-27.350,-17.582,-17.582,-33.993,31.258,-25.788,-4.689,-0.781,1.172,-12.503,16.410,-17.582,3.907,-20.708,-13.284,-1.954,28.132,7.814,15.629,-25.006,3.907
'[10:02:37.645 08/07/2079]',-9.377,3.126,-23.443,-13.284,-23.053,-13.284,3.516,-10.549,-10.159,-3.126,-4.298,-5.861,0.391,-3.126,-9.768,-12.503,-11.722,-7.424,24.225,12.894,-0.781,-8.596,-9.768
'[10:02:37.648 08/07/2079]',-16.410,9.768,-13.675,-5.470,-1.954,-1.563,-12.112,-9.768,-7.814,-5.079,-6.642,-5.079,-2.735,2.344,-17.973,-8.596,-12.894,-12.503,14.457,8.205,-1.563,1.172,-17.973
'[10:02:37.652 08/07/2079]',-12.503,7.033,-4.689,-11.722,1.954,-2.735,-7.424,-14.847,2.735,-0.781,-9.377,-13.284,10.549,-6.252,-7.814,-18.364,-11.722,-17.192,5.470,8.596,-2.344,0.000,-7.814
'[10:02:37.656 08/07/2079]',-16.020,3.516,-8.596,-7.033,-2.344,-0.391,-19.145,-5.079,3.126,-2.344,-16.801,-5.470,10.159,-11.722,-8.987,-12.503,-10.549,-21.490,9.377,14.457,-15.238,3.907,-8.987
'[10:02:37.660 08/07/2079]',-17.582,2.344,-10.940,-9.377,-1.563,-8.987,-20.317,-3.907,-2.344,-8.205,-20.708,-0.391,-1.563,-6.642,-17.973,-7.033,-9.768,-27.741,11.722,12.894,-12.112,2.344,-17.973
'[10:02:37.664 08/07/2079]',-16.020,7.033,-6.642,-18.755,-3.907,-13.675,-3.126,-12.112,1.563,-7.424,-18.364,-14.457,1.563,-8.596,-10.940,-21.099,-8.987,-28.913,7.424,5.470,-7.033,-5.470,-10.940
'[10:02:37.668 08/07/2079]',-6.252,1.954,-10.159,-18.364,-3.907,-10.549,-7.033,-10.940,-4.298,-8.987,-13.284,-8.205,-5.470,-14.457,-2.735,-14.457,-6.252,-30.867,10.940,8.205,-19.927,-6.642,-2.735
'[10:02:37.672 08/07/2079]',-6.252,-5.861,-9.377,-23.834,-4.298,-10.940,-17.192,-13.284,-14.066,-13.675,-13.675,-12.112,-12.112,-16.801,-11.722,-14.847,-9.377,-32.821,10.159,6.252,-7.814,-18.364,-11.722
'[10:02:37.676 08/07/2079]',-16.801,2.344,-2.735,-15.629,0.781,-12.503,-11.722,-10.549,-14.847,-7.424,-11.331,-22.662,-23.053,-5.861,-6.252,-22.662,-10.159,-27.350,3.516,0.000,-0.391,-7.814,-6.252
'[10:02:37.680 08/07/2079]',-32.821,14.847,0.781,-12.112,-3.516,-10.159,-9.377,-6.252,-1.172,-4.689,-7.033,-3.516,-9.377,-4.689,0.781,-5.079,-6.252,-19.927,0.000,7.424,1.563,-11.331,0.781
'[10:02:37.684 08/07/2079]',-17.973,0.391,6.642,-1.172,-1.563,-6.642,-5.079,1.172,2.735,-3.907,-1.172,-0.391,-1.172,-8.987,3.126,3.516,-3.907,-11.331,-5.861,10.159,-4.298,-9.768,3.126
'[10:02:37.688 08/07/2079]',-5.861,-5.470,12.894,14.457,7.033,-8.596,10.940,6.642,3.516,-2.735,1.172,1.563,9.768,-17.192,0.781,9.377,0.391,-6.252,-12.112,1.172,2.344,-0.391,0.781
'[10:02:37.691 08/07/2079]',-24.615,16.801,11.722,7.033,2.735,-10.159,14.847,2.735,9.377,-2.344,-0.781,-2.344,7.814,-8.205,-1.563,4.298,6.252,-12.112,-10.940,-2.735,2.344,1.172,-1.563
'[10:02:37.695 08/07/2079]',-37.900,30.085,3.516,-1.172,-3.516,-16.410,13.284,2.344,3.516,-1.954,-5.079,-11.722,-6.642,-3.126,-1.954,-3.907,9.377,-19.536,-2.735,-1.563,-0.781,-3.516,-1.954
'[10:02:37.699 08/07/2079]',-30.085,21.099,1.954,-3.907,1.563,-17.192,12.894,-8.205,3.907,-0.391,-8.205,-17.582,0.000,-10.940,-2.344,-8.596,10.159,-20.708,-1.172,-5.470,6.252,-2.735,-2.344
'[10:02:37.703 08/07/2079]',-25.006,6.252,1.563,0.000,2.344,-5.470,0.391,-14.066,8.205,-3.126,-10.159,-15.629,9.768,-19.145,-2.735,-8.596,7.424,-20.708,-0.781,-9.377,13.675,0.781,-2.735
'[10:02:37.707 08/07/2079]',-22.271,4.689,-0.781,-3.907,0.781,-6.252,-8.205,-7.814,14.847,-4.298,-10.159,-10.549,11.722,-16.410,-1.172,-4.298,7.814,-23.834,1.563,-1.954,8.596,-0.781,-1.172
'[10:02:37.711 08/07/2079]',-21.490,6.642,4.298,4.689,4.689,-8.205,-9.377,7.424,10.940,-3.126,-7.033,0.000,0.000,-11.331,2.735,8.205,5.861,-18.364,-3.516,-2.344,4.298,0.391,2.735
'[10:02:37.715 08/07/2079]',-14.847,12.503,5.470,-1.172,13.284,-7.424,1.172,-4.689,4.689,-1.954,-4.689,-10.940,-7.424,-6.252,-1.172,0.391,0.781,-12.894,-4.689,-9.377,8.596,3.516,-1.172
'[10:02:37.719 08/07/2079]',-9.768,5.861,4.298,-8.205,7.424,-5.470,6.252,-16.410,6.252,3.907,-1.954,-19.536,-1.954,-5.470,1.172,-6.642,2.735,-11.722,-3.516,-4.298,-0.391,3.516,1.172
'[10:02:37.723 08/07/2079]',-11.722,0.781,4.298,1.172,0.391,-1.954,0.391,-4.298,0.781,5.861,-3.126,-14.847,-2.735,-10.549,0.391,0.781,5.079,-9.377,-3.516,0.781,-0.391,-1.172,0.391
'[10:02:37.727 08/07/2079]',-21.490,15.238,0.391,2.735,0.391,-7.814,5.470,-1.563,-3.516,5.861,-0.391,-15.238,-21.099,4.298,1.954,0.000,6.642,-6.252,0.391,-6.642,3.907,0.391,1.954
'[10:02:37.730 08/07/2079]',-29.695,12.112,0.781,2.344,-11.722,-11.722,16.020,-7.033,0.391,4.298,4.689,-14.066,-23.443,17.973,1.172,0.391,8.596,-5.470,0.000,-3.907,-1.172,3.126,1.172
'[10:02:37.734 08/07/2079]',-20.317,-3.907,7.814,7.033,-12.503,-9.377,19.536,-5.470,3.516,7.033,6.642,-12.894,-14.847,6.642,8.987,3.126,8.596,-6.252,-7.033,0.391,-0.781,0.781,8.987
'[10:02:37.738 08/07/2079]',-7.814,-8.205,3.516,17.973,-5.079,-23.834,31.258,3.126,1.172,6.252,10.159,-5.470,-14.457,4.689,15.238,6.252,4.298,-2.344,-2.735,-10.549,1.954,5.079,15.238
'[10:02:37.742 08/07/2079]',-1.172,0.391,8.987,-17.582,7.424,-5.861,22.271,-34.383,7.033,8.596,10.549,-35.165,-10.549,19.536,8.205,-25.788,7.424,-3.126,-8.205,-1.954,6.252,7.033,8.205
'[10:02:37.746 08/07/2079]',-14.847,0.391,4.689,1.172,-0.781,5.079,-5.861,-7.424,1.172,3.126,0.000,-10.159,-22.662,10.159,7.814,-1.954,3.516,-9.768,-3.907,8.205,-4.298,2.735,7.814
'[10:02:37.750 08/07/2079]',1.563,-5.079,8.596,2.344,9.768,5.861,-5.861,-2.735,3.126,3.516,0.000,-7.424,-7.033,-0.391,4.689,0.391,1.954,-3.516,-7.814,10.940,2.735,-5.861,4.689
'[10:02:37.754 08/07/2079]',9.768,-16.801,6.252,5.079,10.159,2.735,-4.298,-4.298,-4.298,0.391,-1.172,-10.940,-8.987,-4.689,-3.126,0.781,-3.907,-0.391,-5.470,4.689,2.735,0.781,-3.126
'[10:02:37.758 08/07/2079]',-12.894,-7.814,8.987,10.940,-4.298,-1.954,0.391,6.252,5.861,3.907,4.689,-2.735,-16.801,10.549,7.424,10.159,-1.954,-0.391,-8.205,0.391,-9.377,10.549,7.424
'[10:02:37.762 08/07/2079]',-15.629,4.298,6.252,3.907,-1.172,-10.159,3.907,7.424,11.331,5.079,8.205,-5.079,-23.443,21.099,13.675,8.987,-0.781,-1.172,-5.470,1.172,-15.238,8.596,13.675
'[10:02:37.766 08/07/2079]',0.000,-5.861,3.907,1.563,4.298,-10.549,8.596,-3.126,5.079,1.563,12.894,-5.861,-23.834,17.192,11.722,8.205,-1.954,4.298,-3.126,0.391,-16.801,9.768,11.722
'[10:02:37.770 08/07/2079]',10.549,-14.457,4.689,0.781,6.642,-5.861,9.768,-8.987,3.126,-1.172,14.066,-3.516,-18.755,10.159,12.894,7.033,-1.954,2.735,-3.907,0.391,-18.755,10.549,12.894
'[10:02:37.773 08/07/2079]',10.940,-13.675,0.781,4.298,3.126,-6.642,3.126,1.563,2.735,-4.298,9.377,6.252,-14.457,1.172,12.112,14.457,-3.516,-1.172,0.000,6.642,-18.755,1.954,12.112
'[10:02:37.777 08/07/2079]',-1.954,-4.689,3.516,10.159,-1.172,-10.549,3.126,15.238,-0.781,-8.205,5.079,7.424,-17.192,0.391,6.252,12.894,-7.424,0.000,-2.735,4.298,-8.987,-1.954,6.252
'[10:02:37.781 08/07/2079]',-14.457,0.000,3.516,7.814,-4.298,-10.159,5.079,6.642,0.781,-9.377,5.470,5.079,-18.755,8.596,1.172,10.159,-10.549,-1.954,-2.735,2.735,-7.424,5.470,1.172
'[10:02:37.785 08/07/2079]',-9.768,-7.424,1.954,5.079,-6.252,-11.331,3.907,3.126,4.298,-6.642,3.516,2.735,-11.722,2.735,3.516,8.205,-11.722,-6.642,-1.172,3.516,-11.331,5.861,3.516
'[10:02:37.789 08/07/2079]',-6.642,-1.954,1.954,5.470,-3.907,-15.238,4.689,13.284,0.781,-8.987,3.126,4.689,-14.457,1.172,1.563,10.159,-8.987,-4.689,-1.172,5.079,-12.503,1.954,1.563
'[10:02:37.793 08/07/2079]',-10.159,-2.344,1.563,1.954,-5.861,-17.192,7.033,7.033,-4.298,-8.987,5.079,1.954,-22.662,5.470,2.344,7.424,-7.814,-1.563,-0.781,3.126,-15.238,7.814,2.344
'[10:02:37.797 08/07/2079]',-12.112,1.954,-1.172,6.642,-5.470,-20.317,13.284,7.033,-9.377,-7.424,5.861,2.344,-29.695,-0.391,11.331,8.596,-7.424,0.391,1.954,2.735,-15.629,0.391,11.331
'[10:02:37.801 08/07/2079]',-3.907,1.172,0.391,8.205,-5.470,-19.536,23.443,8.205,-3.907,-1.563,6.642,3.126,-16.020,0.781,10.159,8.205,-2.344,3.907,0.391,4.298,-13.284,0.391,10.159
'[10:02:37.805 08/07/2079]',-1.172,-14.847,1.172,14.457,-5.079,-1.954,5.470,1.563,-1.172,-2.735,2.344,2.344,-5.079,-6.252,4.298,7.033,0.391,4.298,-0.391,4.689,-5.861,5.861,4.298
'[10:02:37.809 08/07/2079]',-17.973,-2.344,-5.861,4.689,-4.689,-7.033,2.735,-12.112,-2.735,-4.298,1.954,-4.298,-17.973,3.907,4.298,-1.172,1.172,-2.344,6.642,-2.344,-1.954,10.940,4.298
'[10:02:37.813 08/07/2079]',-33.211,22.662,-2.344,-4.689,-4.298,-0.391,0.781,-12.503,6.252,-5.470,2.344,-4.689,-19.536,25.006,-3.516,-2.735,6.252,-4.689,3.126,-3.907,-0.781,16.410,-3.516
'[10:02:37.816 08/07/2079]',-18.364,7.424,0.391,-1.172,0.391,4.298,-0.781,-16.410,12.503,-3.126,3.907,-10.159,-2.344,-1.563,11.331,-3.907,7.033,1.954,0.391,-7.424,3.907,5.861,11.331
'[10:02:37.820 08/07/2079]',-12.503,0.391,-0.391,1.954,1.954,2.344,8.205,-24.225,9.377,-0.391,10.159,-11.331,0.781,-8.596,16.801,-2.344,6.642,7.424,1.172,-16.020,7.424,9.768,16.801
'[10:02:37.824 08/07/2079]',-24.225,14.457,0.781,3.516,-1.563,0.391,13.675,-17.973,12.503,3.516,7.033,-12.112,-1.563,0.391,14.457,-1.172,7.424,8.205,0.000,-19.145,10.159,11.331,14.457
'[10:02:37.828 08/07/2079]',-26.960,19.536,0.000,3.907,-0.391,-1.954,11.722,-13.284,13.284,7.033,4.689,-14.457,-4.689,8.596,10.159,-2.344,8.596,9.768,0.781,-13.675,13.675,10.549,10.159
'[10:02:37.832 08/07/2079]',-23.443,8.596,-1.563,-1.172,-0.391,-5.470,15.629,-27.350,8.596,7.424,6.642,-21.490,-6.252,10.159,6.642,-8.205,4.689,10.159,2.344,-10.940,13.675,11.722,6.642
'[10:02:37.836 08/07/2079]',-24.225,14.457,3.126,6.252,2.735,1.172,21.099,-26.178,9.377,9.768,8.596,-21.880,-0.781,11.722,2.344,-7.033,5.861,12.112,-2.344,-16.801,18.364,17.582,2.344
'[10:02:37.840 08/07/2079]',-16.801,10.940,1.954,10.940,6.252,2.735,12.894,-14.847,9.377,7.814,5.861,-21.490,4.298,5.861,0.000,-7.033,8.596,8.205,-1.172,-9.768,17.973,11.331,0.000
'[10:02:37.844 08/07/2079]',-21.490,11.331,2.735,17.192,4.298,-1.954,15.238,-6.642,11.722,9.377,10.159,-9.768,4.298,8.987,4.689,3.126,10.940,8.205,-1.954,-9.377,19.536,12.503,4.689
'[10:02:37.848 08/07/2079]',-30.085,25.397,0.781,15.238,2.735,-5.079,26.960,-12.112,21.099,11.331,9.377,-8.205,11.331,17.582,1.954,1.954,10.159,7.814,0.000,-16.410,24.615,19.927,1.954
'[10:02:37.852 08/07/2079]',-11.331,5.079,0.000,6.642,5.079,-12.503,29.695,-20.708,14.066,8.987,0.781,-14.847,12.112,8.987,-2.735,-7.033,4.298,0.781,0.781,-14.457,23.834,23.834,-2.735
'[10:02:37.855 08/07/2079]',-8.596,5.079,1.563,-0.391,2.344,-19.145,28.523,-13.284,17.582,12.112,-2.344,-18.755,17.973,8.596,-3.516,-12.894,1.954,1.563,-0.781,-7.424,22.271,17.192,-3.516
'[10:02:37.859 08/07/2079]',-21.880,17.582,9.377,-10.159,0.391,-12.112,26.960,-19.536,14.847,14.847,3.126,-35.946,9.377,20.708,0.391,-32.039,-1.954,6.252,-8.596,-10.159,30.867,19.927,0.391
'[10:02:37.863 08/07/2079]',-31.648,18.755,11.722,7.424,1.172,6.642,-1.954,0.781,11.331,7.424,-6.642,-19.536,2.344,17.973,-12.503,-14.457,-3.126,2.344,-10.940,-3.126,30.476,16.801,-12.503
'[10:02:37.867 08/07/2079]',-19.536,6.252,10.940,17.973,1.172,7.814,-4.689,11.722,10.940,7.814,-3.907,-12.503,14.457,6.252,-10.159,-7.033,-4.298,3.516,-10.159,4.298,29.695,8.596,-10.159
'[10:02:37.871 08/07/2079]',-15.238,-2.735,8.596,27.350,2.735,5.079,-1.954,12.894,9.768,4.298,0.000,2.735,23.443,-1.172,-10.940,7.033,-5.470,7.033,-7.814,-1.172,30.867,15.629,-10.940
'[10:02:37.875 08/07/2079]',-35.946,10.940,4.689,18.364,-5.079,-1.954,-1.172,7.814,7.814,0.391,-5.079,5.861,5.861,7.424,-7.033,2.735,-6.252,-1.563,-3.907,-5.470,23.053,18.364,-7.033
'[10:02:37.879 08/07/2079]',-44.933,28.132,0.000,-0.391,-11.331,-7.814,1.563,0.781,5.470,0.391,-11.722,0.391,-3.516,11.331,-7.033,-4.689,-5.470,-8.987,0.781,1.172,15.629,8.987,-7.033
'[10:02:37.883 08/07/2079]',-32.821,19.145,-1.563,-3.907,-10.159,-8.596,2.344,-2.735,3.907,-3.516,-13.284,-4.298,5.470,-0.781,-10.940,-10.940,-8.987,-7.033,2.344,1.563,14.066,3.907,-10.940
'[10:02:37.887 08/07/2079]',-16.410,3.516,-1.563,-0.781,-8.987,-7.033,4.689,-3.516,1.954,-4.298,-10.159,-1.954,6.252,-2.344,-11.331,-7.424,-9.768,-6.642,2.344,-1.172,3.126,8.987,-11.331
'[10:02:37.891 08/07/2079]',-14.457,2.735,0.391,8.205,-15.238,-3.907,4.298,12.503,7.033,-2.735,-14.066,1.563,13.675,-2.344,-16.020,-2.735,-8.596,-7.424,0.391,6.642,6.252,5.079,-16.020
'[10:02:37.895 08/07/2079]',-24.225,9.768,-0.781,10.159,-3.126,-10.940,-9.768,19.145,4.689,-3.126,-11.722,13.284,2.735,0.000,-6.642,6.252,-8.987,-8.596,1.563,10.159,1.172,2.344,-6.642
'[10:02:37.898 08/07/2079]',-15.629,5.861,-1.954,10.159,2.735,-13.284,-2.735,12.112,6.642,-0.391,-5.470,8.987,-0.391,10.549,-3.126,3.907,-7.814,-5.079,2.735,2.344,-6.642,9.768,-3.126
'[10:02:37.902 08/07/2079]',-7.814,2.735,-4.298,2.344,6.642,-15.238,3.907,-1.563,11.331,0.000,-7.814,2.735,9.768,0.391,-1.563,-1.954,-8.596,-5.861,5.079,-1.563,-5.470,11.722,-1.563
'[10:02:37.906 08/07/2079]',4.689,-1.563,-10.549,-3.907,12.503,-12.503,-8.596,-2.344,5.470,-3.516,-8.596,1.563,4.689,-4.298,-1.563,-1.563,-7.424,-7.033,11.331,2.344,-8.205,5.470,-1.563
'[10:02:37.910 08/07/2079]',1.954,3.907,-15.238,1.563,8.205,-15.238,-5.470,5.861,5.470,-5.079,-8.205,7.033,-1.954,1.954,-2.735,2.344,-6.252,-5.861,16.020,-6.252,-9.768,8.987,-2.735
'[10:02:37.914 08/07/2079]',0.391,3.126,-13.675,-1.563,1.954,-21.099,12.112,-4.689,1.172,-5.861,-6.642,0.391,-6.252,-5.079,2.344,-1.954,-7.814,-3.907,14.457,-4.298,-5.470,-0.391,2.344
'[10:02:37.918 08/07/2079]',0.391,5.079,-3.126,-3.907,5.470,5.861,-6.252,-6.642,3.907,-0.781,-4.298,2.344,-2.344,0.391,4.689,-1.954,-3.516,-3.907,3.907,5.470,-1.563,-1.172,4.689
'[10:02:37.922 08/07/2079]',-3.126,4.689,-3.126,5.470,3.516,8.205,-10.159,2.344,1.954,-2.344,-4.298,7.814,0.000,-1.954,0.000,5.079,-1.563,-1.954,3.907,1.954,-3.516,3.516,0.000
'[10:02:37.926 08/07/2079]',-22.662,12.112,-5.079,8.596,-4.298,0.000,-3.126,1.563,1.563,-1.563,-4.689,5.079,-8.987,3.126,-0.391,5.861,-2.344,-1.563,5.861,-6.252,-3.907,10.549,-0.391
'[10:02:37.930 08/07/2079]',-20.708,20.708,-5.079,0.391,-1.172,1.954,-1.954,-2.344,5.861,0.781,0.000,1.563,-8.596,19.927,-5.470,3.907,0.391,0.391,5.861,-2.344,-4.298,13.675,-5.470
'[10:02:37.934 08/07/2079]',-5.079,7.424,-10.159,5.079,0.391,1.563,-5.470,0.781,3.126,-2.344,0.000,1.172,1.172,2.344,-8.987,7.424,-0.781,0.781,10.940,-3.126,-3.907,6.252,-8.987
'[10:02:37.938 08/07/2079]',7.033,-7.424,-20.317,21.880,0.000,-14.066,6.642,9.377,-2.735,-2.344,-0.781,8.205,-0.781,-19.927,7.033,15.238,-0.391,0.391,21.099,-13.284,-8.205,-1.172,7.033
'[10:02:37.941 08/07/2079]',4.689,16.410,-7.814,-24.225,9.768,-14.847,25.397,-30.476,10.549,8.205,10.159,-28.523,5.079,8.596,12.112,-25.397,3.516,1.172,8.596,-11.331,4.689,-1.954,12.112
'[10:02:37.945 08/07/2079]',-11.722,29.695,-8.987,-7.033,10.940,-0.781,-1.563,-5.861,6.642,0.391,1.954,-16.020,-5.861,1.563,11.722,-14.457,5.470,-6.252,9.768,-7.033,2.735,-5.079,11.722
'[10:02:37.949 08/07/2079]',-17.973,15.629,-7.814,0.391,5.079,-12.112,0.000,-2.735,1.172,-2.344,-3.126,-13.284,-6.642,-12.112,8.596,-8.596,1.954,-7.424,8.596,-6.252,-1.563,-2.735,8.596
'[10:02:37.953 08/07/2079]',-16.410,12.112,-2.735,-6.252,9.377,-17.973,11.331,-16.020,7.814,0.391,-3.126,-20.317,6.642,-12.112,3.907,-13.675,0.391,-5.470,3.516,-10.159,5.470,2.735,3.907
'[10:02:37.957 08/07/2079]',-19.145,5.861,-4.689,1.954,3.907,-1.172,-17.973,-0.391,0.391,-8.596,-10.159,-11.722,1.954,-22.662,-2.735,-7.424,-1.172,-13.284,5.470,-1.172,8.987,-3.126,-2.735
'[10:02:37.961 08/07/2079]',-32.430,10.549,-10.549,-3.126,-7.033,-11.722,-17.973,0.781,3.907,-3.126,-20.317,-17.192,0.391,-16.020,-10.159,-11.722,-5.470,-16.020,11.331,2.344,-4.689,3.907,-10.159
'[10:02:37.965 08/07/2079]',-32.430,18.364,-3.907,-8.987,-2.735,-12.112,1.563,-13.675,3.126,0.000,-11.331,-12.112,-2.735,-3.907,-3.907,-9.377,-5.079,-8.987,4.689,-5.861,10.549,4.298,-3.907
'[10:02:37.969 08/07/2079]',-8.596,9.377,-1.172,-10.159,1.563,-4.298,5.470,-13.675,3.516,-1.172,-9.377,-13.284,0.781,-5.470,-1.954,-14.457,-8.987,-10.549,1.954,-2.344,9.768,0.391,-1.954
'[10:02:37.973 08/07/2079]',-9.377,15.238,-10.549,-6.642,9.377,-12.112,-4.689,-3.126,5.861,-5.470,-15.238,-3.516,5.861,-11.722,-5.470,-7.814,-9.768,-11.722,11.331,3.126,-1.954,-1.954,-5.470
'[10:02:37.977 08/07/2079]',-16.801,31.648,-12.503,-5.861,11.722,-16.020,-4.689,5.079,-2.735,-8.987,-11.722,2.735,-17.192,0.391,-2.735,-0.781,-11.331,-10.940,13.284,-3.516,-3.907,-5.861,-2.735
'[10:02:37.980 08/07/2079]',-1.563,16.410,-17.192,-9.768,16.020,-12.894,-8.596,-6.252,-2.735,-13.284,-9.377,6.252,-14.066,-10.940,1.172,1.563,-12.503,-14.066,17.973,-5.470,-4.298,-14.847,1.172
'[10:02:37.984 08/07/2079]',1.563,1.954,-23.053,-17.973,5.861,-12.503,-16.801,-13.675,-3.126,-16.801,-19.145,-4.298,-0.391,-24.225,-12.112,-8.205,-16.410,-20.708,23.834,1.172,-12.894,-9.377,-12.112
'[10:02:37.988 08/07/2079]',2.735,-11.331,-13.675,-13.675,-3.126,-18.364,-6.252,-7.814,-8.596,-17.582,-18.364,-9.377,3.126,-28.523,-20.708,-8.987,-19.145,-17.192,14.457,-8.596,2.344,-5.470,-20.708
'[10:02:37.992 08/07/2079]',-6.252,-3.126,-12.112,-15.238,-2.735,-20.708,-0.391,-12.112,-3.516,-14.066,-15.238,-5.470,0.391,-15.238,-17.192,-7.424,-15.629,-16.801,12.894,-15.629,8.987,1.954,-17.192
'[10:02:37.996 08/07/2079]',-17.582,9.768,-16.020,-23.053,-9.768,-25.006,-0.391,-12.112,-0.391,-14.847,-17.973,-4.689,-5.470,-0.391,-24.615,-8.205,-14.847,-18.364,16.801,-6.642,3.516,5.079,-24.615
'[10:02:38.000 08/07/2079]',3.907,4.298,-10.159,-10.549,2.735,-21.880,7.033,0.391,7.814,-8.987,-8.596,-1.172,12.503,-2.344,-19.536,-2.735,-11.331,-7.424,10.940,-3.126,4.689,1.563,-19.536
'[10:02:38.004 08/07/2079]',20.317,-10.940,-8.987,-2.735,13.675,3.126,-12.503,-7.814,10.159,-5.470,-5.079,2.735,19.927,-2.344,-15.629,-0.391,-8.205,-3.907,9.768,-1.954,3.516,8.596,-15.629
'[10:02:38.008 08/07/2079]',0.000,5.861,-16.020,-8.987,5.470,1.172,-14.457,-10.940,7.424,-10.159,-11.722,-3.516,12.503,-7.033,-18.755,-5.861,-8.596,-10.549,16.801,-6.252,7.424,3.516,-18.755
'[10:02:38.012 08/07/2079]',-12.894,23.834,-13.284,-9.377,0.391,-5.079,-5.079,-1.172,7.424,-6.252,-16.410,-14.847,7.033,-3.126,-18.755,-15.629,-7.424,-10.940,14.066,-3.907,8.987,-4.298,-18.755
'[10:02:38.016 08/07/2079]',-16.801,12.112,-15.629,-2.344,-6.252,-5.861,-3.126,-6.252,1.172,-7.424,-19.145,-18.755,3.516,-10.940,-22.271,-14.457,-7.424,-9.377,16.410,-7.814,5.861,0.391,-22.271
'[10:02:38.020 08/07/2079]',-22.271,0.391,-19.927,12.894,-15.629,-23.443,7.814,2.735,-4.689,-16.410,-23.053,-8.205,1.563,-23.443,-33.602,1.954,-10.159,-13.284,20.708,-15.629,5.079,3.516,-33.602
'[10:02:38.023 08/07/2079]',1.563,3.516,-10.549,-6.642,-5.861,-26.960,27.350,-6.642,0.781,-5.079,-7.814,-16.410,7.424,-8.205,-20.317,-8.205,-0.781,-5.079,11.331,-5.861,3.907,2.344,-20.317
'[10:02:38.027 08/07/2079]',-11.722,-1.172,-6.252,-0.391,-4.298,-3.516,-8.987,-3.516,-0.391,-2.344,-6.642,-4.689,1.954,-8.205,-11.722,2.735,3.126,-8.596,7.033,3.126,6.252,0.391,-11.722
'[10:02:38.031 08/07/2079]',-5.079,7.033,-7.424,-9.377,4.689,-0.781,-1.563,-16.801,-3.516,1.954,-3.907,-11.722,-3.907,-5.861,-7.033,-0.391,6.252,-7.033,8.205,-6.642,5.079,1.563,-7.033
'[10:02:38.035 08/07/2079]',-0.391,14.457,-1.954,-26.178,8.205,4.689,2.344,-31.648,-3.516,5.861,-3.126,-24.615,3.907,-0.391,-14.457,-13.675,10.549,-7.033,2.735,-3.126,14.847,-1.563,-14.457
'[10:02:38.039 08/07/2079]',-8.205,13.284,-0.391,-22.662,0.391,10.549,-8.596,-21.490,-4.689,6.642,-2.735,-18.755,0.391,-7.424,-7.033,-5.861,12.112,-8.987,1.172,-4.689,3.126,0.391,-7.033
'[10:02:38.043 08/07/2079]',-19.145,16.020,3.907,0.781,0.391,0.781,3.126,-2.344,-0.391,-0.781,-5.470,-19.536,5.861,-11.722,-21.099,-0.391,11.722,-5.470,-3.126,-10.549,9.377,0.000,-21.099
'[10:02:38.047 08/07/2079]',-21.490,24.225,5.079,8.987,7.424,-7.424,15.629,1.563,8.205,-6.252,0.000,-0.391,10.549,12.894,-42.979,19.927,12.503,-5.861,-4.298,-8.205,15.238,10.940,-42.979
'[10:02:38.051 08/07/2079]',-10.549,14.847,7.424,9.768,10.549,-0.781,12.112,-0.781,2.735,1.172,6.642,-4.298,7.814,-23.053,8.596,11.331,14.066,-3.516,-6.642,-3.516,0.391,-10.159,8.596
'[10:02:38.055 08/07/2079]',-4.689,0.781,3.516,14.847,10.549,-6.642,11.722,-0.391,4.689,1.563,3.126,-3.907,17.192,-33.993,8.205,13.675,12.503,-3.126,-2.735,-6.642,-0.781,-7.814,8.205
'[10:02:38.059 08/07/2079]',-10.159,14.457,0.781,-5.861,10.940,-12.112,14.847,-15.629,-2.735,3.907,3.907,-14.066,-1.954,-12.894,6.252,-0.391,12.503,-6.252,0.000,-11.722,0.391,-2.344,6.252
'[10:02:38.063 08/07/2079]',-21.880,23.443,6.642,-14.847,2.344,5.861,-5.470,-10.159,-6.252,0.781,4.298,-7.033,-10.159,-20.708,16.410,4.689,10.159,-7.814,-5.861,-5.079,-7.814,-9.768,16.410
'[10:02:38.066 08/07/2079]',-7.424,6.642,4.298,-11.722,4.298,3.126,-6.642,-8.205,-0.781,-0.391,2.344,-6.642,7.033,-28.132,8.987,3.907,7.424,-7.814,-3.516,-1.563,-7.814,-10.549,8.987
'[10:02:38.070 08/07/2079]',5.470,-2.735,6.252,-6.252,9.377,1.172,-1.172,-7.424,-2.735,-5.079,0.000,-2.735,14.457,-23.834,-10.549,7.814,4.689,-6.642,-5.470,-4.298,-2.344,0.391,-10.549
'[10:02:38.074 08/07/2079]',-3.126,8.205,-0.781,-0.781,9.377,-3.126,-5.079,1.954,-2.735,-12.112,0.391,6.642,3.907,-29.695,1.954,14.066,1.563,-11.331,1.563,-3.126,-6.642,-11.722,1.954
'[10:02:38.078 08/07/2079]',-14.457,23.443,-1.954,-16.020,5.861,-14.066,-0.781,-0.781,6.642,-3.516,-4.689,-3.516,2.344,-11.331,1.172,1.172,1.172,-10.940,2.735,-1.954,-16.020,-2.735,1.172
'[10:02:38.082 08/07/2079]',-16.020,22.271,0.391,-14.066,5.470,-12.503,5.079,-7.033,-1.172,-2.735,-1.954,-8.205,-3.907,-8.596,0.391,-3.126,-1.954,-4.298,0.391,-5.861,-10.159,1.172,0.391
'[10:02:38.086 08/07/2079]',-18.755,10.549,6.252,-14.847,1.563,-2.344,-1.172,-14.457,-0.391,-3.907,0.391,-7.814,0.781,-10.549,1.563,-4.689,-6.252,-6.252,-5.470,-5.861,-6.252,5.079,1.563
'[10:02:38.090 08/07/2079]',-19.927,10.549,0.781,0.000,-3.907,-1.954,-11.331,8.987,-8.596,-8.205,-3.126,9.377,-5.470,-21.490,3.907,9.768,-5.861,-8.596,0.000,-3.516,-15.629,1.954,3.907
'[10:02:38.094 08/07/2079]',-16.801,14.847,-3.516,-8.205,-3.126,-17.582,-1.563,8.205,-13.284,-8.596,-4.689,7.814,-7.814,-19.536,3.126,4.689,-5.470,-8.205,4.298,-3.907,-17.192,0.000,3.126
'[10:02:38.098 08/07/2079]',-16.801,20.708,-8.596,-5.470,0.000,-20.317,0.781,8.987,-14.066,-12.894,-4.689,8.596,-13.284,-16.801,0.391,5.470,-4.689,-7.424,9.377,-9.377,-19.145,-1.954,0.391
'[10:02:38.102 08/07/2079]',-8.205,10.549,-20.708,16.020,1.172,-34.383,3.126,26.178,-16.801,-23.443,-12.503,30.085,-7.424,-39.072,-6.642,28.913,-7.814,-7.814,21.490,-9.377,-27.741,-6.642,-6.642
'[10:02:38.105 08/07/2079]',0.391,31.648,-9.768,-30.085,5.079,-37.118,34.383,-11.331,0.000,-1.954,-3.126,-22.662,15.629,-16.410,-0.391,-27.350,-3.516,5.861,10.549,-3.907,-19.927,-4.689,-0.391
'[10:02:38.109 08/07/2079]',-37.509,30.085,-1.172,-3.126,-9.768,3.126,-10.549,4.298,1.954,-3.907,-0.781,-0.781,8.596,-10.159,1.954,-5.470,-1.172,6.642,1.954,-2.344,-8.596,0.000,1.954
'[10:02:38.113 08/07/2079]',-35.946,36.728,2.344,-2.344,-6.642,7.424,-3.126,2.344,-3.126,-1.954,3.907,6.252,-1.172,-0.781,3.907,1.563,-1.563,8.596,-1.563,3.126,-10.940,1.954,3.907
'[10:02:38.117 08/07/2079]',-28.132,23.443,5.079,1.172,-13.675,11.331,-3.516,7.814,-1.954,5.079,7.033,7.033,10.159,-7.424,13.284,0.781,0.000,9.768,-4.298,9.768,-15.238,1.954,13.284
'[10:02:38.121 08/07/2079]',-5.079,0.391,10.549,8.987,-8.987,14.847,-1.563,11.331,-3.516,5.079,10.940,11.331,14.457,-12.112,12.112,8.987,3.516,10.940,-9.768,1.954,-12.894,8.596,12.112
'[10:02:38.125 08/07/2079]',-16.410,20.317,9.768,6.252,3.516,1.172,7.033,7.814,-5.079,3.907,8.205,10.159,2.735,-5.470,10.159,9.768,6.642,5.861,-8.987,-2.735,-7.424,6.252,10.159
'[10:02:38.129 08/07/2079]',-27.350,31.648,8.987,-9.377,-4.298,-1.563,10.940,0.000,2.344,8.987,5.861,0.391,7.814,3.907,6.642,-1.172,10.159,4.298,-8.205,6.252,-10.940,6.252,6.642
'[10:02:38.133 08/07/2079]',-10.549,18.364,13.284,-6.252,0.391,6.252,8.987,-1.172,-4.298,5.861,10.940,0.781,14.066,-2.735,0.000,1.563,11.331,11.331,-12.503,3.126,3.126,1.563,0.000
'[10:02:38.137 08/07/2079]',-4.298,9.377,8.987,1.172,0.000,8.205,13.675,-5.861,-10.549,9.768,10.940,2.735,13.284,-11.331,2.735,7.033,9.768,16.020,-8.205,-2.735,0.000,3.126,2.735
'[10:02:38.141 08/07/2079]',-5.470,18.755,6.252,8.987,-2.735,9.377,14.066,7.033,-7.814,15.238,13.284,7.814,11.331,-0.781,7.814,9.768,12.112,17.582,-5.470,1.172,-4.298,5.470,7.814
'[10:02:38.145 08/07/2079]',-9.768,26.178,5.470,16.801,-5.470,11.722,9.768,23.443,-9.377,14.457,12.503,10.940,5.079,4.689,4.689,13.675,15.238,19.536,-4.689,1.563,-3.126,4.298,4.689
'[10:02:38.148 08/07/2079]',-10.159,21.490,3.126,9.768,-1.172,1.172,22.662,0.781,-6.642,19.145,13.284,-1.954,1.954,14.457,2.344,3.907,16.020,20.317,-2.344,-2.735,-2.344,13.284,2.344
'[10:02:38.152 08/07/2079]',-2.344,15.629,12.894,3.907,8.987,19.145,15.238,-13.284,-5.470,19.145,16.020,0.781,14.066,8.596,-0.391,8.596,20.708,16.801,-12.112,1.954,4.298,8.987,-0.391
'[10:02:38.156 08/07/2079]',-5.470,6.642,18.755,2.735,-0.781,22.271,7.033,-5.470,-5.079,13.675,15.629,2.735,21.880,-3.126,-1.563,9.768,22.271,13.284,-17.973,10.159,5.470,1.954,-1.563
'[10:02:38.160 08/07/2079]',-9.768,12.112,12.503,0.000,-1.563,16.801,5.861,-7.033,-8.987,10.159,12.894,3.126,10.940,14.066,-19.145,11.331,19.536,8.596,-11.722,6.642,8.205,8.205,-19.145
'[10:02:38.164 08/07/2079]',-12.112,17.582,14.066,0.781,1.172,21.490,10.159,-12.894,-15.629,12.894,16.020,0.781,2.344,-21.490,22.662,10.549,16.020,6.642,-13.284,0.391,12.112,-26.569,22.662
'[10:02:38.168 08/07/2079]',-10.549,20.708,12.894,5.861,-5.470,19.927,12.503,1.954,-2.344,17.192,7.033,0.391,15.629,-8.987,8.596,7.033,15.238,5.470,-12.112,7.424,-0.781,-5.861,8.596
'[10:02:38.172 08/07/2079]',-3.907,11.722,11.331,-2.344,2.735,6.642,10.159,-3.516,-0.781,17.192,6.642,-6.642,19.536,-8.596,7.814,-3.516,11.722,3.907,-10.549,4.298,9.377,-9.768,7.814
'[10:02:38.176 08/07/2079]',-16.410,19.927,12.894,-7.033,2.735,6.252,6.642,-6.642,-12.894,12.503,2.344,-5.861,1.954,-8.596,4.298,-2.344,6.252,4.298,-12.112,0.781,12.112,-8.205,4.298
'[10:02:38.180 08/07/2079]',-21.490,22.271,14.847,-0.781,1.172,-0.781,4.298,9.768,-8.987,6.642,0.391,11.722,8.987,-1.563,-6.252,9.377,3.907,5.470,-14.066,7.424,13.284,-6.642,-6.252
'[10:02:38.184 08/07/2079]',7.033,2.735,14.457,-5.470,0.391,-4.298,10.940,10.940,-11.722,2.344,3.126,8.205,19.927,-8.987,-7.814,-0.781,0.391,6.642,-13.675,14.457,14.847,-16.410,-7.814
'[10:02:38.188 08/07/2079]',15.629,-13.675,5.470,10.940,-7.424,-3.126,7.424,20.708,-22.662,-7.814,0.000,21.099,17.582,-25.788,-10.549,9.377,-8.205,6.642,-4.689,6.252,17.582,-19.536,-10.549
'[10:02:38.191 08/07/2079]',-9.768,-3.126,-4.298,23.053,-24.615,-18.364,8.205,40.244,-31.258,-17.192,-5.079,33.602,-2.735,-24.615,-8.596,16.410,-12.503,0.391,5.079,3.907,12.112,-23.053,-8.596
'[10:02:38.195 08/07/2079]',-2.344,17.582,-1.954,-20.317,-21.880,-26.178,30.476,9.377,-14.847,-5.861,5.079,3.126,4.298,-2.735,3.516,-19.536,-8.205,0.391,2.735,10.940,6.642,-27.741,3.516
'[10:02:38.199 08/07/2079]',-18.364,0.000,-0.781,5.079,-28.523,-5.079,-4.298,24.615,-21.490,-15.238,0.391,33.211,1.172,-17.192,-2.344,14.457,-13.675,-1.172,1.563,9.768,5.861,-23.053,-2.344
'[10:02:38.203 08/07/2079]',-3.126,-5.470,0.391,4.298,-22.271,-7.814,8.205,18.364,-22.662,-13.675,0.391,27.350,4.298,-19.927,-4.689,10.549,-16.020,1.172,0.391,5.470,0.391,-15.238,-4.689
'[10:02:38.207 08/07/2079]',10.940,1.172,2.344,-10.549,-10.159,-6.252,9.377,11.722,-5.861,-7.033,1.954,15.629,13.675,-5.861,-1.172,-2.735,-10.940,-1.563,-1.563,13.284,-4.298,-13.284,-1.172
'[10:02:38.211 08/07/2079]',3.516,-5.470,5.079,0.781,-16.801,11.331,-17.192,27.350,-18.755,-13.675,-2.344,25.397,-3.907,-0.391,-12.894,7.814,-12.894,-3.907,-4.298,20.317,-3.126,-12.503,-12.894
'[10:02:38.215 08/07/2079]',1.172,8.987,12.112,7.814,-5.470,8.987,-2.344,30.085,-19.145,-10.159,1.172,15.629,-6.642,3.516,-7.424,-1.563,-10.549,0.000,-11.331,19.145,0.391,-16.020,-7.424
'[10:02:38.219 08/07/2079]',10.940,10.159,9.768,3.126,3.516,7.814,2.735,19.927,-14.066,-3.516,2.735,15.238,-1.563,0.391,1.172,-0.781,-7.424,0.391,-8.987,14.847,-0.391,-19.536,1.172
'[10:02:38.223 08/07/2079]',10.159,4.298,10.159,10.159,-2.344,12.503,-4.298,29.304,-17.973,-2.735,6.252,26.569,0.000,-7.814,9.377,10.159,-2.735,4.298,-9.377,20.708,-3.126,-29.304,9.377
'[10:02:38.227 08/07/2079]',-2.735,24.615,8.205,7.814,0.391,8.205,-5.470,34.383,-11.722,0.781,1.172,23.834,-4.689,3.907,5.079,8.205,-0.391,4.689,-7.424,15.238,-8.205,-17.192,5.079
'[10:02:38.230 08/07/2079]',1.954,16.020,7.033,1.563,0.000,3.516,5.079,18.364,-8.987,1.563,4.689,18.364,-4.689,7.033,7.033,5.079,0.391,6.642,-6.252,8.987,-8.987,-8.596,7.033
'[10:02:38.234 08/07/2079]',7.424,6.252,8.205,-2.735,-5.861,11.331,0.000,13.675,-7.814,1.954,9.768,15.238,1.954,3.126,8.205,5.079,0.781,4.689,-7.424,16.801,-17.973,-6.642,8.205
'[10:02:38.238 08/07/2079]',17.582,-5.470,7.424,5.861,-1.172,9.768,-1.172,18.364,-9.377,1.954,10.940,14.847,6.252,-1.172,5.470,8.205,2.735,5.079,-6.642,14.066,-14.847,-4.298,5.470
'[10:02:38.242 08/07/2079]',10.940,-0.391,7.424,3.126,1.563,-0.781,9.377,11.331,-4.689,5.861,13.284,12.112,1.563,4.689,11.331,8.987,5.470,4.298,-6.642,5.470,-9.377,-4.689,11.331
'[10:02:38.246 08/07/2079]',-1.563,16.020,4.298,0.000,-3.516,0.391,11.722,9.768,-5.079,8.205,12.112,14.457,-10.549,14.457,13.284,12.503,8.987,2.735,-3.516,10.940,-21.880,-1.954,13.284
'[10:02:38.250 08/07/2079]',15.629,-2.735,9.768,4.689,2.344,-4.689,13.675,16.020,-9.377,4.298,10.159,13.675,-6.252,8.596,1.954,14.066,11.331,2.344,-8.987,14.457,-12.503,-2.735,1.954
'[10:02:38.254 08/07/2079]',23.053,-9.377,13.675,0.000,9.768,-4.298,17.973,3.907,-8.987,5.470,10.159,4.298,-0.391,2.735,0.000,7.424,13.284,3.907,-12.894,4.298,-7.814,5.470,0.000
'[10:02:38.258 08/07/2079]',5.861,3.126,14.847,-0.781,6.252,12.894,-0.781,3.516,-7.424,4.298,9.377,5.861,-10.159,19.145,-3.907,6.642,14.847,0.391,-14.066,6.642,-8.987,16.020,-3.907
'[10:02:38.262 08/07/2079]',-3.126,19.536,17.973,0.781,4.298,8.596,5.079,16.410,-4.689,3.126,15.238,8.987,-10.940,26.960,-1.172,9.377,15.238,1.172,-17.192,8.987,-0.391,6.252,-1.172
'[10:02:38.266 08/07/2079]',6.252,7.033,13.675,5.079,5.079,7.814,6.252,12.112,-1.954,5.470,19.145,6.642,-1.563,3.126,14.847,12.894,12.112,8.596,-12.894,1.172,1.563,-7.814,14.847
'[10:02:38.270 08/07/2079]',6.642,-1.172,11.331,17.192,1.172,8.205,10.159,14.066,5.470,12.503,10.549,10.940,11.331,-1.954,18.364,13.284,10.159,11.331,-10.549,-2.735,5.861,-4.689,18.364
'[10:02:38.273 08/07/2079]',11.331,1.563,10.549,-1.172,-2.344,-5.470,22.662,7.814,5.079,10.940,14.457,-11.331,12.894,-5.470,27.350,-14.457,3.907,5.861,-9.768,4.689,7.814,-17.582,27.350
'[10:02:38.277 08/07/2079]',-2.735,-7.033,0.000,12.112,-1.172,3.516,-21.880,21.099,-1.954,0.391,-2.344,1.172,-0.391,-5.861,8.205,-4.689,1.172,-7.033,0.781,6.252,21.490,-16.020,8.205
'[10:02:38.281 08/07/2079]',-14.066,-3.516,-8.987,6.252,-4.689,-4.689,-16.410,5.861,-5.079,-3.907,-9.377,1.954,-5.079,2.735,-3.126,-10.549,-4.298,-13.284,9.768,10.159,28.913,-10.159,-3.126
'[10:02:38.285 08/07/2079]',-8.987,-10.549,-17.582,-1.954,-5.861,-12.112,-16.801,-3.907,-10.159,-11.331,-15.238,-0.781,-5.861,0.391,-12.894,-20.708,-10.940,-22.271,18.364,19.145,32.430,-11.331,-12.894
'[10:02:38.289 08/07/2079]',-4.298,-16.020,-19.927,1.172,-7.814,-13.675,-23.834,6.642,-13.675,-16.801,-19.536,4.689,-8.596,0.391,-21.099,-16.020,-12.112,-23.834,20.708,26.569,35.165,-15.238,-21.099
'[10:02:38.293 08/07/2079]',-6.642,-15.629,-15.238,11.722,-18.755,-11.722,-9.768,14.847,-13.284,-13.284,-14.847,6.252,-8.987,-1.563,-12.503,-11.722,-11.722,-13.675,16.020,22.662,26.960,-14.847,-12.503
'[10:02:38.297 08/07/2079]',-11.331,-14.457,-10.940,1.954,-16.801,-17.973,-8.596,9.377,-7.814,-13.284,-16.801,-5.861,-6.642,-2.344,-11.331,-24.225,-17.973,-16.020,11.722,24.615,20.317,-19.536,-11.331
'[10:02:38.301 08/07/2079]',12.503,-23.443,-8.205,2.735,-12.112,-11.331,-7.814,16.410,-3.907,-12.112,-11.331,0.391,5.079,-5.861,-10.549,-15.238,-18.364,-9.768,8.987,28.913,5.861,-19.927,-10.549
'[10:02:38.305 08/07/2079]',13.284,-35.556,-3.907,4.689,-17.582,-10.549,-10.159,17.973,-7.814,-12.112,-8.987,2.344,4.689,-13.675,-7.033,-9.768,-19.536,-4.689,4.689,17.582,-1.172,-14.457,-7.033
'[10:02:38.309 08/07/2079]',8.205,-14.066,-8.205,-0.391,-7.033,-21.880,0.391,13.675,-6.642,-12.503,-10.549,11.722,-4.689,-5.079,-3.516,-3.907,-17.582,-2.735,8.987,11.722,-1.954,-14.847,-3.516
'[10:02:38.313 08/07/2079]',9.768,1.172,-4.298,-19.145,-3.907,-16.801,5.470,3.126,-2.735,-6.252,-6.642,7.424,-8.987,10.940,-1.563,-7.814,-11.722,1.172,5.079,18.755,-11.722,-9.768,-1.563
'[10:02:38.316 08/07/2079]',20.317,-12.894,7.033,14.457,-2.735,8.596,-4.298,27.741,-8.205,-6.642,3.907,21.099,-6.252,2.735,1.954,11.331,-6.252,11.722,-6.252,16.020,-10.549,-7.033,1.954
'[10:02:38.320 08/07/2079]',35.946,-29.304,5.861,16.020,0.391,9.768,0.391,17.582,-12.112,-8.987,5.861,13.284,1.172,-20.317,8.987,6.642,-6.252,13.675,-5.079,9.768,-2.344,-19.145,8.987
'[10:02:38.324 08/07/2079]',26.178,-16.801,12.112,6.642,-1.563,13.675,1.563,14.847,-14.066,-5.470,6.252,5.861,-9.768,8.596,-5.470,-1.172,-1.954,10.159,-11.331,10.159,-3.907,4.298,-5.470
'[10:02:38.328 08/07/2079]',7.033,-2.735,14.457,1.563,-12.894,20.317,-5.079,18.755,-8.596,-2.344,9.377,5.861,-9.768,13.284,0.391,0.391,3.126,10.159,-13.675,7.814,0.391,-3.516,0.391
'[10:02:38.332 08/07/2079]',12.112,-7.814,11.722,-3.907,-7.424,12.112,3.907,3.516,-8.596,1.172,2.344,-2.735,-11.722,1.563,10.159,-7.033,4.689,10.940,-10.940,1.954,3.126,-11.722,10.159
'[10:02:38.336 08/07/2079]',17.973,-8.987,11.331,6.252,-3.126,3.126,21.880,5.861,-5.079,6.252,2.344,2.735,-5.470,0.000,13.675,-1.172,6.252,14.457,-10.549,2.344,-1.172,-4.298,13.675
'[10:02:38.340 08/07/2079]',20.317,-4.298,13.284,8.205,0.000,12.894,16.020,8.205,5.079,7.033,4.298,11.722,6.252,9.377,2.735,10.159,12.503,15.629,-12.503,1.954,3.516,0.391,2.735
'[10:02:38.344 08/07/2079]',18.364,-12.503,12.894,14.847,1.172,11.331,9.768,10.549,5.861,3.907,0.391,8.205,6.252,7.033,-5.470,11.331,13.675,13.284,-12.112,0.391,10.159,2.344,-5.470
'[10:02:38.348 08/07/2079]',13.284,-8.987,6.642,23.053,3.126,6.252,16.410,8.205,2.344,1.563,1.563,6.252,-1.954,13.284,-9.768,11.722,10.549,9.377,-5.861,-3.907,11.722,8.987,-9.768
'[10:02:38.352 08/07/2079]',21.099,-13.284,23.443,1.172,12.112,33.211,7.814,-21.099,13.284,2.344,3.907,0.391,17.582,32.430,-43.370,14.066,20.708,10.940,-22.662,-3.126,23.834,28.913,-43.370
'[10:02:38.355 08/07/2079]',3.907,-15.629,20.317,12.503,1.563,21.490,-0.781,-0.781,5.079,7.424,1.954,-3.516,5.079,0.391,0.781,4.689,18.755,7.424,-19.536,-1.172,17.973,-0.391,0.781
'[10:02:38.359 08/07/2079]',0.391,-4.298,13.675,14.066,8.987,13.675,5.470,-2.735,-0.391,10.159,3.907,-6.252,-12.503,6.252,8.987,3.907,19.536,12.112,-12.894,-5.470,17.192,-0.391,8.987
'[10:02:38.363 08/07/2079]',-1.172,3.516,20.317,6.642,9.768,10.549,16.801,-7.424,4.298,11.331,7.814,-3.516,-10.159,14.847,7.424,7.424,20.708,12.503,-19.536,-1.954,18.755,0.391,7.424
'[10:02:38.367 08/07/2079]',7.814,-1.172,18.755,15.238,8.205,5.861,25.006,1.563,11.722,16.410,10.940,-5.470,7.814,7.033,12.112,7.424,20.708,13.284,-17.973,0.391,16.410,0.391,12.112
'[10:02:38.371 08/07/2079]',20.708,-28.523,14.066,28.132,7.033,12.503,10.159,5.470,7.424,9.768,5.079,-1.954,16.020,-4.298,-1.954,11.722,16.020,10.549,-13.284,0.781,25.788,5.861,-1.954
'[10:02:38.375 08/07/2079]',1.954,-11.331,15.238,12.503,1.954,10.549,14.066,-7.814,15.238,9.768,6.252,-8.987,17.973,12.112,-10.940,3.126,15.629,5.079,-14.457,0.000,32.430,14.066,-10.940
'[10:02:38.379 08/07/2079]',-20.708,2.344,13.675,11.722,-0.781,5.861,0.781,1.954,12.894,6.642,0.391,-10.159,9.377,20.317,-18.755,0.391,13.284,-2.344,-12.894,5.861,37.118,10.159,-18.755
'[10:02:38.383 08/07/2079]',-12.894,-20.317,8.205,16.801,-8.596,0.000,-3.516,5.861,2.735,0.000,-3.126,-4.689,10.159,-0.391,-15.629,1.172,3.907,0.391,-7.424,10.159,39.072,0.000,-15.629
'[10:02:38.387 08/07/2079]',-1.172,-26.960,3.516,13.284,-5.079,-8.205,7.424,-4.298,1.954,-1.563,-7.033,-4.298,15.629,-8.987,-16.020,-1.563,-1.563,2.344,-2.735,3.126,38.291,0.781,-16.020
'[10:02:38.391 08/07/2079]',-7.424,-12.894,5.470,7.033,-7.424,-10.159,9.377,1.954,3.516,-3.907,-6.642,2.735,10.940,1.563,-18.364,1.563,-5.079,0.781,-4.689,5.079,39.072,-1.172,-18.364
'[10:02:38.395 08/07/2079]',-24.615,-6.252,3.907,5.079,-21.880,-8.596,-1.563,11.331,-1.563,-6.642,-10.159,2.344,-0.391,4.298,-16.020,-3.126,-10.549,0.781,-3.126,8.987,33.211,-3.126,-16.020
'[10:02:38.398 08/07/2079]',-16.020,-5.470,11.722,3.126,-10.940,-3.516,4.689,3.516,-0.781,-5.861,-4.689,1.172,-1.172,8.596,-12.112,-5.470,-11.331,3.907,-10.940,3.516,29.695,3.126,-12.112
'[10:02:38.402 08/07/2079]',-10.940,-8.987,10.940,16.020,-10.159,-5.470,12.894,10.940,3.907,-5.470,-2.735,13.284,13.284,3.907,-14.066,5.861,-12.894,7.033,-10.159,3.126,25.397,8.205,-14.066
'[10:02:38.406 08/07/2079]',-3.516,-14.847,6.642,14.066,-14.457,-10.159,10.940,16.801,0.781,-4.298,-3.516,14.066,16.801,0.000,-17.973,7.814,-9.768,6.642,-5.861,7.814,15.629,8.205,-17.973
'[10:02:38.410 08/07/2079]',-1.563,-11.722,3.516,15.238,-12.112,-14.457,16.020,16.801,-0.781,-6.252,-1.172,17.973,10.940,6.642,-19.536,11.331,-5.470,7.033,-2.735,7.033,8.987,12.503,-19.536
'[10:02:38.414 08/07/2079]',-3.126,-6.642,-9.768,32.430,-13.675,-12.503,16.410,22.662,0.391,-6.642,-7.814,41.807,14.066,-4.689,-20.317,37.509,-3.126,6.252,10.549,0.000,3.516,5.861,-20.317
'[10:02:38.418 08/07/2079]',15.629,1.563,3.907,-8.205,1.172,-7.814,25.788,-5.861,2.344,8.987,0.781,-3.516,12.112,2.344,0.000,-4.689,-1.172,3.126,-3.126,1.954,1.563,-2.344,0.000
'[10:02:38.422 08/07/2079]',3.907,-4.298,6.252,3.516,1.172,9.768,-7.814,7.033,0.391,1.563,1.954,0.000,5.470,-7.814,8.987,-2.344,3.126,-4.298,-5.470,3.126,-5.079,-2.735,8.987
'[10:02:38.426 08/07/2079]',-5.079,13.675,12.503,8.596,5.079,8.596,1.954,14.847,5.470,1.954,9.377,19.145,1.172,9.377,3.907,21.099,5.470,0.000,-11.722,-6.642,-2.344,5.470,3.907
'[10:02:38.430 08/07/2079]',-7.814,21.880,8.987,-7.814,7.033,4.298,1.954,1.954,3.516,1.954,10.940,-1.954,-7.814,20.708,1.954,0.391,3.516,-5.470,-8.205,1.172,-6.642,3.907,1.954
'[10:02:38.434 08/07/2079]',-3.907,4.298,8.987,13.284,0.000,7.814,0.391,15.629,3.516,-1.563,18.364,26.569,0.781,16.801,2.735,26.960,5.079,0.000,-8.205,7.424,-12.503,10.549,2.735
'[10:02:38.438 08/07/2079]',14.457,-0.391,1.563,19.536,3.907,5.861,9.768,15.629,0.000,-9.377,19.145,34.383,10.549,17.582,-22.271,38.291,2.735,2.735,-0.781,-2.735,-5.861,17.973,-22.271
'[10:02:38.441 08/07/2079]',-3.126,14.066,-2.735,3.907,8.596,-4.298,12.503,-3.516,-0.781,5.079,13.284,-0.391,-10.159,1.172,26.960,0.000,0.391,0.000,3.516,-10.940,-12.503,0.391,26.960
'[10:02:38.445 08/07/2079]',-13.284,24.615,1.954,-1.563,6.642,3.126,2.344,-1.172,0.391,7.033,16.801,-6.642,-17.582,14.847,26.569,-5.079,3.907,-1.172,-1.172,-2.735,-18.364,1.563,26.569
'[10:02:38.449 08/07/2079]',-7.424,20.317,1.172,6.642,7.814,7.814,3.907,1.172,-0.391,7.814,17.192,-1.563,-7.424,0.391,22.662,7.033,7.424,2.344,-0.391,-11.331,-15.238,0.000,22.662
'[10:02:38.453 08/07/2079]',3.126,7.814,1.954,9.377,12.112,0.781,17.192,-8.205,2.344,13.284,18.364,-6.642,5.079,-7.424,26.960,3.126,8.596,4.298,-1.172,-17.192,-7.033,1.172,26.960
'[10:02:38.457 08/07/2079]',-5.861,15.238,6.252,11.722,2.735,4.689,15.238,3.126,4.298,12.503,22.662,1.954,7.814,3.516,19.536,11.331,12.894,1.563,-5.470,-7.033,-9.377,6.642,19.536
'[10:02:38.461 08/07/2079]',-13.675,18.755,4.689,10.940,-4.298,3.907,16.020,5.470,12.503,10.940,19.536,12.112,16.020,11.331,8.987,19.145,17.582,0.781,-3.907,-5.861,2.735,8.596,8.987
'[10:02:38.465 08/07/2079]',-16.801,19.927,1.563,0.391,5.861,-7.814,21.880,-14.457,7.814,8.987,18.364,-4.689,4.689,10.549,12.112,3.516,12.894,-1.563,-0.781,-10.940,3.126,7.814,12.112
'[10:02:38.469 08/07/2079]',-15.629,6.642,9.377,-3.126,5.861,9.377,7.814,-25.397,8.596,8.596,15.238,-20.708,1.563,8.205,8.205,-5.470,12.112,-5.861,-8.596,-3.516,-1.172,13.675,8.205
'[10:02:38.473 08/07/2079]',0.391,-1.563,8.205,8.596,13.284,10.940,1.563,-9.768,9.377,10.940,12.112,-10.159,1.172,10.940,3.126,7.424,15.629,-4.689,-7.424,-3.126,-0.781,12.894,3.126
'[10:02:38.477 08/07/2079]',-5.861,-1.954,4.298,0.000,8.987,5.470,-1.954,-16.410,8.987,10.940,7.424,-16.801,-7.033,12.503,4.298,1.563,13.675,-8.205,-3.516,-3.907,-3.516,12.112,4.298
'[10:02:38.480 08/07/2079]',10.549,-3.126,11.331,12.112,20.317,11.722,5.470,-7.033,12.112,12.503,5.470,-7.814,-5.079,13.284,2.735,11.331,16.020,-7.033,-10.549,-6.252,-3.907,16.020,2.735
'[10:02:38.484 08/07/2079]',13.675,-11.722,10.159,10.549,9.377,9.377,7.033,-3.516,10.549,11.331,3.907,0.391,4.689,6.642,0.781,13.284,13.675,-8.987,-9.377,-3.907,-4.689,12.894,0.781
'[10:02:38.488 08/07/2079]',17.192,-10.940,5.861,0.391,9.377,3.126,10.159,-10.940,10.159,8.987,1.172,-2.344,15.238,0.391,-1.954,5.470,13.284,-6.642,-5.079,-8.205,-1.563,14.066,-1.954
'[10:02:38.492 08/07/2079]',3.516,5.861,5.079,-6.642,11.722,1.954,11.722,-18.755,5.470,3.907,2.735,-13.284,7.814,5.861,-7.424,-7.814,9.768,-5.861,-4.298,-14.457,7.033,14.066,-7.424
'[10:02:38.496 08/07/2079]',-30.085,22.662,3.907,-2.735,-8.205,6.642,2.735,-7.814,2.735,0.000,3.907,-3.907,-1.172,10.940,-4.689,-0.391,6.642,-4.689,-3.126,-9.377,3.907,7.424,-4.689
'[10:02:38.500 08/07/2079]',-14.066,9.377,-1.563,1.563,-6.642,5.470,-0.781,-3.126,10.940,0.000,1.954,8.987,14.457,0.391,-0.391,7.814,3.907,0.391,2.344,-4.298,0.781,2.344,-0.391
'[10:02:38.504 08/07/2079]',8.205,-7.814,-5.079,-2.344,0.000,-5.470,10.549,-12.503,10.159,-1.954,0.391,5.079,19.927,-7.424,-0.781,2.344,-1.954,2.735,5.861,-7.424,-2.735,5.079,-0.781
'[10:02:38.508 08/07/2079]',-7.424,-0.391,-3.907,1.954,-10.159,-9.377,9.377,-0.391,5.861,-4.689,-1.954,11.722,4.298,6.642,-7.814,8.596,-3.907,-1.954,4.689,-5.861,-5.861,12.503,-7.814
'[10:02:38.512 08/07/2079]',-3.907,-0.781,-8.596,8.205,-3.126,-17.973,2.344,13.284,3.516,-8.987,-7.033,24.615,-3.516,12.503,-17.973,21.490,-5.861,-4.689,9.377,2.344,-7.424,11.722,-17.973
'[10:02:38.516 08/07/2079]',17.973,0.000,0.000,-15.238,8.596,-20.317,29.304,-16.020,2.735,0.781,7.424,-7.424,3.516,8.987,4.689,-13.284,-7.033,2.344,0.781,-2.735,-3.126,7.033,4.689
'[10:02:38.520 08/07/2079]',7.424,-14.847,0.000,8.596,9.377,-2.344,0.000,-5.861,-3.516,-4.298,-0.781,4.689,8.205,-12.894,-3.126,3.126,-10.549,-2.735,0.781,-3.126,5.079,6.642,-3.126
'[10:02:38.523 08/07/2079]',3.516,-5.470,0.391,5.470,5.470,-7.033,0.391,5.079,2.735,-3.907,-0.391,5.861,18.364,-5.470,-9.377,1.172,-12.112,-1.954,0.391,0.781,3.126,4.689,-9.377
'[10:02:38.527 08/07/2079]',-1.172,9.768,0.391,0.391,9.377,-6.642,-0.781,7.033,10.549,2.344,-5.079,-1.172,23.053,2.735,-8.987,-8.596,-9.377,0.391,0.391,1.172,3.516,8.596,-8.987
'[10:02:38.531 08/07/2079]',-10.549,12.112,-6.642,2.735,1.172,-12.894,2.735,5.861,7.814,0.391,-7.814,1.954,19.536,8.205,-20.708,-2.735,-11.722,1.563,7.424,-5.079,0.000,17.582,-20.708
'[10:02:38.535 08/07/2079]',-6.252,14.457,-6.252,-4.689,-0.781,-14.066,12.894,-0.391,12.503,0.781,-8.596,-6.642,31.648,26.960,-48.059,-10.940,-9.768,0.781,7.033,-3.126,5.470,33.211,-48.059
'[10:02:38.539 08/07/2079]',-10.159,16.020,-5.079,-2.735,-4.689,-1.563,-0.391,4.689,7.814,10.159,-4.298,-6.642,19.536,7.424,-2.344,-16.410,-4.689,0.781,5.861,1.563,-1.563,14.847,-2.344
'[10:02:38.543 08/07/2079]',-11.331,13.675,-10.549,-5.079,-6.642,-0.781,-2.735,-3.126,-0.391,10.549,-3.907,-9.768,16.020,4.298,-3.907,-19.927,-7.033,0.391,11.331,-6.252,9.768,14.066,-3.907
'[10:02:38.547 08/07/2079]',-21.490,24.225,-9.377,-7.814,0.000,2.344,-7.814,-9.768,7.033,13.675,-11.722,-14.847,19.927,13.284,-14.066,-23.443,-6.252,-3.126,10.159,-1.172,12.112,16.801,-14.066
'[10:02:38.551 08/07/2079]',-9.768,8.596,-11.722,-1.172,-3.907,3.126,-12.503,-1.954,3.907,14.066,-13.284,-12.503,28.132,4.689,-18.755,-20.708,-7.814,-5.470,12.503,5.470,8.205,14.457,-18.755
'[10:02:38.555 08/07/2079]',10.940,-1.954,-11.722,-5.861,7.424,1.954,-8.205,-11.722,3.907,12.503,-13.675,-17.973,37.900,5.079,-33.993,-22.662,-5.861,-2.344,12.503,1.954,12.503,21.490,-33.993
'[10:02:38.559 08/07/2079]',-11.722,12.503,-2.735,-4.298,-1.563,-2.344,1.954,-5.470,7.424,10.940,-10.549,-20.317,25.788,28.523,-46.496,-19.145,-3.516,-0.391,3.516,-5.079,11.331,30.867,-46.496
'[10:02:38.563 08/07/2079]',-27.350,26.569,-3.126,0.781,-7.814,3.126,-3.907,4.689,2.735,6.642,-7.424,-10.159,11.331,27.741,-37.900,-7.424,-0.781,-2.344,3.907,1.954,8.987,13.675,-37.900
'[10:02:38.566 08/07/2079]',-14.066,13.284,-2.344,7.424,-6.252,7.033,-6.252,9.377,0.781,8.205,-6.642,-2.344,12.894,9.377,-25.397,1.954,1.172,-1.563,3.126,4.298,2.735,3.126,-25.397
'[10:02:38.570 08/07/2079]',-14.066,5.470,-5.079,11.331,-8.596,0.000,-1.563,7.814,-0.391,4.689,-5.470,3.907,14.847,-7.814,-12.503,9.377,-0.781,-1.563,5.861,-1.172,-1.172,-5.861,-12.503
'[10:02:38.574 08/07/2079]',-18.755,19.145,-13.675,3.126,-5.079,-1.954,-8.205,5.470,-6.642,4.298,-8.596,-1.172,-3.907,4.298,-13.284,0.781,-1.172,-9.768,14.457,3.907,-14.457,-0.391,-13.284
'[10:02:38.578 08/07/2079]',-16.801,28.132,-10.549,-8.987,-2.344,1.954,-17.192,8.205,-7.424,4.298,-7.814,1.563,-13.675,8.205,-12.112,8.205,1.563,-13.284,11.331,8.205,-26.960,-7.424,-12.112
'[10:02:38.582 08/07/2079]',-8.205,23.053,-8.987,-14.066,4.298,-1.172,-9.377,-1.954,-1.954,3.907,-1.172,3.516,-8.987,5.079,-3.516,12.894,1.172,-6.642,9.768,1.954,-35.165,-8.596,-3.516
'[10:02:38.586 08/07/2079]',10.940,25.788,-3.126,-13.284,15.629,5.470,1.954,-3.516,-1.172,5.079,3.126,-0.391,-4.298,3.907,-3.126,10.549,6.252,-1.563,3.907,-5.470,-33.211,-9.768,-3.126
'[10:02:38.590 08/07/2079]',8.987,25.397,-1.563,-8.987,7.424,11.331,-2.735,6.642,2.735,4.689,3.907,-2.735,1.954,-5.079,-0.391,13.675,10.549,-3.126,2.344,-2.735,-39.072,-15.238,-0.391
'[10:02:38.594 08/07/2079]',-1.954,19.927,-3.516,0.000,-2.344,2.735,-0.781,14.066,4.298,4.689,8.987,5.470,-5.470,-5.861,17.973,17.973,13.675,-2.344,4.298,-2.344,-49.231,-15.238,17.973
'[10:02:38.598 08/07/2079]',-1.954,28.132,-6.642,-4.298,1.954,-1.172,10.159,3.516,-3.907,5.079,16.020,-0.781,-18.364,2.344,25.788,7.033,15.629,-2.344,7.424,-11.722,-43.370,-8.596,25.788
'[10:02:38.602 08/07/2079]',14.066,4.689,-3.907,-3.126,5.861,14.847,-7.424,-1.172,-5.079,5.079,12.112,-7.424,-12.112,-8.205,23.443,0.781,10.549,-7.814,4.689,-5.861,-43.370,-4.689,23.443
'[10:02:38.605 08/07/2079]',14.457,0.000,-0.781,-7.424,2.344,14.066,-13.675,3.126,1.954,6.252,15.238,4.689,-11.331,0.391,30.476,9.768,10.159,-5.470,1.563,1.172,-50.012,-2.344,30.476
'[10:02:38.609 08/07/2079]',23.443,8.205,-3.907,-9.768,18.364,9.768,-15.629,3.516,0.391,0.391,11.722,7.033,-19.145,4.689,24.615,10.159,5.861,-5.079,4.689,-11.722,-34.383,-5.079,24.615
'[10:02:38.613 08/07/2079]',20.317,13.675,-4.298,-13.675,16.801,9.768,-14.066,2.344,8.596,5.079,1.954,-7.424,-20.317,9.377,22.271,-2.735,0.391,-6.642,5.079,-6.642,-37.900,-3.516,22.271
'[10:02:38.617 08/07/2079]',26.569,1.954,-3.516,-13.284,12.112,9.377,-11.331,0.781,11.331,6.252,8.205,-7.033,-10.549,8.987,25.006,-2.735,-0.391,-2.344,4.298,0.391,-39.853,-0.391,25.006
'[10:02:38.621 08/07/2079]',25.397,-11.722,-2.735,6.252,8.987,5.861,-7.814,8.987,10.940,5.079,12.503,1.954,-1.172,1.172,25.397,7.424,0.391,0.391,3.516,-5.470,-34.774,8.205,25.397
'[10:02:38.625 08/07/2079]',7.424,-1.172,-7.424,3.516,5.079,0.391,-6.642,3.907,5.470,11.331,2.735,3.907,-16.801,11.722,23.834,5.861,-0.781,-4.298,8.205,-7.424,-31.648,15.629,23.834
'[10:02:38.629 08/07/2079]',0.391,9.768,-14.066,-6.252,0.000,-7.424,-3.907,0.781,5.861,9.768,1.954,1.563,-20.317,26.960,14.457,0.391,-1.563,-7.814,14.847,1.954,-30.085,14.457,14.457
'[10:02:38.633 08/07/2079]',13.675,-2.344,-13.675,11.722,3.907,-7.033,-2.344,13.675,2.735,4.298,1.172,11.722,-10.159,1.563,16.020,14.457,-1.954,-5.861,14.457,-0.391,-28.913,4.689,16.020
'[10:02:38.637 08/07/2079]',21.490,-13.675,-30.085,26.178,3.516,-14.457,-4.689,17.582,-2.344,1.172,-13.284,19.927,-10.940,-16.801,14.457,18.755,-10.159,-8.596,30.867,-9.768,-26.569,1.172,14.457
'[10:02:38.641 08/07/2079]',33.993,0.391,-16.801,-0.391,8.987,-15.629,18.755,3.126,13.675,10.549,-1.954,-9.377,-1.172,11.331,16.410,-13.284,-4.298,-3.126,17.582,-3.907,-33.211,12.112,16.410
'[10:02:38.645 08/07/2079]',8.987,6.642,-12.894,12.894,1.954,3.126,-10.159,19.145,6.642,3.126,-4.298,1.563,-11.722,8.987,14.066,-2.735,-3.907,-8.205,13.675,-2.735,-25.006,8.987,14.066
'[10:02:38.648 08/07/2079]',10.940,2.344,-8.987,8.987,3.126,2.344,0.391,5.861,7.033,5.079,-2.735,6.252,-13.284,17.192,11.722,0.391,-4.298,-0.781,9.768,-4.298,-26.960,17.192,11.722
'[10:02:38.652 08/07/2079]',19.536,-0.781,-3.516,3.126,2.735,5.470,14.847,-5.470,8.205,9.377,0.391,1.563,-2.735,29.695,1.954,-7.033,-3.516,3.126,4.298,-2.344,-25.788,25.006,1.954
'[10:02:38.656 08/07/2079]',20.708,-3.907,-8.596,4.298,0.781,2.344,8.987,-0.391,6.642,3.126,-3.126,-0.391,6.252,0.391,8.596,-8.987,-4.298,0.781,9.377,0.000,-15.629,1.954,8.596
'[10:02:38.660 08/07/2079]',9.768,-6.252,-13.284,8.205,-6.252,9.768,-7.424,1.172,3.126,0.781,-5.470,7.033,-0.781,-1.563,7.814,1.563,-5.861,2.735,14.066,0.781,-15.238,-3.126,7.814
'[10:02:38.664 08/07/2079]',13.284,-3.126,-7.814,1.563,0.391,5.861,3.516,-6.642,5.079,2.735,-4.689,-1.954,0.781,0.781,8.205,-8.205,-9.377,2.735,8.596,-0.391,-17.582,-1.172,8.205
'[10:02:38.668 08/07/2079]',18.755,-13.675,-10.940,-3.516,1.563,0.391,-5.079,-7.424,1.954,-3.907,-9.377,-6.642,0.391,-7.814,3.516,-15.238,-14.066,-7.814,11.722,4.689,-6.642,-8.205,3.516
'[10:02:38.672 08/07/2079]',19.145,-22.271,-8.596,-7.814,-1.563,-0.391,-13.675,-4.298,1.172,-6.642,-13.284,-6.642,-2.735,-2.735,-4.689,-14.457,-16.801,-10.549,9.377,6.252,-10.940,-0.781,-4.689
'[10:02:38.676 08/07/2079]',12.894,-14.457,-7.814,-2.735,2.344,-10.549,-4.689,0.391,5.079,-10.159,-12.503,-1.954,-10.549,12.112,-12.503,-8.596,-17.973,-10.549,8.596,-0.391,-7.033,7.424,-12.503
'[10:02:38.680 08/07/2079]',5.079,-0.391,-5.079,-8.205,2.735,-12.894,0.391,0.391,4.689,-9.768,-11.722,-4.689,-19.145,14.847,-7.814,-9.768,-16.801,-13.675,5.861,1.954,-6.642,0.000,-7.814
'[10:02:38.684 08/07/2079]',14.066,-11.722,-2.344,-2.344,0.391,-3.126,-3.907,3.516,11.722,-5.079,-10.159,-7.033,3.126,4.689,-8.596,-10.159,-13.284,-8.205,3.126,4.689,1.563,-4.689,-8.596
'[10:02:38.688 08/07/2079]',21.880,-22.271,1.172,6.642,4.689,4.689,-3.516,0.781,11.722,-3.126,-5.470,-1.563,14.066,-1.172,-10.940,-0.781,-8.205,-1.563,-0.391,0.781,7.424,1.172,-10.940
'[10:02:38.691 08/07/2079]',-1.563,-7.033,5.861,3.126,-0.391,1.563,0.000,0.000,2.735,-4.298,-3.126,-5.861,-1.563,7.814,-10.549,-6.642,-7.814,-3.907,-5.079,-1.172,15.629,8.205,-10.549
'[10:02:38.695 08/07/2079]',-21.880,7.424,4.298,-5.470,-10.549,-3.907,0.391,-1.172,5.470,-2.735,-6.252,-7.814,-2.735,12.503,-11.722,-9.377,-6.642,-4.689,-3.516,2.735,23.053,1.563,-11.722
'[10:02:38.699 08/07/2079]',-8.987,-9.768,6.252,-3.516,-5.861,-5.470,1.172,-6.252,7.424,-7.424,-3.907,-0.391,3.126,5.470,-17.582,2.344,-8.205,-1.563,-5.470,4.689,17.192,4.298,-17.582
'[10:02:38.703 08/07/2079]',-3.516,-19.927,8.596,0.000,-3.516,-10.549,10.549,-11.331,-3.516,-10.159,-6.252,-1.954,-3.907,-7.814,-14.066,2.344,-14.066,-1.172,-7.814,0.391,22.271,0.391,-14.066
'[10:02:38.707 08/07/2079]',-8.205,-12.503,6.642,-8.596,-12.112,-16.020,16.801,-10.940,4.298,-2.344,-8.596,-6.642,1.563,0.000,-9.377,-5.861,-12.112,-4.298,-5.861,0.391,23.053,-2.735,-9.377
'[10:02:38.711 08/07/2079]',-6.252,-16.801,10.159,-2.344,-10.940,3.516,-3.516,-4.298,6.642,-1.172,-6.252,-5.079,1.563,7.424,-10.159,-4.689,-8.205,-3.907,-9.377,4.298,25.788,-3.907,-10.159
'[10:02:38.715 08/07/2079]',-14.847,-9.768,8.205,6.642,-8.987,5.861,-2.735,-2.344,4.298,-3.907,-5.079,-8.596,0.391,3.907,-10.940,-7.033,-7.814,-3.516,-7.424,-1.954,26.960,2.344,-10.940
'[10:02:38.719 08/07/2079]',-16.410,-12.503,8.987,6.252,-14.066,6.252,-1.563,-3.516,5.079,-3.126,-3.907,0.000,5.470,1.954,-8.987,-0.781,-7.424,-2.735,-8.205,0.391,22.662,4.298,-8.987
'[10:02:38.723 08/07/2079]',-2.735,-6.642,8.987,4.298,-4.298,5.079,2.344,0.391,3.907,-3.907,1.172,-3.126,7.424,-2.344,-6.642,-0.781,-2.735,0.391,-8.205,7.424,21.099,-5.079,-6.642
'[10:02:38.727 08/07/2079]',-15.238,6.252,4.689,-0.781,-3.516,-3.907,3.516,-1.172,1.172,-5.079,0.781,-4.689,-3.126,9.768,-12.112,-3.126,-1.563,0.391,-3.907,8.596,19.927,0.000,-12.112
'[10:02:38.730 08/07/2079]',-18.755,4.298,5.079,-2.344,-8.987,-2.735,10.549,-8.987,6.252,3.126,-3.516,-3.516,-0.391,19.927,-12.503,-3.126,-1.172,3.907,-4.298,3.126,23.834,8.205,-12.503
'[10:02:38.734 08/07/2079]',4.689,1.172,2.735,-12.112,-5.861,-3.126,26.569,-20.317,10.940,14.457,9.768,-20.317,12.112,27.350,0.391,-24.225,1.954,8.987,-1.954,0.781,28.132,5.079,0.391
'[10:02:38.738 08/07/2079]',10.549,-12.503,-4.298,2.344,0.000,10.940,-7.424,-6.252,6.642,5.470,-0.391,-8.987,18.364,12.503,-12.503,-14.847,2.735,4.689,5.079,-7.814,36.337,8.987,-12.503
'[10:02:38.742 08/07/2079]',-7.814,-6.252,-3.126,12.503,-7.424,4.298,-6.252,4.298,3.907,4.689,-1.563,0.781,6.252,16.410,-6.252,-7.033,1.172,3.907,3.907,-8.205,29.695,13.675,-6.252
'[10:02:38.746 08/07/2079]',-16.801,10.549,-1.563,9.768,-5.861,1.563,-4.689,10.549,2.735,3.907,-0.781,3.126,0.781,25.006,-8.205,-7.424,2.735,2.735,2.344,-1.954,32.821,6.252,-8.205
'[10:02:38.750 08/07/2079]',-0.391,-0.781,-7.033,9.377,-3.907,-2.344,-3.126,10.549,-7.424,-3.907,-5.861,3.907,7.033,5.079,-21.490,-5.470,0.391,0.391,7.814,4.689,33.211,-0.781,-21.490
'[10:02:38.754 08/07/2079]',-4.298,-10.549,-0.781,11.331,-10.549,10.940,-9.377,3.516,-3.907,0.781,-7.814,8.596,16.801,-0.391,-18.364,-0.781,-2.735,3.516,1.563,2.344,34.383,6.252,-18.364
'[10:02:38.758 08/07/2079]',-12.894,7.814,-3.907,-2.735,-13.284,6.642,-1.172,-3.516,-1.563,6.642,-8.205,-4.298,7.814,12.112,-12.503,-15.238,-3.907,2.735,4.689,-1.563,33.993,4.689,-12.503
'[10:02:38.762 08/07/2079]',-15.629,16.801,-10.940,-12.503,-19.145,7.814,-4.689,-5.861,-5.470,5.861,-6.252,-9.377,2.735,14.847,-8.987,-23.834,-5.861,5.470,11.722,1.563,32.430,-0.781,-8.987
'[10:02:38.766 08/07/2079]',-21.880,15.238,-1.954,1.954,-16.020,11.331,-5.861,3.516,2.735,0.781,-3.126,3.907,21.099,10.159,-20.317,-5.079,-6.642,14.457,2.735,0.391,35.165,1.172,-20.317
'[10:02:38.770 08/07/2079]',-10.549,6.252,-2.344,4.689,-13.284,4.689,5.861,0.781,5.079,-0.781,0.391,-0.781,27.350,9.768,-21.490,-10.159,-7.814,16.801,3.126,-0.391,31.258,3.907,-21.490
'[10:02:38.773 08/07/2079]',-14.847,10.549,-5.861,5.079,-20.317,0.391,4.298,10.159,7.424,-5.861,1.172,8.596,35.946,9.768,-29.695,-3.907,-6.252,12.894,6.642,9.377,26.960,3.126,-29.695
'[10:02:38.777 08/07/2079]',-16.020,17.582,-5.079,0.781,-17.582,4.689,-3.126,13.675,-1.172,-15.629,-0.781,16.801,25.397,16.410,-49.621,5.861,-7.424,7.814,5.861,15.629,30.476,-3.516,-49.621
'[10:02:38.781 08/07/2079]',-16.410,17.582,-5.470,-1.172,-13.675,7.033,-2.735,3.126,0.000,-3.516,-5.861,8.987,10.159,2.344,-7.814,-5.079,-6.642,3.907,6.252,10.159,16.020,-9.768,-7.814
'[10:02:38.785 08/07/2079]',-8.205,6.642,-7.033,1.172,-14.457,5.079,-0.781,3.907,-7.033,-7.424,-9.377,11.331,6.642,-5.079,-11.331,-3.516,-9.377,-1.563,7.814,11.722,20.317,-14.847,-11.331
'[10:02:38.789 08/07/2079]',-0.391,1.172,-8.596,2.344,-13.675,-5.861,1.172,12.112,-6.642,-8.987,-12.112,16.020,5.861,-4.298,-13.284,-0.391,-10.159,-2.344,9.377,11.331,19.927,-17.192,-13.284
'[10:02:38.793 08/07/2079]',-4.689,5.470,-6.252,2.344,-7.814,-8.205,0.391,13.284,-0.781,-7.814,-12.112,11.331,6.642,1.563,-14.457,-3.907,-8.987,0.391,7.033,6.642,17.582,-6.642,-14.457
'[10:02:38.797 08/07/2079]',-18.364,7.814,-10.940,1.954,-17.582,-10.549,-1.563,10.940,-4.689,-10.159,-12.112,14.847,0.391,9.377,-23.834,1.563,-10.549,-5.079,11.722,8.987,9.768,-1.172,-23.834
'[10:02:38.801 08/07/2079]',-8.596,3.126,-12.894,-3.907,-20.708,-12.503,0.000,10.549,-4.689,-10.159,-10.159,12.894,11.331,-2.344,-26.178,4.298,-11.331,-5.470,13.675,16.410,-1.954,-9.768,-26.178
'[10:02:38.805 08/07/2079]',1.954,-7.033,-7.033,-3.907,-13.675,3.126,-9.377,3.516,0.391,-1.563,-8.596,11.331,22.662,-9.377,-17.582,5.470,-6.252,-2.735,7.814,16.801,-0.391,-9.377,-17.582
'[10:02:38.809 08/07/2079]',-10.549,10.940,-7.033,-5.470,-11.331,1.954,-5.079,1.172,-2.344,0.781,-8.987,6.642,6.642,-1.954,-12.894,3.516,-1.954,-6.642,7.814,7.424,-0.391,-4.689,-12.894
'[10:02:38.813 08/07/2079]',-16.801,19.145,-13.675,-7.814,-10.159,0.391,-10.940,2.344,-2.344,-3.126,-12.894,9.768,-3.907,0.781,-13.675,6.642,0.391,-11.331,14.457,11.331,3.126,-18.755,-13.675
'[10:02:38.816 08/07/2079]',0.391,16.020,-3.516,-23.443,-1.954,-0.391,10.940,-19.145,7.424,10.159,0.000,-11.722,11.331,16.410,-5.470,-16.410,3.516,-3.126,4.298,10.940,5.470,-2.344,-5.470
'[10:02:38.820 08/07/2079]',-15.629,10.159,-7.033,-2.344,-2.344,17.582,-17.582,-12.112,-2.735,-1.563,-5.470,1.954,3.907,0.391,-12.894,0.391,4.298,-6.642,7.814,6.252,9.768,-1.172,-12.894
'[10:02:38.824 08/07/2079]',-43.370,39.072,-4.298,-5.079,-7.814,14.847,-10.940,-9.377,0.391,0.000,0.391,5.470,-6.252,10.159,-2.344,3.516,5.470,-7.033,5.079,6.252,4.298,-5.079,-2.344
'[10:02:38.828 08/07/2079]',-62.125,60.171,2.344,0.391,-10.940,19.145,-8.987,1.954,0.391,2.344,5.470,5.079,-15.238,14.847,7.814,5.861,7.033,-1.563,-1.563,8.596,-1.172,-5.079,7.814
'[10:02:38.832 08/07/2079]',-67.985,58.217,3.126,12.503,-10.159,21.099,-8.205,3.516,0.391,0.000,7.033,18.364,-14.066,8.205,8.205,23.053,5.861,6.642,-2.344,3.516,-8.596,0.781,8.205
'[10:02:38.836 08/07/2079]',-58.217,52.747,4.298,13.675,-7.424,15.238,5.861,-0.391,3.126,1.563,15.238,12.503,-11.331,5.470,17.973,20.708,5.470,8.987,-3.516,-2.344,-14.847,2.344,17.973
'[10:02:38.840 08/07/2079]',-53.919,50.012,4.298,17.582,-7.033,13.284,5.079,6.252,0.781,3.516,15.629,11.331,-15.238,8.987,19.927,18.755,5.861,10.549,-3.516,1.172,-16.020,6.642,19.927
'[10:02:38.844 08/07/2079]',-56.654,51.966,8.205,10.549,-3.126,19.536,-4.689,3.516,3.516,2.344,17.973,9.768,-17.582,9.768,23.053,19.536,8.596,9.768,-7.424,5.470,-21.490,4.689,23.053
'[10:02:38.848 08/07/2079]',-59.780,61.343,8.596,16.020,3.907,23.053,-1.954,1.172,9.377,3.907,14.847,7.424,-18.364,7.424,27.741,19.536,10.940,7.033,-7.814,-4.689,-16.410,4.298,27.741
'[10:02:38.852 08/07/2079]',-41.807,49.621,9.377,21.490,9.768,16.801,9.768,1.954,3.126,4.298,16.801,9.377,-16.801,-1.172,29.695,23.053,10.940,7.424,-8.596,-3.126,-20.317,4.298,29.695
'[10:02:38.855 08/07/2079]',-50.012,55.873,14.847,10.549,2.735,21.099,3.907,3.126,6.252,6.252,20.317,7.814,-14.457,-3.126,38.681,20.708,14.066,9.768,-14.066,-5.079,-21.490,0.391,38.681
'[10:02:38.859 08/07/2079]',-55.092,61.734,9.768,14.457,1.954,13.675,7.424,8.596,10.549,9.768,18.755,12.112,-17.973,5.470,39.853,24.225,14.847,11.722,-8.987,-17.582,-21.880,8.596,39.853
'[10:02:38.863 08/07/2079]',-70.720,68.767,5.470,5.470,-10.549,3.907,13.675,1.954,0.391,8.987,19.927,6.252,-34.774,16.020,38.681,16.020,11.722,9.768,-4.689,-12.894,-21.880,6.642,38.681
'[10:02:38.867 08/07/2079]',-51.575,58.217,11.331,6.642,-5.079,28.913,-7.424,9.377,0.000,7.033,18.364,7.033,-27.350,8.205,34.774,17.582,13.675,11.331,-10.549,-4.298,-20.317,-2.344,34.774
'[10:02:38.871 08/07/2079]',-37.900,43.761,10.549,11.331,-2.735,24.225,-2.344,8.987,1.172,5.470,19.145,3.907,-17.582,-3.126,35.165,16.020,11.722,12.112,-9.768,-9.377,-24.225,1.954,35.165
'[10:02:38.875 08/07/2079]',-41.807,54.701,7.424,12.503,5.861,18.364,-0.391,9.768,4.689,4.689,18.755,2.735,-24.225,8.205,33.211,15.238,10.549,9.377,-6.642,-13.284,-22.662,5.861,33.211
'[10:02:38.879 08/07/2079]',-37.118,64.078,6.642,12.894,14.457,21.880,-6.252,16.410,10.159,1.954,19.927,13.284,-25.006,13.284,31.648,26.960,13.675,9.377,-5.861,-12.503,-21.490,1.172,31.648
'[10:02:38.883 08/07/2079]',-21.099,41.416,5.470,14.066,9.768,16.020,-0.391,14.066,13.675,4.298,18.364,10.940,-15.629,2.344,33.602,28.523,13.675,10.159,-4.689,-10.549,-33.602,2.344,33.602
'[10:02:38.887 08/07/2079]',-8.205,26.569,5.470,14.457,16.410,14.457,3.907,2.735,14.847,7.424,16.410,4.689,-11.722,0.391,32.430,23.834,14.457,9.377,-4.689,-15.238,-25.788,4.298,32.430
'[10:02:38.891 08/07/2079]',-20.317,30.085,3.516,8.987,6.642,17.582,-10.159,6.252,17.582,6.642,12.112,4.298,-16.020,7.814,27.350,22.662,16.020,0.000,-2.735,-8.596,-30.085,3.516,27.350
'[10:02:38.895 08/07/2079]',-21.099,36.337,-1.172,3.126,1.172,17.192,-15.238,12.112,8.596,3.907,7.424,-5.079,-29.695,13.675,19.536,12.112,16.801,-7.033,1.954,-3.516,-35.946,0.391,19.536
'[10:02:38.898 08/07/2079]',-29.695,41.807,-5.079,3.126,12.894,4.298,-7.033,-0.781,11.331,9.377,6.642,-7.424,-25.006,19.145,18.755,8.205,12.894,-7.814,5.861,-11.331,-26.178,7.424,18.755
'[10:02:38.902 08/07/2079]',-15.629,39.463,-7.814,4.689,21.490,10.159,-7.814,-4.689,17.973,5.470,1.563,-5.079,-5.470,11.722,3.516,11.722,11.331,-7.814,8.596,-11.722,-25.397,13.284,3.516
'[10:02:38.906 08/07/2079]',-3.516,33.602,-19.145,13.284,23.053,8.205,-16.020,8.205,5.079,-1.172,-3.907,-0.391,-16.410,-12.112,9.377,18.364,12.112,-9.377,19.927,-3.907,-36.337,-5.861,9.377
'[10:02:38.910 08/07/2079]',-13.284,44.151,-8.987,-2.735,14.847,-3.516,16.020,-9.377,15.629,11.331,5.470,-17.973,-11.722,0.000,27.350,0.391,14.457,0.000,9.768,-5.861,-33.993,-3.516,27.350
'[10:02:38.914 08/07/2079]',-25.397,33.211,-0.391,17.973,9.768,21.490,-11.331,5.079,11.722,2.735,-3.907,-1.563,-15.238,-7.814,8.205,23.443,16.801,-11.331,1.172,-6.252,-31.258,-1.954,8.205
'[10:02:38.918 08/07/2079]',-17.973,23.834,0.391,11.722,3.907,20.317,-8.205,1.954,12.503,4.689,0.781,-12.112,-6.642,-11.722,15.238,8.987,17.582,-16.801,0.391,-1.172,-33.211,-7.033,15.238
'[10:02:38.922 08/07/2079]',-22.662,26.569,-1.954,9.768,-1.563,11.331,-4.298,5.079,10.159,5.470,-0.781,-5.470,-2.344,-4.298,5.470,10.940,16.801,-16.801,2.735,-8.596,-28.913,6.252,5.470
'[10:02:38.926 08/07/2079]',-22.271,24.225,-4.689,5.470,6.252,28.132,-31.258,-1.172,14.066,-2.735,-7.814,-7.814,1.172,1.563,-19.145,10.549,15.238,-21.099,5.470,-8.596,-16.410,9.768,-19.145
'[10:02:38.930 08/07/2079]',-13.675,30.476,-12.894,-7.814,12.112,19.145,-26.178,-10.549,6.252,-0.781,-4.689,-19.536,-10.159,-10.549,10.549,-8.596,16.020,-18.755,13.675,3.516,-25.006,-11.331,10.549
'[10:02:38.934 08/07/2079]',2.344,16.020,-23.834,-10.940,10.159,14.457,-24.615,-16.410,8.987,0.391,-7.033,-19.145,3.516,-16.410,4.689,-7.814,13.284,-13.284,24.615,7.814,-23.443,-16.410,4.689
'[10:02:38.938 08/07/2079]',14.457,-6.252,-16.410,14.847,11.722,15.629,-20.708,-0.781,10.159,1.954,-4.689,-12.894,14.847,-24.615,3.516,0.391,12.112,-9.377,17.192,3.516,-10.549,-17.192,3.516
'[10:02:38.941 08/07/2079]',-4.298,-1.172,-21.880,3.126,3.126,4.298,-19.536,-11.722,4.689,3.126,-6.252,-18.755,3.126,-11.331,1.954,-9.768,10.159,-14.457,22.662,8.205,-0.391,-19.927,1.954
'[10:02:38.945 08/07/2079]',-16.801,10.940,-23.053,7.814,-0.781,1.954,-20.317,-1.954,4.689,3.907,-4.298,-14.066,0.391,7.814,-9.377,-7.424,8.596,-11.722,23.834,9.768,14.847,-21.490,-9.377
'[10:02:38.949 08/07/2079]',-17.192,-4.689,-24.615,9.768,-7.033,1.954,-24.225,-7.814,0.391,-2.735,-5.861,-14.457,11.331,-5.079,-19.927,-9.377,5.079,-8.596,25.397,13.284,29.695,-25.006,-19.927
'[10:02:38.953 08/07/2079]',-2.344,-15.629,-20.317,-2.344,-0.391,5.470,-22.662,-23.443,-7.424,-3.126,-6.642,-21.880,12.112,-12.503,-19.536,-19.927,2.735,-5.861,21.099,14.847,35.165,-26.960,-19.536
'[10:02:38.957 08/07/2079]',-4.689,-3.516,-21.880,-8.987,-5.470,6.252,-22.271,-17.973,-8.205,-6.642,-7.424,-23.053,10.549,-11.331,-22.271,-23.053,0.391,-6.642,22.662,20.317,28.523,-28.132,-22.271
'[10:02:38.961 08/07/2079]',-10.549,8.205,-19.145,-8.205,-8.205,1.172,-21.880,-1.563,-9.768,-8.205,-16.801,-22.271,7.814,-9.377,-35.946,-20.317,-3.907,-5.861,19.927,18.364,24.615,-26.178,-35.946
'[10:02:38.965 08/07/2079]',-9.377,7.814,-11.722,-14.457,-7.033,0.000,-11.331,-8.205,-10.940,-5.470,-12.112,-25.397,1.954,-9.768,-25.788,-22.271,-8.596,0.391,12.503,15.238,11.331,-20.317,-25.788
'[10:02:38.969 08/07/2079]',-1.563,7.424,-7.033,-15.238,-8.987,4.298,-2.344,-10.159,-8.987,-4.689,-5.861,-27.350,6.642,-1.172,-30.085,-21.880,-12.112,4.689,7.814,10.159,9.377,-10.549,-30.085
'[10:02:38.973 08/07/2079]',-14.066,10.940,-8.205,-9.377,-10.549,-3.516,-7.814,1.563,-8.205,-7.814,-7.424,-26.178,12.503,-14.066,-25.788,-23.443,-9.768,3.126,8.987,13.284,12.503,-19.536,-25.788
'[10:02:38.977 08/07/2079]',-22.271,13.284,0.781,-14.066,-8.205,7.814,-17.582,-4.689,0.000,-0.391,-3.126,-26.569,7.814,2.735,-16.410,-25.788,-3.907,6.642,0.000,12.112,16.801,-8.596,-16.410
'[10:02:38.980 08/07/2079]',-25.006,12.503,7.424,-2.344,-3.907,12.112,-10.549,-4.689,-2.735,-3.516,-3.516,-19.145,3.907,3.516,-17.192,-20.708,-2.344,7.033,-6.642,5.861,38.291,-8.987,-17.192
'[10:02:38.984 08/07/2079]',-14.066,0.391,4.298,0.391,-2.735,8.987,-10.940,-3.907,-1.172,-3.126,-7.424,-19.145,13.284,-10.940,-8.205,-26.178,-5.079,3.516,-3.516,3.907,48.449,-20.317,-8.205
'[10:02:38.988 08/07/2079]',-3.126,-11.331,7.814,7.033,0.391,1.563,-3.516,2.344,-2.735,-5.079,-8.987,-19.927,15.629,-14.457,-7.814,-32.039,-9.377,7.424,-7.033,-1.563,55.873,-13.284,-7.814
'[10:02:38.992 08/07/2079]',-7.424,-6.642,10.549,5.470,1.563,-6.642,8.596,0.000,-7.033,-7.814,-6.252,-15.629,3.907,5.079,-14.457,-32.430,-13.284,11.331,-9.768,-10.549,60.562,1.954,-14.457
'[10:02:38.996 08/07/2079]',-19.145,8.205,7.033,-2.344,-1.954,-10.549,6.252,0.391,-8.987,-7.424,-3.126,-12.894,-1.954,21.099,-12.894,-39.072,-15.629,10.549,-6.252,-2.735,53.138,3.907,-12.894
'[10:02:39.000 08/07/2079]',-11.331,2.344,14.457,5.079,-4.689,-13.284,17.582,11.722,-8.205,-3.126,3.907,-6.252,11.722,22.271,-7.814,-40.635,-17.973,17.192,-13.675,0.391,51.575,9.377,-7.814
'[10:02:39.004 08/07/2079]',-2.344,-7.814,24.225,2.344,2.735,5.079,8.205,0.391,-2.344,1.172,5.079,4.689,23.834,37.900,-21.099,-29.695,-11.722,25.397,-23.443,2.344,50.012,33.993,-21.099
'[10:02:39.008 08/07/2079]',-31.648,3.907,21.099,12.112,-12.894,4.298,0.781,12.894,-7.814,5.470,9.768,16.801,8.596,23.053,21.490,-28.132,-14.457,22.662,-20.317,1.563,48.449,13.284,21.490
'[10:02:39.012 08/07/2079]',-50.403,17.973,22.271,12.894,-24.225,3.126,0.391,24.225,-5.079,7.424,12.503,15.629,5.079,24.225,29.695,-27.741,-16.020,23.053,-21.490,7.033,44.542,5.079,29.695
'[10:02:39.016 08/07/2079]',-39.463,9.377,18.755,22.271,-19.536,0.391,5.079,25.788,-10.549,3.126,12.112,19.145,8.987,12.112,25.397,-21.880,-17.582,28.132,-17.973,2.344,47.277,3.907,25.397
'[10:02:39.020 08/07/2079]',-19.927,-4.298,12.503,17.192,-15.238,-2.735,12.503,11.331,-13.284,3.516,15.238,19.145,17.973,-3.126,32.821,-21.490,-21.490,30.476,-11.722,-1.563,42.589,3.126,32.821
'[10:02:39.023 08/07/2079]',-10.159,6.642,14.847,15.629,-12.503,0.391,14.847,25.006,-17.582,5.861,19.145,30.476,12.112,10.549,24.615,-8.205,-17.973,31.258,-14.066,2.344,30.867,4.298,24.615
'[10:02:39.027 08/07/2079]',0.000,17.192,10.549,11.331,-5.861,-0.391,15.629,31.258,-16.020,2.344,20.708,36.337,13.284,17.973,12.503,0.391,-13.284,31.258,-9.768,0.000,26.960,2.344,12.503
'[10:02:39.031 08/07/2079]',3.126,11.722,15.238,1.172,6.642,5.079,12.112,7.424,-14.457,7.814,23.443,32.039,3.907,25.788,19.536,0.781,-11.722,32.821,-14.457,-1.954,16.801,12.503,19.536
'[10:02:39.035 08/07/2079]',-1.563,17.582,23.053,21.880,3.126,15.238,11.722,31.258,-14.457,7.424,31.258,44.151,4.298,22.271,21.099,20.708,-9.377,32.430,-22.271,-1.172,5.470,7.033,21.099
'[10:02:39.039 08/07/2079]',-9.377,14.457,17.973,28.132,-3.907,6.252,2.344,46.496,-8.205,2.344,27.741,42.589,7.424,10.940,21.099,23.443,-8.205,27.350,-17.192,0.781,1.172,-7.033,21.099
'[10:02:39.043 08/07/2079]',-17.582,11.722,12.112,23.053,-4.298,3.126,-3.126,34.774,-13.284,-2.344,20.708,34.383,-2.344,-1.563,21.880,21.099,-11.722,25.006,-11.331,-1.563,-10.940,-2.344,21.880
'[10:02:39.047 08/07/2079]',-16.801,16.801,8.987,6.642,-7.814,2.735,-0.391,21.880,-14.066,-5.470,23.443,35.165,-9.377,0.000,22.662,25.006,-13.675,22.271,-8.205,0.000,-24.615,-5.861,22.662
'[10:02:39.051 08/07/2079]',-7.814,9.377,2.735,-1.563,-10.549,0.391,-4.689,18.364,-13.284,-8.987,19.536,45.324,-3.516,-9.768,17.192,38.681,-13.284,16.801,-1.954,3.907,-33.211,-15.238,17.192
'[10:02:39.055 08/07/2079]',9.377,-3.907,-4.689,-8.596,-3.126,-2.735,-7.033,5.470,-23.443,-14.457,17.973,35.556,-7.033,-23.834,12.503,33.993,-17.192,12.894,5.470,1.172,-41.416,-12.112,12.503
'[10:02:39.059 08/07/2079]',10.549,0.391,-6.642,-3.907,1.172,-8.596,0.391,6.642,-26.569,-14.066,18.755,39.072,-21.099,-11.722,12.112,37.509,-15.238,10.159,7.424,-3.516,-37.900,-9.768,12.112
'[10:02:39.063 08/07/2079]',0.781,8.987,-6.252,-1.563,-3.907,-12.112,1.954,16.020,-30.867,-12.112,16.410,48.059,-30.476,-13.284,12.894,51.575,-14.847,6.642,7.033,-2.735,-33.993,-23.053,12.894
'[10:02:39.066 08/07/2079]',17.973,-12.112,-6.252,5.470,-0.781,-5.079,-4.689,16.020,-28.913,-12.894,10.549,37.118,-16.020,-26.569,10.159,38.291,-13.675,3.126,7.033,4.298,-33.602,-19.927,10.159
'[10:02:39.070 08/07/2079]',30.085,-29.304,-5.470,-3.516,-2.735,-0.391,-4.298,-0.391,-19.536,-14.847,7.424,23.443,-1.563,-35.556,5.079,26.960,-13.675,1.563,6.252,3.907,-35.165,-14.066,5.079
'[10:02:39.074 08/07/2079]',-0.781,-5.079,-9.768,-3.516,-2.344,-14.066,-6.642,4.298,-17.973,-17.582,3.516,37.900,-16.410,-32.821,14.066,39.853,-12.503,-6.642,10.549,-0.781,-38.291,-14.066,14.066
'[10:02:39.078 08/07/2079]',-10.549,6.642,-14.847,-12.894,-8.987,-21.099,-7.033,5.470,-6.252,-19.927,2.735,24.615,-16.801,-19.536,9.377,26.178,-10.549,-12.894,15.629,2.735,-42.979,-14.457,9.377
'[10:02:39.082 08/07/2079]',-16.410,2.344,-23.053,-16.410,-14.066,-27.741,-7.424,-3.126,-11.331,-29.695,0.391,18.364,-23.443,-22.662,-2.735,25.788,-16.410,-14.457,23.834,-0.781,-44.542,-12.503,-2.735
'[10:02:39.086 08/07/2079]',-16.801,2.735,-35.556,6.642,-11.722,-45.324,3.516,11.722,-14.847,-28.132,-4.298,41.807,-25.788,-37.118,2.735,52.747,-20.708,-10.940,36.337,-14.457,-35.165,-22.271,2.735
'[10:02:39.090 08/07/2079]',1.954,-8.205,-15.629,-12.894,-7.033,-26.569,2.735,-3.516,-0.781,-12.112,1.954,9.768,-7.033,-12.112,-2.344,20.708,-14.066,-5.079,16.410,5.079,-34.774,-6.642,-2.344
'[10:02:39.094 08/07/2079]',-10.159,-10.549,-14.847,-5.470,-2.735,-3.907,-37.900,3.516,-6.642,-22.271,-5.470,11.331,-16.801,1.954,-36.728,26.960,-14.066,-9.768,15.629,9.377,-21.099,1.172,-36.728
'[10:02:39.098 08/07/2079]',-5.079,-1.563,-11.331,-3.126,14.457,-7.424,-23.834,-4.298,0.000,-6.642,-4.689,-1.172,-17.192,-17.582,5.861,12.894,-8.205,-5.470,12.112,-1.563,-25.397,-3.126,5.861
'[10:02:39.102 08/07/2079]',8.205,-10.549,-0.781,-8.205,19.927,-1.563,-15.238,-14.066,1.172,-5.079,-1.172,-14.457,-9.377,-12.112,-4.689,4.689,-7.424,-6.252,1.563,-4.689,-26.569,12.503,-4.689
'[10:02:39.105 08/07/2079]',0.391,-1.563,-2.735,-7.814,15.238,0.781,-22.271,-5.079,3.126,-5.470,0.391,-22.662,-12.112,-12.503,2.735,-3.907,-5.470,-7.814,3.516,-8.596,-23.443,5.470,2.735
'[10:02:39.109 08/07/2079]',-7.033,5.470,-7.814,9.377,17.192,-6.252,-13.675,3.516,1.172,0.781,-1.954,-5.079,-25.006,-7.814,16.020,10.159,-3.126,-2.735,8.596,-17.582,-12.503,7.424,16.020
'[10:02:39.113 08/07/2079]',-22.271,12.112,-3.907,10.940,9.768,-7.814,-7.033,1.954,6.252,3.516,-3.126,-5.861,-22.662,11.722,1.954,8.987,-4.298,-3.126,4.689,-10.159,0.000,10.549,1.954
'[10:02:39.117 08/07/2079]',-12.112,-3.126,1.563,7.424,8.205,-1.172,-12.894,0.391,7.814,3.907,-1.172,-13.675,-11.722,17.973,-7.814,-1.172,-3.126,-2.344,-0.781,0.000,13.675,6.642,-7.814
'[10:02:39.121 08/07/2079]',2.735,-14.457,-3.907,7.033,16.410,-2.735,-15.238,-6.642,7.424,1.172,-6.252,-8.596,-1.954,-0.391,-6.642,1.954,-3.126,-3.907,4.689,-3.907,13.284,7.814,-6.642
'[10:02:39.125 08/07/2079]',-12.894,2.344,-8.205,-5.470,10.940,-7.424,-11.331,-16.410,11.722,-2.344,-10.940,-19.145,-2.344,0.000,-14.066,-4.298,-5.861,-10.159,8.987,-7.814,-0.781,16.410,-14.066
'[10:02:39.129 08/07/2079]',-25.397,16.410,-7.814,-10.159,6.642,-7.424,-12.112,-14.066,13.675,-2.735,-7.814,-29.304,-8.987,8.596,-12.112,-14.457,-5.079,-13.284,8.596,-4.689,-0.391,10.549,-12.112
'[10:02:39.133 08/07/2079]',-12.894,-9.768,-3.516,12.894,12.112,-14.457,-7.814,-2.735,10.940,-2.735,-6.252,-18.364,-0.781,-5.861,-8.987,-1.954,-5.079,-9.377,4.298,-3.907,14.847,10.159,-8.987
'[10:02:39.137 08/07/2079]',-12.503,-26.178,1.954,37.118,15.238,-14.847,-1.563,2.344,16.410,-1.563,-4.689,-17.582,10.940,-5.861,-13.284,0.391,-5.861,-6.252,-1.172,-7.814,31.258,19.145,-13.284
'[10:02:39.141 08/07/2079]',-26.569,-14.847,13.284,40.635,9.768,-16.410,4.298,14.847,12.894,-4.298,-2.344,-16.410,-1.954,7.814,-17.582,1.172,-4.689,-6.252,-12.503,-3.126,46.886,13.284,-17.582
'[10:02:39.145 08/07/2079]',-32.430,-6.642,10.159,27.741,7.424,-21.099,2.735,10.159,15.238,-3.907,-1.954,-20.708,-12.894,18.755,-12.894,-5.079,-2.735,-7.814,-9.377,2.735,38.681,15.238,-12.894
'[10:02:39.148 08/07/2079]',-28.913,18.364,-1.563,-16.801,10.159,-0.781,-16.020,-22.271,27.350,-9.768,-10.940,-22.271,-1.954,12.503,-24.225,-2.344,-5.079,-9.768,2.344,-8.596,3.907,22.662,-24.225
'[10:02:39.152 08/07/2079]',-25.397,19.145,-8.596,-26.178,3.516,1.172,-14.457,-32.430,25.397,-14.457,-12.503,-17.973,1.954,7.424,-31.648,0.781,-9.768,-10.940,9.377,-7.814,-7.424,18.755,-31.648
'[10:02:39.156 08/07/2079]',-0.781,5.861,-15.629,-35.165,7.424,0.781,-23.834,-31.258,24.615,-14.847,-17.973,-15.629,5.470,-0.391,-28.132,-1.563,-11.331,-14.066,16.410,1.563,-16.801,7.424,-28.132
'[10:02:39.160 08/07/2079]',-5.079,1.954,-13.284,-29.695,4.298,-3.126,-26.960,-21.099,14.847,-19.536,-22.271,-8.205,-2.735,0.391,-35.556,1.563,-15.629,-14.847,14.066,2.735,-15.629,5.079,-35.556
'[10:02:39.164 08/07/2079]',2.735,-12.112,-3.907,-16.801,2.344,-8.205,-7.424,-16.410,9.768,-17.973,-16.410,-7.424,-5.079,12.112,-39.072,-0.781,-19.145,-13.284,4.689,4.689,-2.344,7.424,-39.072
'[10:02:39.168 08/07/2079]',15.238,-22.271,4.689,-28.132,-0.391,-1.954,-3.516,-23.834,4.689,-14.847,-12.503,-21.099,-3.907,1.954,-26.569,-16.801,-15.629,-12.894,-3.907,16.020,1.172,-3.907,-26.569
'[10:02:39.172 08/07/2079]',9.377,-15.238,6.642,-24.615,10.159,-3.516,-13.675,-14.847,7.814,-6.642,-18.755,-21.490,-0.391,13.284,-32.821,-19.927,-12.894,-13.675,-5.861,7.424,-0.391,16.801,-32.821
'[10:02:39.176 08/07/2079]',-1.172,-2.344,4.689,-30.476,4.298,-19.536,5.861,-20.317,16.410,-2.735,-16.020,-30.867,8.205,15.238,-26.569,-30.867,-14.457,-8.596,-3.907,0.391,12.894,12.112,-26.569
'[10:02:39.180 08/07/2079]',-5.470,2.735,11.331,-30.867,12.894,-4.298,-9.768,-18.755,21.880,-1.954,-17.192,-30.476,8.596,18.364,-26.960,-29.695,-7.814,-7.814,-10.549,8.987,19.927,7.033,-26.960
'[10:02:39.184 08/07/2079]',1.172,-10.940,7.814,-7.424,7.814,-12.112,-9.377,4.689,17.582,-3.907,-19.927,-14.457,12.894,7.424,-23.443,-18.755,-11.722,-7.424,-7.033,15.629,14.457,5.079,-23.443
'[10:02:39.188 08/07/2079]',19.145,-32.430,5.470,-8.596,0.391,-23.053,6.252,0.000,15.238,-5.470,-14.066,-18.755,17.973,5.861,-21.099,-27.350,-16.410,-3.516,-4.689,13.675,11.722,7.033,-21.099
'[10:02:39.191 08/07/2079]',8.205,-19.927,11.331,-8.987,2.344,-0.781,-10.940,0.391,15.629,-5.079,-12.503,-14.847,9.768,15.238,-18.755,-24.615,-12.894,-7.814,-10.549,12.503,12.894,10.159,-18.755
'[10:02:39.195 08/07/2079]',-1.172,-5.079,-2.344,-11.722,-4.298,-5.079,-16.410,5.861,12.894,-3.907,-8.596,-3.516,-7.814,33.993,-10.549,-19.145,-12.112,-9.377,3.126,10.940,-7.033,14.066,-10.549
'[10:02:39.199 08/07/2079]',11.331,-17.973,0.000,-7.424,-0.781,-8.205,-7.424,3.126,0.781,0.781,-3.516,-5.470,-9.768,15.629,0.781,-16.020,-13.675,-1.954,0.781,5.079,-8.596,5.861,0.781
'[10:02:39.203 08/07/2079]',25.788,-19.145,2.735,-1.563,9.768,0.000,-3.516,1.954,5.861,3.516,3.126,-7.814,5.861,-0.391,9.768,-11.331,-7.424,5.470,-1.954,-0.781,-5.861,-2.735,9.768
'[10:02:39.207 08/07/2079]',32.430,-19.145,-3.516,-5.079,9.768,-1.954,-8.596,5.079,-2.735,2.735,4.689,-3.126,-17.192,8.987,14.066,-5.861,-3.126,2.735,4.298,1.954,-24.225,-1.563,14.066
'[10:02:39.211 08/07/2079]',24.225,-10.940,-3.516,-12.503,3.907,-6.252,-6.252,5.079,-4.689,0.391,7.033,-4.298,-21.490,8.596,16.410,-7.033,-1.563,6.252,4.298,6.252,-28.132,-8.596,16.410
'[10:02:39.215 08/07/2079]',30.867,-2.735,0.781,-7.424,15.629,0.391,-0.391,4.689,3.126,-1.172,11.722,-8.205,-15.238,10.940,14.457,-6.252,1.954,11.331,0.000,1.172,-27.741,-6.642,14.457
'[10:02:39.219 08/07/2079]',42.979,-17.192,-2.344,-9.768,16.801,6.642,-7.033,-2.735,4.689,-0.781,8.987,-5.079,-14.847,11.331,13.675,-4.298,2.735,7.424,3.126,3.516,-33.993,-2.344,13.675
'[10:02:39.223 08/07/2079]',36.728,-20.708,-6.252,-5.861,1.172,5.861,-15.238,10.549,4.298,-2.344,8.596,0.781,-12.112,1.172,17.192,3.516,3.126,8.596,7.033,7.424,-44.542,-7.424,17.192
'[10:02:39.227 08/07/2079]',25.006,-10.159,-7.424,-2.344,-1.563,-2.344,-16.410,25.397,0.391,-5.079,4.298,0.781,-23.443,0.000,16.410,5.079,3.126,4.298,8.205,6.252,-45.714,-12.112,16.410
'[10:02:39.230 08/07/2079]',34.774,-25.006,-15.238,0.781,-7.033,-9.768,-9.377,22.271,-3.126,-5.861,2.735,-1.563,-29.695,-1.172,17.582,2.344,-1.172,0.391,16.020,0.781,-47.668,-12.503,17.582
'[10:02:39.234 08/07/2079]',48.449,-30.867,-17.582,-9.768,-7.424,-4.298,-11.722,13.675,-8.205,-5.861,7.424,-4.298,-25.788,-5.470,20.708,-2.735,0.000,0.391,18.364,11.722,-54.310,-18.755,20.708
'[10:02:39.238 08/07/2079]',51.575,-35.165,-21.490,-3.907,0.391,-9.768,-17.192,17.582,-12.503,-10.549,3.516,-1.954,-25.006,-15.629,16.410,0.000,-0.781,-3.126,22.271,10.159,-55.482,-18.364,16.410
'[10:02:39.242 08/07/2079]',41.807,-29.304,-18.755,0.391,4.689,-3.907,-19.145,11.722,-21.490,-8.596,8.987,0.781,-37.509,-5.470,19.927,0.781,1.563,-0.781,19.536,10.159,-49.621,-14.066,19.927
'[10:02:39.246 08/07/2079]',35.946,-19.927,-18.755,-8.987,2.735,1.954,-21.880,5.079,-19.536,-1.563,13.284,0.781,-37.509,3.516,27.741,-2.735,4.298,-1.172,19.536,18.364,-52.357,-15.238,27.741
'[10:02:39.250 08/07/2079]',40.635,-25.397,-14.847,2.735,0.391,2.735,-19.536,19.145,-14.066,2.735,12.112,8.596,-21.099,-8.596,31.258,7.033,5.861,3.907,15.629,17.192,-62.125,-11.331,31.258
'[10:02:39.254 08/07/2079]',45.324,-37.509,-17.582,26.569,-4.689,-7.814,-8.987,37.509,-16.801,0.000,9.768,25.397,-10.549,-11.722,15.629,23.053,3.907,7.424,18.364,8.596,-51.966,-5.079,15.629
'[10:02:39.258 08/07/2079]',57.045,-22.271,-14.066,-25.006,5.861,-4.689,3.516,-9.768,2.735,7.814,15.238,-11.331,0.391,12.112,17.973,-17.192,7.033,6.642,14.847,5.470,-42.198,-0.781,17.973
'[10:02:39.262 08/07/2079]',28.132,-14.457,-11.722,-3.907,-1.172,3.516,-22.662,17.192,5.470,-1.563,5.079,8.987,-8.987,14.066,8.987,2.735,9.377,1.172,12.503,15.238,-39.853,-2.735,8.987
'[10:02:39.266 08/07/2079]',34.774,-24.225,-6.642,-3.516,5.079,4.689,-17.582,7.033,4.689,-6.252,1.172,5.470,-3.516,23.834,-17.973,1.563,7.814,0.391,7.424,13.675,-26.178,12.112,-17.973
'[10:02:39.270 08/07/2079]',39.853,-35.556,-3.907,-14.457,10.159,1.954,-10.940,-15.629,-1.563,-6.642,7.033,-18.364,-5.079,-2.344,12.503,-25.397,3.516,-1.954,4.689,10.159,-6.252,-10.549,12.503
'[10:02:39.273 08/07/2079]',25.397,-29.695,2.735,7.033,7.814,0.391,-19.145,16.801,-5.861,-3.516,-0.391,-4.689,-18.755,-5.470,16.801,-8.205,4.298,-5.079,-1.954,14.847,-9.377,-12.112,16.801
'[10:02:39.277 08/07/2079]',13.284,-21.099,5.861,10.549,6.252,-9.377,-15.238,26.960,-3.516,-3.126,-2.735,-5.079,-17.192,-1.954,10.549,-7.814,0.391,-4.689,-5.079,11.722,2.344,-13.675,10.549
'[10:02:39.281 08/07/2079]',10.940,-17.973,3.516,5.470,6.252,-20.708,3.126,13.675,0.000,-7.033,2.735,-5.861,-17.582,-1.563,16.020,-8.987,-3.516,-2.735,-2.735,3.516,12.112,-17.192,16.020
'[10:02:39.285 08/07/2079]',13.284,-29.304,10.549,7.814,5.470,-4.298,-5.861,7.424,6.642,-5.079,-2.735,3.126,-10.940,1.563,9.377,0.000,-3.516,-3.516,-9.768,7.814,15.629,-4.298,9.377
'[10:02:39.289 08/07/2079]',6.252,-31.258,11.331,17.973,-3.516,-7.033,-5.861,21.490,15.238,-8.205,-5.079,11.722,2.735,2.735,-5.079,12.112,-3.907,-5.079,-10.549,10.159,19.927,-1.172,-5.079
'[10:02:39.293 08/07/2079]',1.954,-25.006,13.284,6.252,-7.033,-5.861,0.391,10.159,19.145,-7.033,-1.172,1.954,6.252,10.159,-3.516,-0.391,-5.079,-4.298,-12.503,4.298,26.569,3.126,-3.516
'[10:02:39.297 08/07/2079]',-16.020,-15.629,17.192,4.298,-5.079,-3.516,-7.814,6.252,7.814,-8.205,-7.424,5.470,-7.424,5.861,-6.642,5.079,-4.298,-7.424,-16.410,12.503,24.225,0.781,-6.642
'[10:02:39.301 08/07/2079]',-5.079,-12.894,16.020,10.549,3.516,-8.596,-7.033,20.708,6.642,-8.596,-12.112,11.722,1.563,-4.689,-16.020,15.629,-8.987,-7.814,-15.238,8.205,28.913,-6.642,-16.020
'[10:02:39.305 08/07/2079]',9.377,-14.066,11.722,12.503,8.596,-14.457,5.861,19.145,8.987,-6.642,-9.768,6.252,14.847,-2.735,-19.536,5.861,-10.159,-2.344,-10.940,-1.172,33.602,0.391,-19.536
'[10:02:39.309 08/07/2079]',-8.205,-4.298,8.205,12.112,-0.781,-20.317,10.940,18.364,0.391,-9.377,-12.503,14.847,-3.126,5.470,-23.834,13.284,-10.159,-0.391,-7.424,-2.344,30.085,4.298,-23.834
'[10:02:39.313 08/07/2079]',-19.145,4.298,1.563,18.364,-8.205,-25.397,9.377,29.304,1.954,-8.987,-18.364,25.397,-2.344,6.642,-26.960,20.708,-12.894,-0.781,-0.781,-0.781,33.602,0.000,-26.960
'[10:02:39.316 08/07/2079]',10.159,-8.205,11.722,-3.907,-4.689,-15.629,29.695,1.172,10.940,2.344,-3.907,-9.768,20.317,10.549,-20.317,-10.940,-7.814,10.159,-10.940,7.424,33.211,0.000,-20.317
'[10:02:39.320 08/07/2079]',-3.907,-15.629,14.457,14.066,-11.331,-1.954,11.331,10.940,2.344,-0.781,-8.205,8.987,22.662,-14.066,-16.410,9.377,-5.861,10.940,-13.675,1.563,26.569,2.735,-16.410
'[10:02:39.324 08/07/2079]',-13.284,4.689,13.675,5.470,-5.470,-1.172,12.894,4.689,-1.172,1.563,-6.642,0.391,12.112,-1.172,-16.410,-0.391,-2.735,9.377,-12.894,0.000,33.993,1.172,-16.410
'[10:02:39.328 08/07/2079]',-18.755,19.145,17.973,4.689,-1.172,4.689,8.987,10.549,5.861,3.907,-4.689,5.079,17.582,9.377,-18.755,2.344,0.391,11.722,-17.192,1.172,36.728,2.344,-18.755
'[10:02:39.332 08/07/2079]',-19.927,15.629,14.847,8.987,-3.907,-3.516,18.755,8.987,0.391,0.391,-3.516,12.112,21.099,2.735,-21.490,5.861,0.391,16.410,-14.066,-2.344,32.821,8.596,-21.490
'[10:02:39.336 08/07/2079]',-8.205,4.689,18.755,4.298,-6.252,13.284,12.894,0.391,-1.954,-0.781,-1.954,7.814,21.880,-0.391,-24.225,4.689,0.000,19.927,-17.973,-0.781,29.304,7.814,-24.225
'[10:02:39.340 08/07/2079]',5.470,0.781,17.582,-0.781,-3.126,14.457,9.377,1.563,2.735,4.298,2.735,5.470,27.741,-3.126,-9.377,1.563,0.781,23.053,-16.801,3.907,24.225,-1.172,-9.377
'[10:02:39.344 08/07/2079]',0.391,-0.391,14.847,-1.563,-10.940,9.377,8.205,6.252,-5.861,-1.563,7.033,8.987,6.252,-8.205,1.172,7.814,-1.172,23.443,-14.066,7.033,3.907,-5.079,1.172
'[10:02:39.348 08/07/2079]',-4.298,12.112,11.722,-3.907,-12.112,16.410,13.675,-2.735,-4.689,0.391,8.205,3.907,-2.344,-2.344,7.814,4.298,-1.172,25.006,-10.940,-6.642,5.079,-6.642,7.814
'[10:02:39.352 08/07/2079]',5.470,5.079,12.112,-3.516,0.391,14.847,15.238,-12.112,-5.470,0.781,12.503,7.033,3.907,-7.033,9.377,7.814,-1.954,22.271,-11.331,-9.768,3.126,-2.735,9.377
'[10:02:39.355 08/07/2079]',1.954,6.252,8.205,-1.172,-3.907,12.894,7.814,-1.563,-7.424,-2.344,10.940,17.192,-0.781,-5.079,6.642,16.410,1.954,21.099,-7.424,-2.735,-8.987,0.781,6.642
'[10:02:39.359 08/07/2079]',-7.424,24.615,8.205,-3.126,-1.954,12.894,14.066,-3.126,-10.549,0.391,15.629,15.238,-8.987,5.470,7.424,15.238,7.033,25.006,-7.424,-15.238,-4.689,6.642,7.424
'[10:02:39.363 08/07/2079]',3.516,28.132,7.033,-8.205,6.642,14.847,17.973,-8.987,-8.205,5.861,21.099,12.894,-11.331,11.331,14.847,16.410,10.940,26.178,-6.252,-10.940,-14.066,1.954,14.847
'[10:02:39.367 08/07/2079]',13.675,17.973,5.470,4.298,4.298,14.066,16.801,6.252,-8.596,8.205,23.834,26.960,-2.735,-0.781,25.006,29.304,12.503,28.523,-4.689,-3.907,-19.927,-5.861,25.006
'[10:02:39.371 08/07/2079]',15.238,15.629,7.033,-6.252,0.000,8.205,32.430,-8.205,-9.377,12.503,31.648,9.377,2.735,-1.563,32.039,10.549,9.377,33.602,-6.252,-12.112,-19.145,-0.391,32.039
'[10:02:39.375 08/07/2079]',6.642,25.788,8.987,-1.563,7.814,20.708,17.192,-7.424,-3.907,11.331,27.741,15.629,-1.172,5.079,30.085,17.192,12.112,30.476,-8.205,-19.145,-9.768,-1.563,30.085
'[10:02:39.379 08/07/2079]',-5.470,37.118,8.596,0.391,2.344,19.145,17.192,0.391,0.000,16.410,21.490,9.768,-12.112,31.258,15.629,12.503,14.066,25.006,-7.814,-11.331,-21.490,17.973,15.629
'[10:02:39.383 08/07/2079]',4.298,21.490,14.066,3.907,6.642,30.085,4.689,0.781,-0.781,13.675,20.317,12.112,-1.563,12.112,16.020,17.973,17.582,25.397,-13.284,-11.331,-15.629,13.675,16.020
'[10:02:39.387 08/07/2079]',12.894,12.894,8.987,9.768,11.722,26.178,10.159,-3.907,3.126,17.582,12.894,10.940,9.768,-1.172,14.066,21.880,18.364,23.053,-8.205,-19.536,-13.675,13.675,14.066
'[10:02:39.391 08/07/2079]',18.364,19.536,7.814,-0.391,13.675,14.457,18.755,-2.735,7.033,17.973,13.284,-1.954,7.033,0.781,22.271,5.079,21.490,15.238,-7.033,-19.927,-19.536,12.112,22.271
'[10:02:39.395 08/07/2079]',2.735,23.834,6.252,-5.470,8.987,19.927,-1.172,0.391,5.861,10.159,8.596,1.172,0.781,7.033,8.987,9.377,17.973,10.940,-5.470,-9.768,-21.099,12.112,8.987
'[10:02:39.398 08/07/2079]',-1.172,27.350,4.298,-13.675,10.940,14.066,7.424,-16.410,7.033,9.377,12.894,-9.377,-1.954,16.410,6.642,0.391,10.940,11.722,-3.516,-21.099,-16.410,20.317,6.642
'[10:02:39.402 08/07/2079]',8.987,21.099,0.391,-4.689,15.629,14.847,11.722,-17.192,16.020,12.503,12.503,-3.126,7.424,16.410,5.861,8.205,9.377,11.722,0.391,-26.569,-13.675,25.788,5.861
'[10:02:39.406 08/07/2079]',9.377,10.940,3.516,1.563,13.284,17.973,0.391,-5.861,19.145,8.205,2.344,5.079,8.987,31.258,-26.178,21.880,8.205,8.596,-2.735,-10.549,-9.768,37.509,-26.178
'[10:02:39.410 08/07/2079]',0.781,18.755,0.000,4.689,19.927,10.159,-0.781,-5.470,21.880,16.801,4.298,-2.344,7.814,5.079,14.457,12.503,7.814,9.377,0.781,-17.973,-4.689,14.457,14.457
'[10:02:39.414 08/07/2079]',6.252,15.629,-5.079,2.344,17.973,3.126,13.675,-16.801,21.490,17.973,0.781,-12.112,8.987,1.172,10.549,5.861,4.298,9.768,5.861,-26.569,2.735,11.331,10.549
'[10:02:39.418 08/07/2079]',11.722,13.284,-5.079,-1.954,12.894,3.516,18.364,-18.364,19.145,18.364,-1.172,-22.662,8.987,4.298,6.252,-6.642,1.954,8.205,5.861,-19.536,1.563,12.894,6.252
'[10:02:39.422 08/07/2079]',2.735,6.252,-4.689,-3.907,8.205,9.377,-0.391,-18.364,13.284,18.755,-0.391,-26.960,5.079,2.344,8.596,-11.331,-0.781,7.424,5.470,-22.662,0.781,19.536,8.596
'[10:02:39.426 08/07/2079]',-10.940,25.788,-8.987,-10.159,8.596,2.344,8.596,-24.615,13.675,16.020,0.781,-30.867,3.126,12.503,0.391,-16.410,-3.126,4.689,9.768,-33.211,13.675,19.536,0.391
'[10:02:39.430 08/07/2079]',-27.741,27.350,-1.954,-7.424,8.205,17.582,-16.801,-19.145,16.801,13.284,-3.516,-21.099,-2.344,29.304,-11.331,-9.377,0.391,-1.563,2.735,-19.145,13.675,26.178,-11.331
'[10:02:39.434 08/07/2079]',-4.689,6.642,-2.735,6.642,11.722,19.145,-20.317,-4.298,11.722,11.331,0.391,-2.735,4.689,16.801,-5.470,5.079,-1.172,0.000,3.516,-8.596,8.987,17.582,-5.470
'[10:02:39.438 08/07/2079]',17.192,-5.861,-4.298,7.424,21.880,10.940,-9.768,-9.377,10.549,12.503,-0.391,-4.689,18.364,-7.033,4.298,1.954,-3.126,0.781,5.079,-13.284,14.847,3.126,4.298
'[10:02:39.441 08/07/2079]',4.689,-0.781,-1.172,3.126,9.768,7.814,0.391,-12.503,11.331,17.973,-2.344,-8.205,9.377,24.225,-7.814,-7.033,-3.126,0.781,1.954,-9.768,10.940,25.397,-7.814
'[10:02:39.445 08/07/2079]',3.516,11.331,-3.126,-4.689,0.781,12.894,2.735,-10.940,12.894,21.099,-3.126,-8.596,8.205,37.900,-14.457,-9.768,-2.735,1.563,3.907,-7.424,8.205,28.913,-14.457
'[10:02:39.449 08/07/2079]',2.735,12.112,-2.735,-5.079,9.377,9.377,0.391,-13.675,16.410,16.020,-9.377,-13.675,29.695,18.364,-26.178,-13.284,-5.079,0.391,3.516,-14.457,20.708,26.569,-26.178
'[10:02:39.453 08/07/2079]',5.861,5.861,-2.735,-0.781,5.470,7.814,8.596,-14.457,15.238,12.503,-13.284,-15.238,42.198,9.768,-35.946,-16.410,-5.470,0.000,3.516,-23.053,41.416,25.006,-35.946
'[10:02:39.457 08/07/2079]',-4.298,8.596,-10.549,2.344,-1.172,5.470,-3.516,-4.689,16.801,8.205,-22.662,-8.205,42.979,0.391,-36.337,-12.112,-5.470,-9.377,11.331,-21.490,49.231,18.755,-36.337
'[10:02:39.461 08/07/2079]',-7.424,7.814,-8.205,2.735,3.126,-1.954,-7.424,1.563,16.410,2.735,-31.648,-8.205,45.324,-5.861,-45.324,-14.847,-6.252,-15.238,8.987,-13.675,66.032,8.987,-45.324
'[10:02:39.465 08/07/2079]',-9.377,0.391,-9.377,1.172,0.391,-15.629,6.252,-8.596,10.159,2.344,-35.946,-18.364,39.072,-9.768,-41.807,-28.913,-10.549,-17.192,10.159,-12.503,71.893,7.814,-41.807
'[10:02:39.469 08/07/2079]',-5.470,-12.894,-5.079,-1.172,-0.781,0.391,-4.689,-20.317,17.192,7.424,-38.681,-14.066,49.231,-6.642,-43.761,-26.569,-10.940,-18.364,5.861,-5.470,72.674,17.582,-43.761
'[10:02:39.473 08/07/2079]',-5.079,-11.331,2.735,-10.549,-5.079,1.954,-5.470,-15.629,12.503,5.079,-34.774,-13.675,53.138,-5.861,-45.714,-31.258,-10.940,-16.410,-1.954,4.689,60.952,19.536,-45.714
'[10:02:39.477 08/07/2079]',-21.490,1.954,8.596,-9.377,-15.238,0.781,0.000,-4.689,6.252,7.424,-23.053,-16.020,45.714,-16.020,-18.364,-34.383,-8.596,-8.987,-7.814,3.907,60.952,-4.689,-18.364
'[10:02:39.480 08/07/2079]',-17.973,8.205,12.112,1.563,-17.192,5.861,13.284,0.781,0.391,9.768,-10.159,8.205,40.244,-15.238,-9.768,-5.861,-4.689,0.781,-11.331,2.344,48.840,-8.987,-9.768
'[10:02:39.484 08/07/2079]',-3.126,-5.861,7.424,7.424,-19.927,-3.907,19.145,10.159,-9.768,6.252,-8.205,9.377,39.853,-26.960,-11.331,-2.735,-7.033,0.391,-6.642,8.596,33.602,-17.582,-11.331
'[10:02:39.488 08/07/2079]',7.424,-10.940,7.814,3.907,-14.457,-10.940,23.443,9.768,-18.364,5.079,-7.814,3.516,37.118,-41.416,-9.377,-3.126,-4.689,1.563,-7.033,6.252,31.648,-27.350,-9.377
'[10:02:39.492 08/07/2079]',-1.954,4.689,-7.424,-1.563,-9.768,-15.629,21.880,-4.298,-15.629,5.470,-17.582,3.126,29.695,-34.774,-18.755,0.000,-4.298,-3.516,8.205,-3.516,28.523,-17.973,-18.755
'[10:02:39.496 08/07/2079]',-19.145,16.801,-14.847,0.391,-17.192,-23.443,18.755,3.516,-14.457,-1.563,-23.443,1.172,18.755,-26.569,-29.304,-0.781,-10.549,-14.847,15.629,-7.033,20.317,-10.549,-29.304
'[10:02:39.500 08/07/2079]',-3.907,15.629,0.781,-25.397,-0.781,-12.894,18.364,-17.973,-1.172,1.172,-18.364,-19.145,43.761,-33.211,-22.271,-25.788,-4.689,-8.987,0.000,-0.781,35.556,-22.271,-22.271
'[10:02:39.504 08/07/2079]',-5.470,2.344,-6.642,-4.298,-2.735,-8.596,4.298,-8.205,-6.252,-6.252,-24.225,-3.907,39.463,-48.449,-24.615,-8.596,-8.987,-12.112,7.424,-11.331,31.258,-15.238,-24.615
'[10:02:39.508 08/07/2079]',-11.722,9.377,-8.596,-14.847,-6.642,-14.457,8.596,-15.629,-9.377,-8.205,-23.834,-8.205,21.099,-26.178,-28.913,-16.801,-10.159,-17.192,9.377,-8.987,23.053,-4.298,-28.913
