'Time and date','FP1-F7','F7-T7','T7-P7','P7-O1','FP1-F3','F3-C3','C3-P3','P3-O1','FP2-F4','F4-C4','C4-P4','P4-O2','FP2-F8','F8-T8','T8-P8','P8-O2','FZ-CZ','CZ-PZ','P7-T7','T7-FT9','FT9-FT10','FT10-T8','T8-P8'
'hh:mm:ss.mmm dd/mm/yyyy','uV','uV','uV','uV','uV','uV','uV','uV','uV','uV','uV','uV','uV','uV','uV','uV','uV','uV','uV','uV','uV','uV','uV'
'[22:21:25.000 13/03/2059]',-119.560,50.403,28.132,33.602,-112.527,5.861,53.919,45.324,19.145,14.066,19.536,55.482,187.546,-115.263,-55.092,91.038,-1.954,69.939,-27.350,-91.429,185.201,-77.753,-55.092
'[22:21:25.004 13/03/2059]',0.391,0.391,0.391,0.391,0.391,0.391,0.391,0.391,0.391,0.391,0.391,0.391,0.391,0.391,0.391,0.391,0.391,0.391,0.391,0.391,0.391,0.391,0.391
'[22:21:25.008 13/03/2059]',0.391,0.391,0.391,0.391,0.391,0.391,0.391,0.391,0.391,0.391,0.391,0.391,0.391,0.391,0.391,0.391,0.391,0.391,0.391,0.391,0.391,0.391,0.391
'[22:21:25.012 13/03/2059]',0.391,0.391,0.000,0.000,0.391,0.391,0.391,0.000,0.391,0.391,0.391,0.391,0.000,0.391,1.172,0.391,0.391,0.391,0.781,0.391,-0.781,0.391,1.172
'[22:21:25.016 13/03/2059]',0.391,1.563,-1.172,0.781,0.781,0.000,0.391,1.172,0.391,0.391,0.391,0.391,1.172,0.391,0.000,0.781,0.391,0.781,1.954,-2.735,1.563,0.781,0.000
'[22:21:25.020 13/03/2059]',-0.781,0.000,1.954,1.954,-0.391,0.391,0.391,2.344,-0.391,1.172,0.391,0.391,1.563,2.735,-3.907,0.781,0.781,0.781,-1.172,1.563,4.298,1.954,-3.907
'[22:21:25.023 13/03/2059]',-1.954,-4.689,7.424,0.781,-2.735,1.954,1.954,0.391,-0.781,1.172,0.781,-0.391,0.391,1.954,-1.563,0.391,1.954,0.000,-6.642,11.331,1.954,-1.563,-1.563
'[22:21:25.027 13/03/2059]',0.391,-3.516,4.689,0.000,-0.781,1.954,1.563,-1.563,1.563,0.391,0.391,0.000,0.391,-3.907,5.861,0.391,1.172,-0.391,-3.907,6.252,-1.954,-3.516,5.861
'[22:21:25.031 13/03/2059]',2.735,5.861,-5.470,1.172,3.516,0.391,-0.781,1.172,3.907,0.391,-0.391,0.391,1.954,-4.298,4.689,1.172,0.391,0.781,6.252,-13.284,0.781,3.126,4.689
'[22:21:25.035 13/03/2059]',0.781,11.722,-8.205,1.563,2.735,0.391,-1.563,3.907,2.344,0.391,0.391,0.000,2.344,2.344,-3.126,1.172,1.172,0.781,8.987,-13.284,4.689,4.689,-3.126
'[22:21:25.039 13/03/2059]',-2.735,3.907,2.344,4.298,-1.954,2.735,1.563,5.470,-0.391,2.344,1.172,-0.391,5.470,3.516,-8.987,3.126,3.907,0.781,-1.563,7.424,11.722,-5.861,-8.987
'[22:21:25.043 13/03/2059]',-13.675,-12.503,27.350,19.927,-10.940,7.033,7.814,17.192,-3.907,14.457,0.781,-0.391,19.536,8.987,-27.741,10.549,10.940,6.642,-26.569,21.490,41.416,1.954,-27.741
'[22:21:25.047 13/03/2059]',-27.350,-43.370,70.330,22.271,-29.304,19.536,15.629,15.629,-7.033,21.099,5.079,-8.987,16.801,18.364,-33.993,9.377,22.271,3.516,-69.548,71.111,47.668,6.642,-33.993
'[22:21:25.051 13/03/2059]',-26.178,-28.523,67.985,25.006,-30.085,32.039,17.582,17.582,10.159,22.662,5.079,-13.284,29.304,-19.145,1.172,13.675,32.821,0.000,-67.204,69.158,54.701,-32.821,1.172
'[22:21:25.055 13/03/2059]',-16.020,7.814,38.291,32.430,-16.801,39.072,16.020,23.834,32.039,25.397,1.563,-18.364,40.635,-37.118,16.410,20.708,40.244,0.391,-37.509,19.145,58.217,-26.569,16.410
'[22:21:25.059 13/03/2059]',-7.814,46.886,8.987,33.211,-1.954,45.714,12.503,23.834,49.621,22.662,2.735,-30.867,43.370,-33.993,14.457,20.708,45.324,-2.344,-8.205,-25.006,62.125,-8.596,14.457
'[22:21:25.063 13/03/2059]',-3.126,80.098,-6.252,30.867,4.689,56.264,14.847,24.225,64.469,18.755,5.470,-39.072,47.668,-45.714,25.006,22.662,52.747,-4.689,7.033,-36.337,68.767,-34.774,25.006
'[22:21:25.066 13/03/2059]',0.391,61.734,15.238,39.853,9.377,62.125,18.755,26.178,63.297,28.132,3.126,-43.370,53.529,-41.416,13.284,26.178,57.045,0.391,-14.457,-13.284,78.926,-30.476,13.284
'[22:21:25.070 13/03/2059]',-6.252,45.714,34.774,44.542,3.516,67.204,24.225,22.271,64.469,36.337,3.907,-56.264,53.919,-25.788,0.781,20.317,58.217,1.954,-33.993,-9.768,89.866,1.172,0.781
'[22:21:25.074 13/03/2059]',-0.391,56.654,37.900,37.118,11.722,71.111,28.132,19.927,73.065,37.900,5.079,-66.032,51.575,-35.556,23.053,11.331,63.297,-3.516,-37.118,-5.470,91.429,-17.582,23.053
'[22:21:25.078 13/03/2059]',5.861,75.018,20.708,39.853,21.099,66.032,27.350,26.960,79.316,43.370,1.172,-67.595,53.529,-39.463,33.602,8.596,66.813,-9.768,-19.927,-5.861,91.429,-33.993,33.602
'[22:21:25.082 13/03/2059]',9.768,53.919,36.337,45.324,30.085,55.873,28.913,30.085,86.349,39.072,-2.735,-71.893,53.919,-21.880,19.536,-0.781,63.687,-14.066,-35.556,1.172,95.726,3.126,19.536
'[22:21:25.086 13/03/2059]',6.642,26.178,71.893,43.370,32.430,50.794,28.913,34.774,80.098,35.165,-3.516,-68.767,51.184,-21.880,23.443,-10.159,58.217,-20.317,-71.111,26.960,109.792,7.814,23.443
'[22:21:25.090 13/03/2059]',0.391,11.722,91.038,46.496,29.304,48.449,26.960,43.761,70.720,32.039,-3.907,-66.032,53.529,-31.258,29.304,-19.536,54.701,-20.708,-90.256,55.092,129.719,-12.503,29.304
'[22:21:25.094 13/03/2059]',-5.079,5.861,91.429,50.794,22.271,42.979,25.397,50.794,66.422,28.913,-6.252,-69.548,65.250,-37.900,20.708,-29.304,46.496,-16.410,-90.647,52.747,145.348,-4.298,20.708
'[22:21:25.098 13/03/2059]',-7.424,8.596,92.991,45.714,22.271,40.635,28.913,46.886,67.985,32.039,-1.954,-80.488,62.515,-51.184,46.105,-40.244,39.853,-16.410,-92.210,42.589,145.739,-8.205,46.105
'[22:21:25.102 13/03/2059]',1.172,20.317,84.005,41.416,31.648,39.463,30.867,44.151,76.972,39.463,2.344,-95.726,54.701,-41.807,61.734,-50.403,42.979,-19.536,-83.223,42.979,131.673,-11.331,61.734
'[22:21:25.105 13/03/2059]',4.689,10.159,77.363,48.840,27.350,32.821,24.225,56.264,76.581,40.635,1.172,-97.289,43.761,-20.708,52.357,-53.919,45.714,-19.536,-76.581,50.012,119.951,6.252,52.357
'[22:21:25.109 13/03/2059]',7.033,35.946,38.291,52.357,25.397,25.006,18.364,63.687,69.158,39.463,2.735,-91.038,27.741,-12.503,60.952,-54.701,45.324,-22.662,-37.509,8.205,112.527,23.053,60.952
'[22:21:25.113 13/03/2059]',12.503,86.740,-18.364,52.747,26.960,21.099,15.238,69.158,55.873,42.979,5.079,-87.131,22.662,-8.205,62.906,-58.999,48.059,-29.695,19.145,-27.741,106.667,17.973,62.906
'[22:21:25.117 13/03/2059]',14.457,178.168,-110.965,53.529,21.880,21.490,16.801,73.846,51.966,43.761,6.642,-82.442,30.867,8.987,46.105,-66.032,51.575,-29.695,111.746,-105.495,109.011,26.178,46.105
'[22:21:25.121 13/03/2059]',10.940,176.606,-110.965,59.389,19.536,19.927,16.410,79.316,46.105,43.761,6.642,-74.628,33.602,0.391,53.919,-64.860,52.357,-24.225,111.746,-117.216,115.263,31.258,53.919
'[22:21:25.125 13/03/2059]',20.708,59.389,3.516,60.171,29.304,23.053,16.801,73.846,43.370,52.747,10.549,-79.707,34.774,-0.391,63.297,-69.939,53.919,-25.006,-2.735,-5.470,112.918,34.383,63.297
'[22:21:25.129 13/03/2059]',26.178,-25.788,79.316,66.813,30.867,29.304,8.205,76.972,41.807,56.654,10.940,-78.535,43.761,20.708,38.291,-71.502,58.608,-25.397,-78.535,92.991,116.825,39.853,38.291
'[22:21:25.133 13/03/2059]',33.211,-56.264,95.726,76.190,39.072,26.569,0.391,81.661,35.165,52.357,13.284,-68.376,44.151,14.066,37.509,-63.687,57.827,-19.145,-94.945,109.402,127.375,35.165,37.509
'[22:21:25.137 13/03/2059]',35.165,-41.026,71.111,75.018,46.886,22.271,-7.424,76.972,32.039,51.184,17.192,-69.548,48.840,16.020,27.741,-61.734,53.138,-17.582,-70.330,75.800,132.063,47.668,27.741
'[22:21:25.141 13/03/2059]',32.821,33.211,-5.079,69.939,48.449,23.443,-13.675,72.674,32.430,49.231,24.225,-70.330,64.078,27.741,8.596,-64.469,53.919,-19.145,5.861,14.066,135.189,50.012,8.596
'[22:21:25.145 13/03/2059]',27.741,58.608,-32.821,70.330,46.886,21.880,-17.192,71.893,30.867,43.761,30.085,-59.780,66.813,24.615,12.894,-59.389,57.827,-15.238,33.602,-7.033,139.096,34.383,12.894
'[22:21:25.148 13/03/2059]',26.178,30.867,-14.066,69.158,45.714,21.880,-20.708,65.250,21.099,40.244,35.946,-56.654,64.469,14.847,23.443,-62.125,57.827,-12.894,14.847,4.689,138.706,35.556,23.443
'[22:21:25.152 13/03/2059]',32.039,11.722,-5.079,65.641,50.794,20.708,-24.225,57.045,5.861,41.416,41.416,-59.389,60.952,-5.470,43.761,-69.158,57.827,-15.629,5.861,21.490,132.063,19.927,43.761
'[22:21:25.156 13/03/2059]',55.092,14.066,-17.973,69.548,71.893,18.755,-32.039,60.952,-1.954,41.416,45.714,-45.714,57.045,-1.172,51.966,-68.767,60.171,-12.112,18.755,25.397,124.640,11.331,51.966
'[22:21:25.160 13/03/2059]',79.707,28.132,-45.714,69.158,94.945,15.629,-42.198,62.125,-7.424,39.463,48.449,-42.198,54.701,8.987,44.542,-71.111,55.873,-4.689,46.496,-0.781,117.216,25.788,44.542
'[22:21:25.164 13/03/2059]',92.991,42.979,-66.813,56.264,106.276,17.582,-46.496,47.668,-9.377,37.509,55.482,-48.840,52.357,-1.172,58.608,-75.018,49.231,-4.689,67.595,-21.880,99.634,19.145,58.608
'[22:21:25.168 13/03/2059]',94.554,-16.410,-15.629,51.184,104.713,17.192,-50.403,41.026,-16.801,32.430,58.999,-47.668,44.151,5.079,46.886,-70.330,45.714,-4.689,16.410,44.542,91.038,11.722,46.886
'[22:21:25.172 13/03/2059]',95.336,-43.370,-2.344,46.105,96.508,17.192,-53.138,33.211,-21.099,23.053,61.734,-42.589,37.509,2.344,42.589,-62.125,41.807,3.516,3.126,57.436,90.647,6.252,42.589
'[22:21:25.176 13/03/2059]',90.647,-21.880,-33.993,36.337,83.614,17.192,-54.310,23.053,-22.662,16.801,60.562,-44.542,36.337,1.172,28.132,-55.873,35.165,6.642,34.774,13.675,85.568,16.410,28.132
'[22:21:25.180 13/03/2059]',86.349,-21.099,-41.807,30.867,76.581,11.722,-52.747,17.192,-20.708,15.238,61.343,-42.198,43.761,9.377,14.847,-55.873,34.383,7.424,42.589,20.317,80.879,14.066,14.847
'[22:21:25.184 13/03/2059]',96.899,-29.695,-39.853,30.476,84.396,7.424,-52.357,16.020,-22.271,17.973,60.562,-34.383,46.496,23.053,7.814,-56.264,34.383,14.847,40.635,35.946,71.111,13.675,7.814
'[22:21:25.188 13/03/2059]',104.713,-43.761,-32.430,27.741,92.601,8.205,-57.436,12.112,-14.066,16.410,57.827,-34.774,53.138,28.132,4.298,-60.562,29.304,19.536,33.211,32.821,61.343,32.039,4.298
'[22:21:25.191 13/03/2059]',108.620,-54.310,-29.695,26.569,92.210,8.596,-61.343,10.159,-17.192,13.675,58.217,-31.648,48.449,3.907,33.211,-62.906,23.443,18.364,30.476,41.026,45.714,10.159,33.211
'[22:21:25.195 13/03/2059]',119.951,-55.092,-37.118,26.569,92.601,9.377,-60.952,12.112,-35.556,15.238,57.827,-23.834,31.648,-7.033,51.966,-62.906,22.662,19.927,37.900,51.575,35.946,-20.708,51.966
'[22:21:25.199 13/03/2059]',141.832,-35.165,-69.548,24.615,99.634,12.894,-59.389,7.814,-46.496,13.675,58.217,-19.927,26.178,-10.159,49.621,-59.389,18.755,27.741,70.330,11.722,32.039,-19.927,49.621
'[22:21:25.203 13/03/2059]',144.176,-34.383,-68.767,20.708,100.415,12.503,-54.701,2.344,-61.343,16.020,60.171,-17.192,16.020,-1.172,37.509,-55.092,15.238,33.211,69.548,0.000,18.755,1.954,37.509
'[22:21:25.207 13/03/2059]',133.236,-80.098,-16.410,17.973,94.554,13.675,-54.701,0.391,-69.158,29.695,60.562,-17.973,21.099,16.020,19.536,-54.310,17.582,33.993,17.192,61.734,12.503,3.126,19.536
'[22:21:25.211 13/03/2059]',112.137,-100.806,7.814,13.284,74.237,19.927,-58.608,-2.735,-62.125,33.602,58.999,-21.099,30.085,28.913,0.000,-49.621,20.317,36.728,-7.033,94.554,3.907,6.642,0.000
'[22:21:25.215 13/03/2059]',89.475,-82.442,-3.126,9.768,53.919,21.880,-57.045,-4.689,-49.621,27.741,55.092,-19.536,30.085,41.807,-17.192,-41.807,18.364,35.946,3.907,69.939,-3.516,25.788,-17.192
'[22:21:25.219 13/03/2059]',78.535,-35.165,-42.198,4.689,38.681,23.834,-52.357,-4.689,-46.886,28.913,53.138,-22.271,27.741,31.258,-2.344,-43.370,16.410,30.867,42.979,33.993,-12.503,4.689,-2.344
'[22:21:25.223 13/03/2059]',79.316,13.675,-83.614,1.172,35.165,23.053,-46.886,0.000,-50.794,23.443,50.403,-14.457,14.066,19.145,14.066,-39.853,16.020,31.258,84.396,-2.735,-21.099,-19.927,14.066
'[22:21:25.227 13/03/2059]',89.866,37.118,-92.991,-0.781,48.059,18.364,-37.118,2.344,-58.999,18.364,47.277,-1.954,2.344,23.443,11.331,-32.821,12.503,35.165,93.773,-27.741,-23.053,-19.145,11.331
'[22:21:25.230 13/03/2059]',97.289,8.596,-47.277,-8.205,58.217,20.317,-24.225,-3.516,-65.641,25.006,47.277,0.781,-1.954,16.801,29.304,-35.165,8.596,32.821,48.059,2.735,-36.728,-22.271,29.304
'[22:21:25.234 13/03/2059]',94.554,-49.231,22.271,-13.284,53.529,21.490,-15.238,-7.033,-68.376,27.350,46.886,12.894,-3.516,14.457,36.337,-28.132,10.159,28.132,-21.490,76.190,-54.310,-33.211,36.337
'[22:21:25.238 13/03/2059]',80.879,-44.542,25.397,-12.894,37.509,23.443,-8.596,-4.689,-68.767,27.350,42.198,26.960,-3.907,17.582,28.132,-12.503,11.722,30.476,-24.615,58.999,-52.357,-28.523,28.132
'[22:21:25.242 13/03/2059]',69.158,-8.596,4.298,-13.675,29.304,24.615,-0.391,-3.516,-69.939,31.258,37.509,26.960,-4.689,15.629,18.364,-2.344,11.722,27.741,-3.516,10.549,-49.621,-19.536,18.364
'[22:21:25.246 13/03/2059]',58.217,19.536,-10.159,-14.066,20.708,24.225,5.861,0.781,-70.720,34.774,33.211,32.430,-0.391,9.768,14.457,7.424,14.847,21.099,10.940,3.907,-50.794,-40.244,14.457
'[22:21:25.250 13/03/2059]',44.933,75.800,-61.734,-11.722,8.596,20.317,12.503,4.298,-78.144,34.774,25.397,39.072,-1.172,5.470,-1.172,19.536,17.192,21.490,62.515,-35.165,-48.449,-56.654,-1.172
'[22:21:25.254 13/03/2059]',43.370,71.111,-48.840,-14.066,9.768,17.973,19.536,3.126,-76.190,36.337,15.629,39.463,1.954,0.391,-8.596,22.662,14.066,19.536,49.621,-37.900,-50.794,-44.542,-8.596
'[22:21:25.258 13/03/2059]',56.264,35.946,-9.377,-22.662,19.536,18.755,21.880,-0.781,-75.409,31.648,9.377,34.774,-3.907,13.675,-21.490,14.066,10.159,8.205,10.159,14.457,-71.893,-31.648,-21.490
'[22:21:25.262 13/03/2059]',59.389,27.350,5.079,-26.960,23.834,16.410,25.788,-2.344,-66.813,26.569,3.126,48.840,0.391,31.258,-34.774,15.629,8.987,2.735,-4.298,41.416,-76.581,-26.960,-34.774
'[22:21:25.266 13/03/2059]',53.529,95.726,-29.695,-32.430,37.118,19.927,31.648,-3.907,-42.589,25.397,-1.954,47.668,10.549,47.668,-42.198,12.503,8.205,2.735,30.476,-35.165,-56.654,-7.814,-42.198
'[22:21:25.270 13/03/2059]',58.999,80.879,19.145,-32.821,61.734,25.788,37.900,-0.781,-19.927,27.741,-6.252,53.138,16.020,75.409,-48.059,11.331,9.377,0.000,-18.364,-20.708,-43.370,17.973,-48.059
'[22:21:25.273 13/03/2059]',58.999,63.687,57.436,-33.602,72.283,27.741,42.589,1.563,-4.689,31.648,-7.814,55.873,31.258,55.482,-25.397,13.675,14.066,0.391,-56.654,16.801,-25.788,-24.615,-25.397
'[22:21:25.277 13/03/2059]',58.217,109.402,24.615,-29.695,78.144,30.476,43.370,9.377,1.563,38.681,-12.503,62.125,37.900,25.397,3.516,20.708,17.973,4.298,-23.834,-24.225,-6.252,-66.813,3.516
'[22:21:25.281 13/03/2059]',64.469,110.574,32.821,-29.695,90.647,29.695,43.761,11.722,7.424,44.151,-17.582,60.952,43.370,14.457,17.973,19.536,17.192,3.126,-32.039,-31.258,3.516,-74.628,17.973
'[22:21:25.285 13/03/2059]',98.852,135.189,17.192,-30.476,135.189,30.085,43.370,10.940,30.867,42.198,-21.490,64.078,68.376,5.079,23.053,17.973,16.020,-1.563,-16.410,-35.946,13.675,-97.680,23.053
'[22:21:25.289 13/03/2059]',107.448,238.339,-77.363,-26.178,157.851,26.569,39.072,16.410,53.919,36.337,-30.867,73.455,93.773,11.722,2.735,24.225,12.894,-3.907,78.144,-122.686,33.602,-109.011,2.735
'[22:21:25.293 13/03/2059]',111.746,227.399,-62.906,-21.490,168.791,27.350,36.337,19.927,91.038,16.801,-40.244,81.270,115.263,17.973,-9.768,25.397,10.549,-7.814,63.687,-120.733,51.575,-100.024,-9.768
'[22:21:25.297 13/03/2059]',141.832,154.335,18.364,-22.271,209.426,29.304,39.463,12.503,114.872,10.159,-45.324,77.753,142.222,10.549,-14.066,19.927,8.205,-16.410,-17.582,-35.946,72.674,-115.263,-14.066
'[22:21:25.301 13/03/2059]',155.507,110.574,61.343,-21.880,225.055,32.430,38.681,7.033,134.799,-1.563,-45.714,72.283,156.679,3.126,-13.284,13.675,7.424,-23.443,-60.562,16.020,93.382,-137.924,-13.284
'[22:21:25.305 13/03/2059]',152.772,82.833,79.707,-16.020,221.538,33.602,33.602,8.205,135.189,8.205,-51.184,73.065,168.791,0.391,-14.847,12.112,5.079,-23.834,-78.926,22.271,109.011,-131.282,-14.847
'[22:21:25.309 13/03/2059]',159.805,80.879,90.256,-11.722,249.280,30.085,30.085,7.424,124.249,9.377,-50.012,67.985,171.136,-3.907,-19.927,5.079,-1.172,-26.569,-89.475,24.225,125.421,-120.342,-19.927
'[22:21:25.313 13/03/2059]',161.758,130.110,53.919,-8.205,271.941,25.788,33.211,5.079,126.203,10.159,-46.886,67.595,185.983,-3.516,-30.476,5.470,-6.642,-28.913,-53.138,5.470,142.222,-138.315,-30.476
'[22:21:25.316 13/03/2059]',114.872,160.586,31.258,-1.172,237.949,21.099,39.072,6.252,118.388,-1.172,-49.621,69.939,174.261,-0.781,-45.714,9.377,-11.331,-23.053,-30.476,-14.457,162.930,-144.176,-45.714
'[22:21:25.320 13/03/2059]',118.388,176.996,29.695,4.689,258.657,18.755,48.059,4.298,116.044,-8.596,-45.324,68.376,173.480,7.033,-58.999,8.987,-12.894,-17.973,-28.913,-35.556,187.937,-123.468,-58.999
'[22:21:25.324 13/03/2059]',117.216,208.645,5.861,1.563,255.140,24.615,54.310,-1.172,131.282,-8.596,-35.556,59.389,191.062,21.880,-67.985,1.172,-5.861,-18.364,-5.079,-58.999,204.737,-122.686,-67.985
'[22:21:25.328 13/03/2059]',131.282,210.989,-21.880,7.033,250.061,24.225,46.886,4.298,142.222,-13.284,-37.509,66.813,212.161,16.801,-67.985,-2.344,-0.781,-19.927,22.662,-59.389,205.519,-135.189,-67.985
'[22:21:25.332 13/03/2059]',165.665,181.294,-14.066,13.284,285.226,15.238,37.509,6.252,160.195,-17.973,-37.118,68.767,239.121,9.768,-71.111,-4.298,-0.391,-21.490,14.847,-55.092,213.333,-123.077,-71.111
'[22:21:25.336 13/03/2059]',189.109,181.294,-7.424,12.894,338.755,4.689,32.039,-0.391,196.532,-32.430,-29.695,64.860,259.048,0.391,-49.621,-9.768,-0.781,-28.132,8.205,-59.389,219.976,-125.421,-49.621
'[22:21:25.340 13/03/2059]',187.937,135.580,16.801,14.847,345.788,-9.377,21.880,-1.954,178.559,-42.979,-30.085,61.734,240.684,-23.053,-35.556,-13.284,-9.768,-33.211,-16.020,0.391,206.691,-151.990,-35.556
'[22:21:25.344 13/03/2059]',156.288,110.965,30.085,14.457,323.516,-22.662,20.708,-8.205,155.897,-53.529,-28.132,52.357,205.128,-16.020,-42.198,-18.364,-16.410,-31.648,-29.304,10.940,212.552,-140.659,-42.198
'[22:21:25.348 13/03/2059]',132.454,126.984,6.642,14.066,295.385,-22.662,24.615,-16.020,140.269,-46.496,-20.708,40.244,184.811,-3.907,-39.463,-26.960,-19.145,-31.258,-5.861,-18.755,206.691,-117.998,-39.463
'[22:21:25.352 13/03/2059]',112.918,97.289,-5.470,12.894,236.386,-18.755,22.662,-21.490,100.024,-30.476,-22.662,31.648,173.480,-11.722,-50.012,-32.039,-24.225,-31.648,6.252,0.000,198.095,-121.905,-50.012
'[22:21:25.355 13/03/2059]',103.932,57.436,8.205,14.066,199.658,-12.112,18.755,-20.708,98.462,-21.490,-24.225,32.039,183.248,-21.099,-43.370,-32.039,-23.053,-22.662,-7.424,26.960,207.863,-141.050,-43.370
'[22:21:25.359 13/03/2059]',125.421,50.403,9.377,18.755,222.320,-10.940,11.331,-17.192,116.044,-19.927,-24.615,35.946,204.347,-31.258,-37.118,-27.350,-27.741,-16.020,-8.596,21.099,215.678,-140.659,-37.118
'[22:21:25.363 13/03/2059]',136.752,63.687,1.954,7.033,239.121,-7.033,7.033,-27.350,122.295,-17.582,-21.880,29.695,217.241,-29.695,-35.946,-37.509,-29.304,-15.238,-1.172,22.271,214.896,-144.957,-35.946
'[22:21:25.367 13/03/2059]',139.096,71.502,-13.284,0.000,233.260,-14.066,4.298,-26.569,113.700,-23.053,-19.927,34.774,203.565,-2.344,-51.184,-42.589,-29.304,-10.549,14.066,24.615,205.519,-133.626,-51.184
'[22:21:25.371 13/03/2059]',133.626,78.144,-38.681,-4.689,214.896,-23.443,3.126,-26.178,94.554,-23.834,-19.927,31.258,189.109,22.662,-75.018,-53.919,-33.211,-7.033,39.463,-6.642,199.658,-91.819,-75.018
'[22:21:25.375 13/03/2059]',140.659,37.900,-17.192,-13.675,200.440,-23.053,3.907,-33.993,73.065,-19.536,-17.973,20.317,176.996,30.476,-80.879,-70.330,-34.774,-8.596,17.973,16.801,185.201,-67.595,-80.879
'[22:21:25.379 13/03/2059]',142.222,21.099,-17.973,-19.145,188.327,-25.788,0.000,-35.165,55.482,-12.112,-20.317,17.973,164.103,29.695,-79.316,-72.674,-32.821,-8.596,18.755,43.370,165.665,-81.661,-79.316
'[22:21:25.383 13/03/2059]',153.162,5.470,-3.907,-21.099,201.221,-27.350,-4.298,-33.602,60.952,-12.503,-24.615,19.536,172.698,-6.642,-54.310,-67.204,-32.039,-3.907,4.689,66.813,154.725,-117.607,-54.310
'[22:21:25.387 13/03/2059]',152.772,5.861,1.172,-28.913,204.737,-23.443,-8.205,-39.853,73.846,-12.894,-23.834,15.238,184.029,-34.383,-35.946,-59.389,-35.165,-1.954,-0.391,64.078,140.659,-130.110,-35.946
'[22:21:25.391 13/03/2059]',134.799,30.085,-22.271,-38.291,175.824,-15.238,-12.112,-42.979,85.568,-6.252,-23.834,9.768,189.109,-30.085,-39.072,-53.138,-31.648,-2.735,23.053,46.105,129.719,-138.315,-39.072
'[22:21:25.395 13/03/2059]',119.170,17.582,-25.397,-36.337,132.063,-8.596,-15.238,-32.430,83.614,-8.987,-26.569,22.662,189.499,-23.834,-52.357,-40.635,-25.788,-1.563,26.178,58.217,123.077,-140.659,-52.357
'[22:21:25.398 13/03/2059]',126.203,-10.549,-19.145,-34.774,111.746,0.000,-16.410,-33.993,62.125,-20.317,-28.132,26.960,169.182,-13.284,-75.018,-37.900,-26.960,-0.781,19.927,62.515,112.918,-109.402,-75.018
'[22:21:25.402 13/03/2059]',131.282,-1.954,-51.184,-30.085,100.415,3.126,-15.629,-40.635,24.615,-12.503,-25.788,28.523,135.971,5.079,-82.051,-42.198,-24.615,-1.563,51.966,31.258,98.852,-81.661,-82.051
'[22:21:25.406 13/03/2059]',135.971,7.424,-79.316,-12.894,101.587,-4.298,-16.410,-28.132,17.192,-7.424,-26.960,44.151,127.375,16.410,-82.442,-33.993,-18.755,1.563,80.098,25.006,73.455,-75.018,-82.442
'[22:21:25.410 13/03/2059]',146.520,-12.503,-64.078,-13.675,108.620,-5.861,-15.629,-28.523,-11.722,5.861,-23.443,39.853,110.183,-1.954,-62.906,-34.774,-18.364,12.112,64.860,28.132,67.204,-86.740,-62.906
'[22:21:25.414 13/03/2059]',142.222,-32.039,-59.780,-5.470,86.349,-0.391,-12.112,-28.132,-29.695,33.602,-16.410,37.509,111.355,-11.331,-42.979,-30.867,-18.364,18.755,60.562,23.053,56.654,-84.786,-42.979
'[22:21:25.418 13/03/2059]',128.156,-37.900,-51.575,-13.284,55.092,6.642,-10.549,-25.788,-8.987,37.118,-8.205,31.648,128.156,0.391,-48.840,-27.350,-16.020,25.397,52.357,38.291,48.449,-90.256,-48.840
'[22:21:25.422 13/03/2059]',124.640,-63.687,-8.987,-17.582,50.403,17.192,-17.582,-16.410,1.954,14.457,-5.470,36.337,126.984,3.516,-65.250,-16.410,-16.410,34.383,9.768,62.515,59.780,-87.131,-65.250
'[22:21:25.426 13/03/2059]',125.812,-69.548,3.516,-16.410,57.827,21.490,-23.053,-13.284,0.000,-0.391,0.000,42.979,110.183,21.099,-84.396,-4.298,-16.410,36.337,-2.735,57.045,51.575,-50.012,-84.396
'[22:21:25.430 13/03/2059]',117.607,-14.457,-43.370,-11.722,68.376,17.973,-27.741,-11.331,12.503,-10.940,4.298,44.151,105.104,32.821,-91.038,3.126,-9.768,31.258,44.151,25.006,33.211,-44.933,-91.038
'[22:21:25.434 13/03/2059]',98.852,-40.244,-15.629,-8.205,53.529,19.145,-28.913,-9.377,3.126,-16.020,6.252,41.807,78.535,24.225,-75.018,8.205,-2.344,31.258,16.410,62.125,16.020,-60.171,-75.018
'[22:21:25.438 13/03/2059]',101.978,-52.747,-18.755,4.298,45.714,25.006,-31.648,-4.298,8.205,-3.907,8.987,48.840,67.595,13.675,-39.853,21.490,1.563,33.993,19.536,44.542,-7.814,-50.794,-39.853
'[22:21:25.441 13/03/2059]',99.634,-46.886,-39.463,6.642,30.085,29.304,-35.556,-3.907,34.774,-1.172,10.549,45.324,73.455,9.377,-18.364,25.006,2.735,30.476,40.244,27.350,-31.648,-48.059,-18.364
'[22:21:25.445 13/03/2059]',79.316,-78.535,-13.675,7.033,-3.516,34.774,-37.118,0.000,22.662,0.000,10.549,42.979,50.012,17.973,-13.284,23.443,9.768,28.132,14.457,65.250,-44.542,-53.529,-13.284
'[22:21:25.449 13/03/2059]',70.330,-106.276,3.907,15.629,-20.708,40.244,-41.807,7.033,-11.722,12.503,8.987,46.886,25.006,23.834,-13.284,22.271,16.410,28.132,-3.126,76.581,-53.529,-32.039,-13.284
'[22:21:25.453 13/03/2059]',48.059,-92.601,-14.847,19.536,-44.542,43.370,-45.324,7.424,-42.979,21.880,7.814,41.416,5.470,21.880,-16.801,18.364,20.317,23.443,15.629,50.012,-54.310,-11.331,-16.801
'[22:21:25.457 13/03/2059]',27.741,-91.038,-21.880,24.615,-68.767,51.966,-50.403,7.033,-114.872,41.026,6.642,32.430,-47.277,32.821,-27.741,9.768,28.913,17.192,22.662,64.860,-55.092,-8.987,-27.741
'[22:21:25.461 13/03/2059]',19.536,-82.833,-35.946,38.681,-78.535,64.078,-58.217,13.284,-126.593,55.092,6.642,32.821,-55.873,40.635,-28.132,13.675,33.993,16.020,36.728,63.687,-58.217,-1.172,-28.132
'[22:21:25.465 13/03/2059]',21.880,-79.316,-49.621,54.310,-69.158,64.860,-63.687,15.629,-60.952,33.211,3.516,34.774,-22.662,35.556,-25.788,24.615,29.695,11.331,50.403,50.012,-58.217,12.894,-25.788
'[22:21:25.469 13/03/2059]',21.490,-86.349,-48.059,61.734,-57.045,60.171,-65.250,11.331,-31.648,21.880,3.907,27.741,-22.662,45.324,-25.788,26.569,27.350,1.563,48.840,64.860,-66.813,21.880,-25.788
'[22:21:25.473 13/03/2059]',7.424,-97.289,-48.449,73.065,-65.250,54.701,-68.767,15.238,-1.954,3.907,0.391,26.178,-23.443,53.138,-28.913,30.085,27.741,-3.126,49.231,83.223,-76.581,28.523,-28.913
'[22:21:25.477 13/03/2059]',-5.079,-139.487,-6.252,71.502,-69.158,43.370,-73.065,18.364,26.178,-21.880,-8.205,33.211,-31.258,37.509,-10.549,34.383,25.006,-8.596,7.033,111.746,-79.707,30.085,-10.549
'[22:21:25.480 13/03/2059]',-19.536,-164.103,22.662,60.952,-82.051,42.979,-69.158,7.424,26.569,-21.880,-12.112,21.880,-53.138,24.615,17.582,24.225,25.788,-18.755,-21.880,132.845,-92.601,27.741,17.582
'[22:21:25.484 13/03/2059]',-21.490,-132.454,-4.298,58.999,-87.131,45.714,-66.032,6.642,6.642,-10.549,-14.847,16.020,-72.283,14.066,39.853,14.847,33.211,-26.569,5.079,114.090,-97.289,13.675,39.853
'[22:21:25.488 13/03/2059]',-30.085,-81.661,-42.979,54.701,-96.117,47.668,-65.641,12.503,-16.020,-0.391,-17.582,19.145,-91.819,8.205,52.357,14.847,39.463,-26.960,43.761,58.608,-93.773,15.238,52.357
'[22:21:25.492 13/03/2059]',-33.602,-35.946,-82.833,54.701,-94.164,40.244,-60.562,16.020,-37.509,10.549,-17.192,8.205,-112.137,5.861,58.217,10.549,45.714,-32.430,83.614,4.298,-94.554,27.741,58.217
'[22:21:25.496 13/03/2059]',-39.072,39.072,-152.381,54.310,-93.773,31.258,-55.482,20.708,-74.628,23.443,-11.722,0.391,-137.924,1.954,64.860,8.205,53.138,-35.556,153.162,-52.357,-92.601,12.894,64.860
'[22:21:25.500 13/03/2059]',-38.291,-8.596,-101.978,51.184,-89.866,16.410,-53.919,28.913,-63.297,15.238,-10.940,-0.781,-126.984,-10.159,67.595,9.768,53.919,-37.118,102.759,-6.252,-81.661,0.781,67.595
'[22:21:25.504 13/03/2059]',-38.291,-94.164,-26.569,54.701,-85.568,2.344,-53.138,31.648,-33.993,3.126,-8.596,-5.079,-111.355,-14.457,68.376,11.331,47.668,-40.635,27.350,55.873,-85.958,20.708,68.376
'[22:21:25.508 13/03/2059]',-41.416,-134.408,13.284,56.264,-82.833,3.907,-54.310,26.569,-15.238,-3.907,0.391,-17.192,-100.415,-2.344,62.515,3.126,44.933,-46.496,-12.503,103.541,-83.223,34.383,62.515
'[22:21:25.512 13/03/2059]',-42.589,-126.593,-0.781,60.171,-84.005,0.000,-55.092,28.523,-17.192,-11.722,4.298,-21.099,-106.276,12.112,46.105,0.391,44.151,-50.403,1.563,111.355,-86.349,37.118,46.105
'[22:21:25.516 13/03/2059]',-66.032,-91.819,-50.012,68.767,-107.448,-7.814,-56.264,31.648,-46.886,-5.079,6.642,-18.755,-126.984,26.960,33.211,0.781,42.589,-48.449,50.794,60.171,-86.349,63.297,33.211
'[22:21:25.520 13/03/2059]',-85.568,-95.726,-50.012,61.734,-134.408,-9.768,-51.966,26.569,-110.965,3.516,11.722,-30.085,-177.387,19.145,40.635,-8.596,44.933,-48.059,50.794,50.012,-84.396,68.767,40.635
'[22:21:25.523 13/03/2059]',-80.879,-76.581,-73.846,44.933,-150.427,-15.238,-48.449,28.132,-116.435,10.159,12.112,-33.993,-169.182,-17.973,73.846,-13.675,42.198,-48.059,74.628,30.085,-89.084,28.132,73.846
'[22:21:25.527 13/03/2059]',-73.455,-66.032,-84.396,32.430,-155.116,-20.708,-48.059,33.602,-101.587,18.364,7.424,-33.211,-146.520,-33.993,94.945,-21.880,36.337,-42.979,85.177,5.470,-87.131,14.457,94.945
'[22:21:25.531 13/03/2059]',-70.330,-84.786,-48.840,30.085,-139.878,-20.317,-46.105,32.039,-76.972,10.940,4.689,-39.072,-140.269,-23.053,92.601,-28.523,30.867,-44.542,49.621,25.397,-81.661,27.741,92.601
'[22:21:25.535 13/03/2059]',-47.668,-76.190,-36.337,24.615,-94.164,-26.569,-45.714,31.258,-63.687,15.238,2.735,-46.496,-130.891,-0.781,76.581,-36.337,26.960,-51.966,37.118,39.463,-76.581,35.946,76.581
'[22:21:25.539 13/03/2059]',-47.277,-58.217,-39.463,29.304,-67.204,-34.383,-48.840,34.774,-62.515,18.755,0.781,-46.105,-128.938,21.490,57.045,-38.681,29.695,-54.701,40.244,41.807,-76.581,48.059,57.045
'[22:21:25.543 13/03/2059]',-65.641,-95.726,-3.516,39.463,-71.502,-43.370,-49.621,39.463,-81.661,12.894,0.391,-44.151,-150.427,14.066,64.469,-41.026,31.258,-56.264,4.298,71.893,-67.204,45.714,64.469
'[22:21:25.547 13/03/2059]',-71.502,-125.812,26.178,32.430,-84.786,-45.324,-44.151,36.728,-90.256,19.536,4.689,-50.012,-140.269,-7.814,80.488,-47.668,25.006,-58.608,-25.397,99.634,-66.422,30.867,80.488
'[22:21:25.551 13/03/2059]',-83.223,-86.349,-13.675,27.350,-107.057,-42.979,-40.244,35.556,-50.794,-1.563,3.126,-48.840,-120.342,-15.238,91.429,-53.529,12.503,-52.747,14.457,68.767,-64.469,11.331,91.429
'[22:21:25.555 13/03/2059]',-108.230,-110.183,13.675,22.662,-144.957,-41.026,-39.072,43.370,-18.364,-27.741,-2.344,-40.244,-120.342,-5.470,88.694,-51.966,-3.126,-40.635,-12.894,67.985,-56.654,25.788,88.694
'[22:21:25.559 13/03/2059]',-96.899,-143.004,64.860,8.596,-133.236,-37.509,-37.118,42.979,-26.178,-19.536,-2.344,-41.416,-117.998,21.880,62.125,-56.654,-13.675,-35.946,-64.078,90.256,-44.542,55.482,62.125
'[22:21:25.563 13/03/2059]',-72.283,-124.249,59.389,5.470,-96.508,-44.542,-36.337,46.105,-57.827,-1.954,-6.642,-32.039,-125.812,42.589,37.509,-53.919,-15.238,-37.900,-58.608,92.991,-46.886,60.562,37.509
'[22:21:25.566 13/03/2059]',-64.860,-127.375,64.469,16.020,-74.237,-56.264,-33.602,54.310,-112.137,14.847,-12.112,-19.145,-151.990,41.026,30.867,-50.012,-14.457,-33.993,-63.687,101.978,-43.370,57.436,30.867
'[22:21:25.570 13/03/2059]',-62.515,-118.779,54.310,21.880,-69.548,-61.343,-26.178,53.529,-135.971,19.927,-9.768,-16.801,-150.818,42.979,19.145,-54.310,-16.801,-30.085,-53.529,83.614,-34.774,73.455,19.145
'[22:21:25.574 13/03/2059]',-77.753,-36.337,-29.695,28.913,-94.164,-51.184,-22.271,53.138,-124.249,24.615,-8.987,-7.424,-122.295,36.337,21.490,-52.747,-17.582,-29.304,30.476,15.629,-29.304,59.780,21.490
'[22:21:25.578 13/03/2059]',-97.680,-3.907,-50.403,14.457,-129.328,-41.416,-17.973,51.575,-75.018,-5.079,-9.377,0.000,-94.164,29.304,24.225,-50.794,-22.271,-23.834,51.184,-1.172,-32.039,42.589,24.225
'[22:21:25.582 13/03/2059]',-113.309,-8.205,-19.536,-21.490,-177.387,-17.582,-10.159,42.589,-67.595,-31.648,-7.814,2.735,-103.150,26.178,21.099,-49.621,-25.788,-14.847,20.317,-14.066,-28.523,48.840,21.099
'[22:21:25.586 13/03/2059]',-117.216,-11.331,2.735,-40.635,-194.969,-0.781,-10.549,38.681,-101.587,-1.172,-10.159,8.987,-105.495,20.317,21.490,-40.635,-21.099,-13.284,-1.954,-17.582,-37.118,54.310,21.490
'[22:21:25.590 13/03/2059]',-96.899,-24.615,30.867,-50.794,-161.758,-5.470,-11.331,37.509,-138.315,18.755,-12.503,10.549,-120.733,11.331,31.258,-44.542,-18.755,-11.331,-30.085,12.112,-43.761,35.946,31.258
'[22:21:25.594 13/03/2059]',-98.462,-69.158,76.581,-41.807,-153.944,-5.861,-12.112,39.072,-208.645,35.165,-17.192,13.675,-171.526,8.205,33.602,-47.277,-10.159,-7.033,-75.800,56.654,-38.291,33.211,33.602
'[22:21:25.598 13/03/2059]',-109.011,-70.720,71.893,-22.271,-151.600,-3.907,-13.284,38.291,-178.950,43.370,-23.053,12.112,-138.706,28.132,13.284,-49.621,-7.814,-10.549,-71.111,57.436,-31.648,56.654,13.284
'[22:21:25.602 13/03/2059]',-84.786,-57.827,60.952,-14.847,-107.448,-11.331,-11.722,33.602,-76.581,17.582,-21.490,9.768,-60.952,35.556,4.689,-51.184,-15.238,-15.629,-60.171,53.529,-23.443,56.264,4.689
'[22:21:25.605 13/03/2059]',-85.958,-28.913,43.761,-22.271,-106.667,-11.722,-11.722,37.509,-25.788,-31.648,-20.708,14.457,-55.482,26.178,7.033,-42.198,-17.582,-14.847,-42.979,32.430,-21.099,36.728,7.033
'[22:21:25.609 13/03/2059]',-71.893,-5.861,31.648,-28.523,-93.773,-10.940,-13.284,43.761,1.172,-39.853,-22.662,23.443,-32.039,25.788,-2.344,-28.523,-23.443,-14.457,-30.867,0.000,-24.225,48.840,-2.344
'[22:21:25.613 13/03/2059]',-46.886,-0.391,33.602,-34.774,-78.144,-1.563,-11.722,42.979,-19.536,-25.788,-21.099,26.569,-39.853,18.755,2.344,-21.490,-21.490,-16.020,-32.821,1.954,-37.900,39.853,2.344
'[22:21:25.617 13/03/2059]',-40.635,18.364,25.006,-47.668,-79.707,4.689,-9.377,40.244,-53.919,-40.635,-23.053,28.913,-91.819,7.033,18.755,-23.443,-13.284,-14.847,-24.225,0.391,-47.277,12.112,18.755
'[22:21:25.621 13/03/2059]',-21.880,6.252,40.244,-46.886,-70.330,13.284,-10.549,44.542,-105.495,-10.159,-31.258,34.383,-117.607,21.880,0.000,-17.192,-5.470,-10.549,-39.463,0.391,-45.714,35.946,0.000
'[22:21:25.625 13/03/2059]',-27.350,-13.284,57.827,-47.668,-93.382,27.741,-7.424,41.807,-112.137,20.708,-32.039,28.913,-95.336,26.960,-6.642,-19.145,3.126,-11.331,-57.045,13.284,-45.324,45.714,-6.642
'[22:21:25.629 13/03/2059]',-87.521,-10.549,55.092,-44.151,-162.540,33.602,-9.377,50.012,-124.640,21.099,-31.648,33.211,-100.806,16.801,-4.689,-12.503,10.549,-14.066,-54.310,27.350,-39.463,19.536,-4.689
'[22:21:25.633 13/03/2059]',-92.991,39.853,1.954,-30.476,-164.884,25.397,-6.642,63.297,-154.725,51.184,-30.867,39.463,-94.164,14.457,-11.722,-1.563,17.582,-10.159,-1.172,-21.880,-30.867,15.629,-11.722
'[22:21:25.637 13/03/2059]',-115.653,54.310,-19.536,-14.847,-215.287,48.449,0.391,68.376,-172.698,84.005,-27.350,37.900,-73.846,4.298,-9.768,1.954,16.801,-5.861,20.317,-53.138,-21.490,21.099,-9.768
'[22:21:25.641 13/03/2059]',-137.534,62.906,-40.635,5.861,-250.452,58.217,0.000,83.223,-108.230,26.569,-32.039,50.794,-70.330,0.781,-13.284,19.927,5.470,-7.814,41.416,-49.621,-33.211,11.331,-13.284
'[22:21:25.645 13/03/2059]',-42.198,23.834,5.470,-2.735,-119.951,23.053,-2.344,84.005,-55.092,-16.801,-37.118,55.092,-70.720,12.503,-23.834,26.960,-8.205,-6.252,-4.689,10.159,-43.761,3.516,-23.834
'[22:21:25.648 13/03/2059]',-19.536,-11.722,47.277,-18.364,-104.322,27.350,-6.252,80.098,-5.079,-41.807,-46.105,57.436,-56.654,24.615,-39.463,34.383,-22.662,-6.252,-46.496,40.635,-58.217,21.880,-39.463
'[22:21:25.652 13/03/2059]',-9.377,-19.145,62.515,-28.523,-49.231,-12.894,-9.768,77.753,56.264,-71.502,-48.840,56.654,-31.648,26.569,-41.416,38.291,-33.993,-10.940,-61.734,55.873,-70.720,25.397,-41.416
'[22:21:25.656 13/03/2059]',22.662,28.132,32.821,-36.728,21.490,-41.026,-7.033,75.018,98.462,-56.654,-44.933,46.886,18.755,34.774,-41.807,30.867,-37.509,-10.549,-32.039,21.490,-58.608,20.708,-41.807
'[22:21:25.660 13/03/2059]',11.331,99.243,-12.894,-26.178,23.053,-36.337,0.000,84.786,97.289,-21.880,-41.416,41.807,45.324,26.569,-27.741,30.476,-34.383,-5.079,13.675,-65.641,-26.569,20.708,-27.741
'[22:21:25.664 13/03/2059]',-13.284,94.554,15.629,-16.410,0.391,-18.755,9.768,88.694,78.926,-5.079,-33.602,36.728,39.072,22.662,-18.755,32.821,-26.960,-1.954,-14.847,-72.674,-1.563,27.350,-18.755
'[22:21:25.668 13/03/2059]',-17.582,82.833,49.231,-10.940,-0.781,-1.954,12.112,94.164,82.051,-4.689,-29.695,36.337,44.151,32.430,-30.085,37.118,-17.192,-3.516,-48.449,-43.370,12.112,28.132,-30.085
'[22:21:25.672 13/03/2059]',-34.774,52.357,83.223,-4.689,-21.490,9.768,4.689,101.978,41.807,-3.126,-33.211,43.761,14.457,25.788,-38.681,45.714,-8.596,0.391,-82.442,-8.596,27.741,19.927,-38.681
'[22:21:25.676 13/03/2059]',-76.190,52.747,88.694,1.563,-64.469,24.225,4.298,101.978,26.178,-11.722,-33.602,41.026,-1.954,16.410,-42.589,48.840,-1.563,1.172,-87.912,-16.020,43.370,22.662,-42.589
'[22:21:25.680 13/03/2059]',-58.608,64.078,85.177,7.424,-25.397,18.364,5.079,99.634,33.602,-2.344,-34.383,33.211,21.099,1.563,-36.728,43.370,0.391,-4.689,-84.396,-9.768,58.999,3.126,-36.728
'[22:21:25.684 13/03/2059]',-55.092,92.210,64.078,17.582,-10.549,18.364,12.112,98.071,52.357,-3.907,-33.211,26.960,31.258,-13.284,-17.192,41.026,-3.126,-3.516,-63.297,-26.569,73.065,-22.271,-17.192
'[22:21:25.688 13/03/2059]',-54.701,98.852,55.092,29.304,-11.722,21.880,19.145,98.462,68.376,-12.112,-32.039,23.834,34.774,-28.132,-1.954,42.979,-10.159,-1.563,-54.310,-52.357,80.879,-21.880,-1.954
'[22:21:25.691 13/03/2059]',-51.966,100.415,70.330,13.675,-10.159,27.350,23.834,91.038,57.827,0.000,-27.741,14.847,31.648,-24.615,0.391,37.900,-10.549,-5.079,-69.548,-57.045,77.753,-11.331,0.391
'[22:21:25.695 13/03/2059]',-81.661,122.686,48.840,10.159,-49.231,33.602,26.178,89.084,35.556,2.344,-23.053,12.112,16.020,-21.490,1.563,30.867,0.000,-7.424,-48.059,-60.562,72.674,-22.662,1.563
'[22:21:25.699 13/03/2059]',-106.667,164.884,-2.735,14.457,-85.568,33.993,27.741,92.601,-14.457,14.066,-21.099,20.708,-7.033,-28.523,-1.563,37.118,8.205,-8.205,3.516,-114.481,78.926,-23.443,-1.563
'[22:21:25.703 13/03/2059]',-105.104,120.733,48.840,6.642,-81.661,35.946,30.476,85.958,-60.562,30.867,-17.192,10.549,-31.258,-30.867,-3.126,28.913,16.410,-9.377,-48.059,-82.833,87.131,-10.940,-3.126
'[22:21:25.707 13/03/2059]',-104.713,70.720,103.150,5.861,-78.926,35.946,30.867,87.521,-75.018,41.416,-13.675,8.596,-30.867,-28.913,-6.252,27.741,21.880,-14.847,-102.369,-21.490,97.680,-17.973,-6.252
'[22:21:25.711 13/03/2059]',-94.164,55.092,119.951,4.298,-66.032,33.211,30.085,87.912,-37.118,10.159,-11.331,12.503,-26.569,-27.741,-5.079,33.602,18.755,-14.066,-119.170,-0.391,98.852,-24.615,-5.079
'[22:21:25.715 13/03/2059]',-64.078,45.714,126.984,2.735,-27.350,28.913,31.648,79.316,22.271,-15.629,-12.112,3.126,0.391,-29.304,-4.298,30.867,12.112,-16.410,-126.203,-1.954,95.336,-12.112,-4.298
'[22:21:25.719 13/03/2059]',-64.469,57.436,110.183,5.861,-16.801,21.880,34.383,69.548,48.840,-33.993,-10.159,-8.596,4.689,-19.536,-8.987,19.536,8.205,-24.225,-109.402,-7.814,92.991,-1.563,-8.987
'[22:21:25.723 13/03/2059]',-66.032,98.852,59.389,12.894,-6.642,12.112,32.821,66.032,94.945,-57.045,-4.689,-6.642,32.821,-21.099,-6.642,21.490,7.033,-25.006,-58.608,-33.211,86.349,-13.284,-6.642
'[22:21:25.727 13/03/2059]',-77.363,92.210,55.092,27.741,-8.596,5.861,33.211,66.422,92.210,-50.794,3.126,-6.252,39.853,-28.132,3.126,22.662,7.814,-18.755,-54.310,-28.523,84.786,-18.755,3.126
'[22:21:25.730 13/03/2059]',-88.694,82.833,58.999,37.509,-14.457,1.172,38.681,65.250,72.674,-38.291,10.549,-11.331,30.476,-7.814,-7.814,17.973,4.298,-14.457,-58.217,-31.258,95.336,3.516,-7.814
'[22:21:25.734 13/03/2059]',-85.958,118.388,32.821,25.397,-19.927,2.344,44.542,63.297,64.078,-40.635,21.490,-9.377,16.410,4.298,-5.470,18.755,4.298,-5.861,-32.039,-59.389,86.740,3.126,-5.470
'[22:21:25.738 13/03/2059]',-83.614,128.156,34.774,16.801,-24.615,1.172,50.794,69.548,48.449,-38.291,22.271,-7.814,1.563,0.391,-0.391,22.662,0.391,7.814,-33.993,-81.270,80.488,6.642,-0.391
'[22:21:25.742 13/03/2059]',-104.713,120.342,36.728,21.099,-49.231,-1.172,54.310,69.939,28.523,-27.350,21.880,-14.066,-5.470,-4.298,1.563,16.801,-7.033,11.722,-35.946,-89.475,74.628,19.927,1.563
'[22:21:25.746 13/03/2059]',-105.885,98.071,52.747,17.582,-50.794,-3.907,53.919,63.687,6.642,-21.490,18.364,-20.317,-13.675,-17.973,4.689,11.331,-8.205,5.470,-51.966,-52.747,69.548,-1.563,4.689
'[22:21:25.750 13/03/2059]',-119.951,56.264,92.210,12.503,-59.780,-5.470,52.747,54.701,-2.344,-26.569,14.066,-23.443,-15.629,-39.853,5.079,11.331,-8.987,6.252,-91.429,-2.344,73.846,-28.913,5.079
'[22:21:25.754 13/03/2059]',-127.766,36.337,91.819,23.053,-66.813,0.391,50.012,40.635,-39.463,-17.973,15.238,-24.225,-35.946,-44.933,0.391,14.066,-8.596,10.549,-91.038,-2.344,81.270,-20.317,0.391
'[22:21:25.758 13/03/2059]',-94.554,61.734,44.542,24.615,-37.509,-0.391,47.277,27.741,-51.184,-35.165,19.145,-29.695,-57.045,-35.556,-16.020,12.894,-7.033,10.159,-43.761,-39.463,86.740,-12.112,-16.020
'[22:21:25.762 13/03/2059]',-70.330,44.542,57.827,16.801,-12.503,-3.126,47.668,17.582,-19.536,-64.469,22.271,-24.225,-57.827,-35.165,-12.894,19.536,-3.126,15.629,-57.045,-13.284,75.800,-23.053,-12.894
'[22:21:25.766 13/03/2059]',-66.032,46.496,37.118,26.960,-4.298,-8.205,46.496,12.112,-5.861,-52.747,21.880,-17.192,-34.383,-32.430,-10.549,23.443,-3.516,24.225,-36.337,-28.132,61.734,-7.814,-10.549
'[22:21:25.770 13/03/2059]',-62.125,23.834,50.012,30.476,6.252,-11.331,41.416,5.470,32.430,-55.092,23.053,-16.801,-9.768,-29.695,2.344,21.490,-10.159,24.615,-49.231,-20.708,54.701,4.298,2.344
'[22:21:25.773 13/03/2059]',-72.674,-11.722,97.680,21.099,2.344,3.126,33.602,-4.689,56.264,-56.264,24.225,-19.927,6.252,-18.364,2.344,12.503,-7.814,22.271,-96.899,33.993,59.780,-1.563,2.344
'[22:21:25.777 13/03/2059]',-89.084,-34.383,110.574,23.834,-15.238,23.053,19.927,-16.020,33.602,-52.747,22.271,-18.755,-14.066,-12.503,-3.907,14.457,-3.907,24.225,-109.792,54.701,61.343,-0.781,-3.907
'[22:21:25.781 13/03/2059]',-70.330,-8.205,71.502,21.099,0.391,40.244,7.033,-34.774,12.503,-48.449,21.490,-23.443,-29.695,-0.391,-21.099,13.284,-1.172,21.490,-70.720,3.516,70.720,18.755,-21.099
'[22:21:25.785 13/03/2059]',-51.966,30.085,22.271,8.987,20.708,49.621,-1.954,-58.608,3.126,-52.357,21.099,-28.913,-39.463,9.377,-34.774,7.424,1.954,13.284,-21.490,-36.337,70.330,26.178,-34.774
'[22:21:25.789 13/03/2059]',-44.151,66.422,-28.913,0.391,31.258,47.277,-12.112,-73.065,-4.298,-54.310,12.894,-21.880,-41.807,-7.814,-23.053,5.079,2.735,7.814,29.695,-71.893,60.562,5.079,-23.053
'[22:21:25.793 13/03/2059]',-54.701,93.382,-65.641,-13.284,19.536,43.761,-16.410,-88.303,-8.205,-48.840,7.424,-18.755,-35.165,-26.960,-1.954,-3.516,0.000,3.907,66.422,-115.653,52.747,-2.344,-1.954
'[22:21:25.797 13/03/2059]',-64.469,26.178,0.781,-33.211,0.391,47.277,-12.894,-105.104,-12.894,-50.403,9.768,-19.536,-37.118,-35.946,15.238,-16.020,-3.126,-2.344,0.000,-44.542,42.979,-14.847,15.238
'[22:21:25.801 13/03/2059]',-74.237,-48.449,66.813,-42.589,-26.178,53.919,-12.503,-114.481,-30.867,-50.403,14.457,-17.582,-44.933,-42.198,25.397,-23.053,-1.563,-3.126,-66.032,40.244,34.383,-35.165,25.397
'[22:21:25.805 13/03/2059]',-67.595,-84.396,87.521,-45.324,-33.602,53.919,-12.112,-117.607,-49.621,-38.291,16.801,-17.582,-49.231,-38.291,24.615,-26.178,-3.126,3.907,-86.740,57.045,30.476,-26.960,24.615
'[22:21:25.809 13/03/2059]',-21.490,-53.919,48.840,-52.357,1.954,45.324,-10.159,-116.825,-39.853,-32.430,19.927,-20.317,-40.244,-21.490,15.238,-26.178,-8.596,8.987,-48.059,4.689,24.225,-3.126,15.238
'[22:21:25.813 13/03/2059]',7.424,14.457,-17.582,-60.562,35.946,32.039,-8.596,-115.653,-26.178,-30.867,19.927,-19.927,-26.569,-12.503,8.596,-28.132,-10.159,7.814,18.364,-50.012,23.834,-13.284,8.596
'[22:21:25.816 13/03/2059]',19.536,55.482,-61.734,-69.548,45.324,21.490,-7.424,-116.825,-27.350,-21.490,14.066,-16.020,-21.099,-9.768,5.079,-25.788,-13.284,9.377,62.515,-87.131,16.801,-19.536,5.079
'[22:21:25.820 13/03/2059]',3.516,61.734,-71.893,-78.144,28.523,14.066,-7.814,-121.123,-26.960,-32.039,12.894,-12.503,-31.648,-3.907,0.781,-25.006,-16.801,9.377,72.674,-108.620,9.768,-1.172,0.781
'[22:21:25.824 13/03/2059]',-16.801,8.205,-26.178,-87.521,2.344,15.238,-10.549,-130.110,-52.747,-23.053,18.364,-16.801,-40.244,2.735,-5.861,-31.258,-16.801,5.079,26.960,-50.012,7.424,-0.781,-5.861
'[22:21:25.828 13/03/2059]',-1.563,-44.542,7.814,-84.786,13.284,15.238,-19.145,-133.236,-60.562,-18.755,20.317,-8.987,-31.258,3.126,-8.596,-31.258,-14.847,5.079,-7.033,13.284,-5.470,-2.344,-8.596
'[22:21:25.832 13/03/2059]',4.298,-50.403,-2.344,-83.223,16.020,15.238,-26.960,-136.361,-50.794,-13.675,17.973,-7.424,-14.066,13.284,-20.317,-33.211,-13.675,6.252,3.126,3.907,-10.549,16.020,-20.317
'[22:21:25.836 13/03/2059]',19.145,1.563,-58.999,-86.349,32.039,14.066,-33.602,-137.534,-45.324,-8.205,17.973,-8.596,-3.516,22.271,-26.178,-36.728,-11.722,1.172,59.780,-60.952,-10.549,30.085,-26.178
'[22:21:25.840 13/03/2059]',36.728,-1.172,-64.078,-76.581,54.701,15.629,-40.244,-135.971,-36.337,-7.033,13.284,-7.033,7.814,17.192,-27.350,-35.165,-4.689,-3.126,64.860,-40.635,-12.112,13.675,-27.350
'[22:21:25.844 13/03/2059]',32.821,-51.966,-19.536,-75.018,47.668,20.317,-44.151,-137.924,-42.589,-1.954,7.424,-5.861,1.172,14.457,-33.602,-26.178,3.907,-1.954,20.317,9.377,-7.424,1.563,-33.602
'[22:21:25.848 13/03/2059]',22.662,-93.382,25.397,-81.270,36.337,26.178,-42.198,-147.302,-37.509,-7.424,12.503,-9.768,-6.642,18.755,-25.788,-28.913,9.377,-1.172,-24.615,39.853,-10.549,14.066,-25.788
'[22:21:25.852 13/03/2059]',32.430,-96.899,26.960,-82.833,41.807,33.602,-41.807,-154.335,-70.330,-0.781,17.973,-14.847,-32.430,8.987,-18.755,-25.006,14.847,-2.735,-26.178,47.668,-18.755,3.516,-18.755
'[22:21:25.855 13/03/2059]',40.244,-91.429,23.053,-87.912,41.416,37.900,-42.589,-152.772,-77.753,8.596,20.708,-12.894,-30.085,10.940,-16.410,-24.225,22.662,-1.172,-22.271,54.310,-27.350,-6.642,-16.410
'[22:21:25.859 13/03/2059]',18.755,-33.993,-28.913,-89.475,10.549,41.416,-42.979,-143.785,-75.800,19.145,23.834,-11.722,-22.271,14.847,-8.987,-26.569,26.569,1.563,29.695,-17.582,-28.913,5.861,-8.987
'[22:21:25.863 13/03/2059]',4.689,14.847,-82.051,-80.879,-12.503,46.105,-39.853,-136.752,-102.369,42.589,28.523,-15.238,-23.834,6.642,-0.781,-26.960,33.211,-2.344,82.833,-62.906,-33.993,0.391,-0.781
'[22:21:25.867 13/03/2059]',8.987,6.642,-75.409,-70.330,-15.238,47.277,-33.211,-128.547,-94.945,50.012,28.132,-9.377,-9.768,3.907,0.000,-19.927,39.853,-3.126,76.190,-38.291,-32.430,-17.192,0.000
'[22:21:25.871 13/03/2059]',1.954,-46.105,-25.397,-58.217,-26.178,48.840,-33.993,-116.825,-83.223,41.807,21.880,-2.735,-19.536,12.503,-4.298,-10.549,39.463,-1.563,26.178,-1.954,-37.118,3.516,-4.298
'[22:21:25.875 13/03/2059]',7.033,-64.469,2.735,-58.999,-14.066,52.357,-37.509,-114.481,-58.217,28.132,18.364,-1.172,-19.145,16.020,-5.861,-3.907,35.556,-5.079,-1.954,10.549,-49.231,21.099,-5.861
'[22:21:25.879 13/03/2059]',35.165,-50.794,10.549,-65.641,25.788,52.747,-37.509,-112.527,-13.675,3.126,12.112,-0.391,-6.252,8.987,0.000,-0.391,33.211,-12.894,-9.768,28.913,-59.780,-3.516,0.000
'[22:21:25.883 13/03/2059]',20.317,-28.523,14.847,-75.018,19.927,53.919,-36.728,-106.667,7.033,-1.954,7.033,4.689,7.814,-0.781,5.861,4.298,31.648,-9.768,-14.066,17.582,-63.687,-13.284,5.861
'[22:21:25.887 13/03/2059]',-6.252,58.608,-53.529,-79.316,-2.344,57.045,-31.258,-104.322,7.033,1.563,8.205,2.344,16.801,-13.284,13.284,3.907,29.695,-6.252,54.310,-80.488,-55.873,-5.079,13.284
'[22:21:25.891 13/03/2059]',-13.675,88.694,-75.018,-80.488,-10.549,55.482,-23.443,-102.369,3.126,3.516,6.252,-1.563,21.880,-19.536,5.470,4.298,28.523,-13.675,75.800,-96.117,-45.324,-16.801,5.470
'[22:21:25.895 13/03/2059]',-26.569,57.045,-47.277,-78.144,-35.165,54.701,-21.099,-94.164,-6.642,8.205,3.126,5.861,16.410,-7.033,-7.424,9.768,26.178,-17.192,48.059,-58.608,-46.105,-9.377,-7.424
'[22:21:25.898 13/03/2059]',-17.973,69.158,-59.780,-76.581,-23.834,51.966,-23.443,-90.256,0.391,-1.172,-7.814,5.470,2.735,3.516,-23.834,13.284,14.847,-22.271,60.562,-82.833,-39.463,10.940,-23.834
'[22:21:25.902 13/03/2059]',6.252,17.582,-9.768,-75.800,14.847,39.853,-26.178,-89.866,14.066,-7.033,-19.536,2.735,-7.814,-4.298,-12.112,14.457,2.344,-34.383,10.549,-22.271,-59.389,12.112,-12.112
'[22:21:25.906 13/03/2059]',-0.781,5.079,13.675,-74.628,27.741,25.397,-29.304,-82.051,28.132,-5.079,-27.741,1.563,-1.954,-13.675,-1.172,13.284,-4.298,-41.026,-12.894,13.675,-59.389,-10.549,-1.172
'[22:21:25.910 13/03/2059]',-25.397,45.714,-22.271,-67.595,16.020,14.847,-28.913,-73.065,16.020,-2.735,-36.728,-0.391,-17.192,-17.582,-4.298,15.238,-12.894,-37.118,23.053,-22.271,-53.138,-11.722,-4.298
'[22:21:25.914 13/03/2059]',-39.463,89.475,-68.767,-57.045,7.814,7.424,-19.536,-73.065,9.768,-2.344,-36.337,-8.987,-19.536,-17.582,-6.642,6.252,-22.271,-38.291,69.548,-72.674,-37.118,-3.126,-6.642
'[22:21:25.918 13/03/2059]',-50.012,66.422,-46.105,-45.714,2.344,0.391,-12.112,-66.422,8.205,-6.642,-37.509,-9.377,-24.225,-6.252,-18.755,3.516,-32.039,-41.807,46.886,-44.933,-23.834,5.079,-18.755
'[22:21:25.922 13/03/2059]',-63.297,44.933,-33.602,-32.821,-8.205,-12.503,-12.112,-51.966,-1.563,-18.364,-43.761,-3.126,-39.853,-5.861,-26.960,5.861,-44.933,-39.463,34.383,-30.476,-14.457,12.503,-26.960
'[22:21:25.926 13/03/2059]',-58.608,39.853,-39.072,-30.476,-7.033,-21.099,-14.847,-44.151,-17.973,-19.145,-48.059,-5.079,-47.668,-17.192,-33.602,7.424,-59.389,-41.026,39.853,-40.635,-14.066,21.099,-33.602
'[22:21:25.930 13/03/2059]',-52.357,10.549,-9.768,-37.900,0.391,-35.946,-12.894,-41.026,-28.523,-12.112,-51.184,-10.940,-39.853,-39.072,-31.648,7.814,-64.860,-49.231,10.549,1.563,-21.490,5.079,-31.648
'[22:21:25.934 13/03/2059]',-66.032,-0.391,-1.954,-39.463,-9.377,-52.357,-12.503,-33.211,-41.026,-11.331,-55.873,-11.722,-46.105,-42.979,-44.151,12.503,-63.687,-50.403,2.735,26.960,-21.099,-7.424,-44.151
'[22:21:25.938 13/03/2059]',-62.125,40.635,-37.900,-48.840,-11.331,-52.357,-8.596,-35.165,-8.205,-20.317,-59.780,-18.755,-29.304,-46.105,-49.621,16.801,-67.204,-46.886,38.681,-30.085,-14.847,-2.344,-49.621
'[22:21:25.941 13/03/2059]',-47.277,53.529,-39.463,-47.277,12.894,-53.529,-1.563,-38.291,33.211,-34.774,-57.045,-30.476,-23.053,-33.211,-48.449,15.238,-67.985,-51.966,40.244,-56.654,-8.205,15.238,-48.449
'[22:21:25.945 13/03/2059]',-38.681,44.151,-16.020,-43.761,33.211,-55.873,0.391,-32.430,63.687,-46.886,-56.264,-30.085,-29.304,-18.755,-31.648,9.377,-65.250,-54.701,16.801,-44.542,-1.954,12.112,-31.648
'[22:21:25.949 13/03/2059]',-35.946,57.045,-31.258,-44.151,36.728,-62.906,0.000,-28.913,75.800,-55.873,-55.092,-32.039,-30.867,-27.741,-16.410,7.424,-68.767,-51.966,32.039,-73.846,-2.735,8.205,-16.410
'[22:21:25.953 13/03/2059]',-26.178,62.125,-43.761,-48.840,47.668,-71.502,-2.344,-31.648,46.105,-51.575,-48.840,-41.416,-51.184,-27.350,-19.145,0.781,-72.283,-52.747,44.542,-100.415,-9.377,26.960,-19.145
'[22:21:25.957 13/03/2059]',-15.629,53.919,-57.827,-44.151,54.701,-80.098,-7.814,-30.476,16.801,-37.900,-43.761,-43.370,-53.138,-33.993,-10.549,-8.987,-72.283,-55.482,58.608,-90.647,-16.801,20.317,-10.549
'[22:21:25.961 13/03/2059]',-12.503,69.158,-101.197,-33.993,53.919,-92.601,-13.284,-28.132,9.768,-44.542,-44.933,-44.542,-56.264,-45.714,-14.847,-7.033,-75.800,-53.919,101.978,-108.230,-13.284,2.344,-14.847
'[22:21:25.965 13/03/2059]',-10.159,50.794,-103.932,-23.834,55.092,-97.289,-13.675,-30.867,8.987,-43.761,-42.979,-44.542,-59.780,-39.463,-19.927,-2.344,-77.753,-54.701,104.713,-111.355,-13.284,18.364,-19.927
'[22:21:25.969 13/03/2059]',-7.814,36.728,-111.355,-14.066,50.403,-101.978,-11.331,-34.383,17.582,-44.151,-40.244,-48.449,-53.919,-34.383,-22.271,-3.126,-77.363,-58.217,112.137,-104.713,-17.192,24.225,-22.271
'[22:21:25.973 13/03/2059]',-7.814,-14.847,-60.952,-23.443,41.026,-106.667,-10.549,-32.039,23.834,-46.105,-35.556,-47.277,-51.184,-28.132,-23.443,-1.172,-73.065,-55.482,61.734,-50.403,-17.192,12.503,-23.443
'[22:21:25.977 13/03/2059]',-0.391,-93.773,21.880,-38.291,39.463,-108.620,-9.768,-31.648,8.596,-40.635,-29.304,-51.184,-57.827,-24.225,-25.006,-3.126,-67.204,-51.966,-21.099,20.708,-18.364,13.284,-25.006
'[22:21:25.980 13/03/2059]',6.642,-123.468,46.496,-50.403,34.383,-105.495,-10.940,-38.291,5.861,-38.291,-23.443,-55.873,-55.482,-8.596,-34.774,-12.112,-68.767,-54.701,-45.714,30.476,-28.913,44.151,-34.774
'[22:21:25.984 13/03/2059]',6.252,-112.137,34.774,-62.515,28.913,-113.309,-7.424,-41.416,1.563,-38.681,-17.192,-62.125,-52.357,-12.112,-28.523,-22.271,-68.767,-55.092,-33.993,18.755,-27.741,32.039,-28.523
'[22:21:25.988 13/03/2059]',-1.954,-114.481,34.774,-64.860,16.020,-121.905,-3.907,-36.728,-14.847,-45.714,-15.629,-58.999,-68.767,-17.582,-30.867,-17.192,-71.502,-47.277,-33.993,5.079,-19.536,26.178,-30.867
'[22:21:25.992 13/03/2059]',-11.331,-82.833,-10.159,-60.562,-3.126,-129.719,0.000,-33.211,-35.556,-46.496,-12.112,-49.621,-85.177,-21.490,-27.741,-9.377,-76.972,-43.370,10.940,-52.357,-26.178,40.244,-27.741
'[22:21:25.996 13/03/2059]',-23.443,-55.482,-38.291,-61.343,-21.099,-133.236,8.596,-33.602,-64.860,-43.370,-5.470,-50.794,-106.667,-30.867,-16.020,-10.549,-73.846,-39.853,39.072,-68.767,-29.695,16.801,-16.020
'[22:21:26.000 13/03/2059]',-0.391,-110.183,12.894,-54.310,-1.954,-135.580,14.847,-30.085,-82.051,-37.118,-1.172,-43.761,-108.230,-38.291,-7.814,-8.987,-69.158,-33.993,-12.112,-3.126,-35.946,3.126,-7.814
'[22:21:26.004 13/03/2059]',36.337,-149.646,43.370,-46.886,36.337,-136.361,11.722,-28.132,-62.906,-33.602,0.391,-40.244,-84.005,-43.761,1.563,-8.987,-69.939,-30.867,-42.589,19.145,-44.151,16.020,1.563
'[22:21:26.008 13/03/2059]',57.045,-123.468,26.178,-48.059,66.813,-135.580,10.159,-30.085,-41.416,-35.946,5.861,-45.714,-70.720,-41.026,13.284,-18.364,-66.813,-30.476,-25.397,0.391,-49.621,18.364,13.284
'[22:21:26.012 13/03/2059]',67.204,-89.084,0.391,-50.012,85.177,-137.924,9.768,-28.523,-14.066,-37.118,11.722,-48.059,-40.244,-37.118,13.675,-23.053,-60.171,-29.695,0.391,-13.284,-47.277,4.298,13.675
'[22:21:26.016 13/03/2059]',61.734,-62.125,-22.662,-50.794,71.111,-127.766,10.549,-28.523,-9.768,-33.211,15.238,-45.714,-37.900,-19.145,0.781,-17.973,-53.138,-21.490,23.443,-40.244,-53.919,19.145,0.781
'[22:21:26.020 13/03/2059]',37.118,-8.205,-69.158,-49.621,42.979,-117.607,11.722,-26.569,-21.490,-33.993,18.364,-46.886,-57.827,-2.344,-8.596,-14.847,-46.496,-17.973,69.939,-99.634,-57.045,39.853,-8.596
'[22:21:26.023 13/03/2059]',29.695,-35.556,-33.602,-53.138,31.258,-107.057,12.894,-29.695,-29.695,-23.053,22.271,-51.575,-53.919,3.907,-13.284,-17.973,-40.635,-16.801,34.383,-51.966,-56.264,31.648,-13.284
'[22:21:26.027 13/03/2059]',39.853,-89.475,12.503,-45.324,31.648,-101.197,10.940,-24.225,-21.880,-17.973,16.020,-46.496,-43.370,-12.112,-7.424,-6.252,-40.244,-13.284,-11.722,11.331,-66.813,12.894,-7.424
'[22:21:26.031 13/03/2059]',41.807,-91.429,7.033,-35.946,33.993,-100.806,8.987,-20.317,16.801,-40.244,8.987,-41.026,-33.602,-18.364,-5.861,2.735,-45.324,-12.112,-6.252,1.172,-67.204,15.629,-5.861
'[22:21:26.035 13/03/2059]',40.635,-73.846,-13.675,-31.258,38.291,-105.104,10.940,-23.053,33.602,-50.794,8.987,-42.979,-31.648,0.000,-19.536,1.954,-46.886,-14.847,14.457,-5.470,-68.376,28.523,-19.536
'[22:21:26.039 13/03/2059]',32.821,-40.244,-51.184,-22.271,25.397,-102.759,12.503,-16.801,43.370,-49.621,9.768,-35.946,-20.317,6.252,-26.960,8.596,-43.370,-11.331,51.966,-23.834,-75.409,24.225,-26.960
'[22:21:26.043 13/03/2059]',28.913,4.298,-106.276,-12.894,14.457,-102.369,11.331,-9.377,43.761,-52.747,12.112,-28.913,-19.927,17.973,-32.430,9.377,-42.198,-5.079,107.057,-74.628,-76.972,36.337,-32.430
'[22:21:26.047 13/03/2059]',35.165,-5.470,-75.800,-30.867,17.192,-95.726,16.410,-15.629,25.788,-37.900,21.880,-37.900,-23.834,39.463,-34.383,-8.205,-41.026,-3.516,76.581,-61.734,-77.363,56.654,-34.383
'[22:21:26.051 13/03/2059]',42.589,-47.668,-21.880,-43.370,14.066,-90.256,20.317,-14.847,-3.907,-13.284,30.085,-39.853,-23.443,6.642,0.391,-10.549,-37.118,1.563,22.662,-5.470,-82.833,12.894,0.391
'[22:21:26.055 13/03/2059]',44.542,-82.833,8.205,-47.668,4.689,-87.521,17.192,-12.112,-18.755,-5.079,26.960,-39.072,-29.695,-19.145,19.145,-6.252,-37.118,8.596,-7.424,18.364,-82.051,-10.549,19.145
'[22:21:26.059 13/03/2059]',30.867,-95.726,26.178,-58.217,-9.768,-81.270,13.284,-18.755,-29.304,-5.470,22.271,-46.496,-43.761,-21.880,16.410,-10.159,-38.681,8.205,-25.397,17.973,-79.316,-3.907,16.410
'[22:21:26.063 13/03/2059]',16.801,-69.939,7.814,-66.422,-23.443,-75.800,14.457,-25.788,-51.966,-3.516,19.536,-40.635,-56.654,-26.178,11.722,-5.470,-35.556,1.563,-7.033,14.066,-86.740,-18.755,11.722
'[22:21:26.066 13/03/2059]',10.940,-17.192,-39.463,-75.409,-30.476,-69.548,14.457,-34.383,-39.463,-13.284,11.331,-38.291,-36.728,-28.132,-9.768,-4.298,-32.821,-0.781,40.244,-26.569,-85.958,-23.834,-9.768
'[22:21:26.070 13/03/2059]',-3.516,26.178,-77.363,-81.270,-49.621,-57.436,17.192,-44.933,-42.589,-13.284,8.987,-37.118,-31.648,-20.317,-21.099,-9.377,-33.602,2.735,78.144,-84.005,-83.614,-0.781,-21.099
'[22:21:26.074 13/03/2059]',-0.781,42.979,-86.740,-85.568,-48.840,-46.886,19.536,-53.529,-48.840,-16.410,13.675,-35.165,-30.867,-23.834,-17.582,-12.112,-34.774,4.689,87.521,-89.475,-87.521,-3.516,-17.582
'[22:21:26.078 13/03/2059]',-3.907,39.072,-89.084,-79.707,-51.966,-46.105,18.755,-54.701,-60.562,-1.954,14.847,-34.383,-18.364,-32.039,-14.847,-14.847,-32.039,14.457,89.866,-65.641,-85.568,-23.443,-14.847
'[22:21:26.082 13/03/2059]',0.391,6.642,-65.641,-69.158,-37.900,-48.840,17.192,-57.436,-83.614,5.861,13.284,-32.430,-43.761,-16.020,-15.629,-19.536,-34.383,28.132,66.422,-37.509,-85.177,-6.252,-15.629
'[22:21:26.086 13/03/2059]',15.629,5.079,-57.045,-76.972,-12.503,-50.794,18.364,-68.376,-68.767,-8.205,10.549,-38.681,-53.138,-7.033,-19.145,-23.834,-38.681,31.648,57.827,-37.509,-85.958,6.642,-19.145
'[22:21:26.090 13/03/2059]',13.284,4.689,-45.714,-82.442,-11.722,-44.151,23.443,-75.800,-67.595,-3.126,8.205,-46.496,-48.059,-6.642,-19.536,-32.039,-36.337,30.085,46.496,-19.145,-78.144,-4.689,-19.536
'[22:21:26.094 13/03/2059]',-2.344,0.000,-36.728,-76.190,-30.085,-35.946,26.178,-75.409,-55.482,-5.079,3.126,-45.714,-36.728,-4.298,-30.085,-28.913,-34.774,32.821,37.509,-10.940,-71.893,0.000,-30.085
'[22:21:26.098 13/03/2059]',-23.834,28.132,-56.264,-75.800,-55.873,-23.443,31.648,-78.535,-38.291,-9.768,1.563,-45.324,-17.582,-12.112,-38.681,-20.708,-39.463,33.993,57.045,-48.449,-60.562,6.252,-38.681
'[22:21:26.102 13/03/2059]',-35.556,11.722,-33.993,-70.720,-74.628,-9.768,34.774,-78.926,-49.621,7.033,1.563,-37.118,-0.781,-26.178,-35.165,-13.284,-45.714,33.993,34.774,-28.132,-50.794,-1.954,-35.165
'[22:21:26.105 13/03/2059]',-42.198,-1.954,-18.755,-63.687,-58.999,-21.490,28.523,-75.409,-51.575,10.940,-0.391,-23.834,8.205,-15.238,-53.919,-2.344,-48.449,40.635,19.536,2.735,-46.496,-4.298,-53.919
'[22:21:26.109 13/03/2059]',-15.629,22.662,-44.933,-57.827,-19.927,-25.397,24.615,-75.018,-37.509,-1.172,-1.563,-15.629,8.596,-13.675,-53.919,3.126,-51.184,44.542,45.714,-29.695,-47.668,1.563,-53.919
'[22:21:26.113 13/03/2059]',1.954,1.172,-14.457,-60.171,7.424,-16.801,24.225,-87.521,-29.695,-17.973,5.861,-20.708,0.391,-29.695,-30.476,-1.172,-48.840,41.807,15.238,1.954,-48.449,-18.364,-30.476
'[22:21:26.117 13/03/2059]',-3.126,-27.350,13.284,-48.449,9.377,-9.377,26.569,-92.601,-22.662,-26.178,11.722,-28.523,-2.735,-30.867,-24.615,-5.861,-42.198,43.761,-12.503,57.436,-48.840,-36.337,-24.615
'[22:21:26.121 13/03/2059]',-14.066,7.424,-26.178,-23.443,0.391,2.735,24.225,-85.177,-25.006,-38.291,13.284,-26.569,-20.317,-34.774,-19.927,0.000,-42.979,51.184,26.960,15.629,-43.370,-27.350,-19.927
'[22:21:26.125 13/03/2059]',-32.430,33.602,-28.913,-28.132,-10.159,15.629,23.053,-86.740,-18.364,-42.589,17.973,-34.774,-23.834,-31.648,-19.927,-1.172,-49.231,55.873,29.695,-8.987,-35.556,-12.112,-19.927
'[22:21:26.129 13/03/2059]',-44.542,34.383,-17.192,-25.006,-8.205,17.192,21.099,-83.614,-7.033,-41.807,16.801,-34.774,-18.755,-15.629,-28.913,-1.563,-50.403,57.045,17.973,16.020,-34.383,-9.377,-28.913
'[22:21:26.133 13/03/2059]',-58.608,73.065,-60.562,-10.159,-14.457,18.364,17.582,-78.926,31.258,-48.449,9.377,-29.695,1.563,2.344,-42.198,0.391,-48.059,58.217,61.343,-16.020,-30.476,1.563,-42.198
'[22:21:26.137 13/03/2059]',-76.190,85.568,-69.548,-8.205,-38.681,28.913,19.536,-79.707,54.310,-47.668,6.642,-33.602,13.284,4.689,-37.118,-0.391,-46.105,56.264,70.330,-44.933,-30.867,16.410,-37.118
'[22:21:26.141 13/03/2059]',-97.289,44.542,-19.145,-12.503,-71.893,42.589,22.271,-79.316,25.397,-31.648,5.861,-32.039,-5.079,-10.159,-15.629,0.781,-35.946,49.621,19.927,0.781,-30.476,-2.735,-15.629
'[22:21:26.145 13/03/2059]',-116.825,40.244,-15.238,-5.470,-110.183,58.999,24.225,-71.502,-38.291,-17.192,4.298,-25.397,-54.310,-27.350,-1.954,6.642,-19.536,46.105,16.020,12.112,-24.615,-28.913,-1.954
'[22:21:26.148 13/03/2059]',-142.222,55.092,-23.443,-7.424,-148.864,71.893,24.225,-66.813,-90.256,-1.954,2.344,-23.834,-90.256,-41.807,7.814,10.940,-10.159,45.324,24.225,-19.536,-19.536,-23.834,7.814
'[22:21:26.152 13/03/2059]',-148.083,30.867,6.642,-11.331,-134.017,59.389,17.192,-65.250,-122.295,-0.391,0.391,-23.443,-118.779,-45.714,8.205,10.940,-7.424,35.556,-5.861,-4.298,-7.814,-16.020,8.205
'[22:21:26.156 13/03/2059]',-93.773,0.391,28.913,-5.079,-47.668,32.821,5.861,-61.343,-63.687,-23.443,-3.516,-28.523,-85.568,-42.198,5.861,2.735,-10.940,21.490,-28.132,39.463,2.735,-24.225,5.861
'[22:21:26.160 13/03/2059]',-76.581,-32.039,50.012,3.907,-4.689,11.331,-2.344,-58.999,5.861,-22.271,-10.159,-35.556,-31.258,-23.053,1.563,-8.596,-23.053,13.675,-49.231,64.860,15.238,-10.940,1.563
'[22:21:26.164 13/03/2059]',-60.952,-50.012,62.515,8.987,31.258,-1.954,-3.907,-63.687,45.714,-30.476,-13.284,-41.807,-14.457,-22.271,9.768,-12.503,-34.774,3.907,-61.734,72.283,22.271,-5.079,9.768
'[22:21:26.168 13/03/2059]',-57.045,-57.827,66.032,14.847,30.867,2.344,-3.516,-63.687,41.026,-28.913,-14.847,-44.933,-19.145,-26.960,11.722,-12.503,-33.211,-5.079,-65.250,84.396,31.258,-18.364,11.722
'[22:21:26.172 13/03/2059]',-87.521,-51.966,53.529,25.397,-12.503,15.629,-3.907,-59.389,-10.549,-19.536,-18.364,-36.337,-50.794,-41.807,10.159,-2.735,-21.880,-4.298,-52.747,75.018,48.840,-35.556,10.159
'[22:21:26.176 13/03/2059]',-116.435,-50.403,43.370,41.026,-40.244,18.755,-5.470,-54.701,3.907,-50.012,-23.053,-30.476,-46.496,-55.482,-4.298,7.424,-17.582,-6.252,-42.589,52.747,73.455,-29.695,-4.298
'[22:21:26.180 13/03/2059]',-110.965,-44.542,26.960,44.151,-31.648,8.205,-4.689,-55.482,12.503,-58.999,-21.880,-34.383,-22.662,-64.860,-17.973,3.516,-18.364,-12.503,-26.178,53.138,90.647,-37.900,-17.973
'[22:21:26.184 13/03/2059]',-130.891,-28.523,4.298,41.416,-58.608,5.079,1.172,-60.952,-8.205,-44.933,-16.410,-44.151,-29.304,-57.045,-17.582,-8.205,-16.801,-10.159,-3.516,42.979,99.634,-45.324,-17.582
'[22:21:26.188 13/03/2059]',-147.302,-10.549,-19.927,44.542,-92.601,9.768,8.987,-58.999,-51.575,-24.225,-11.722,-50.012,-79.316,-30.085,-12.112,-15.238,-10.159,-4.298,20.708,3.907,83.223,-6.252,-12.112
'[22:21:26.191 13/03/2059]',-155.116,26.960,-64.860,42.198,-114.481,6.252,15.238,-57.827,-114.872,10.940,-1.954,-61.343,-138.706,-3.516,0.391,-25.006,-1.563,-1.172,65.641,-42.979,50.794,25.006,0.391
'[22:21:26.195 13/03/2059]',-192.625,27.741,-67.595,49.231,-178.559,21.490,24.225,-50.403,-131.673,8.596,1.563,-59.780,-179.341,8.987,15.629,-25.006,8.205,-0.781,68.376,-28.913,30.085,18.755,15.629
'[22:21:26.199 13/03/2059]',-115.263,-16.801,-18.364,60.562,-71.502,-5.861,26.960,-39.072,-88.694,-4.689,-0.391,-48.059,-176.996,16.020,30.867,-12.503,10.940,0.391,19.145,17.192,6.642,26.178,30.867
'[22:21:26.203 13/03/2059]',-57.045,-77.753,43.761,63.687,19.145,-37.509,28.913,-37.509,20.317,-33.602,-3.126,-49.231,-111.746,35.556,19.927,-9.377,-7.424,-3.126,-42.979,69.548,3.126,50.403,19.927
'[22:21:26.207 13/03/2059]',-33.993,-92.601,58.999,60.171,46.886,-43.761,25.788,-35.556,89.866,-39.853,-8.596,-50.403,-51.575,30.476,21.880,-9.768,-17.192,-12.894,-58.217,98.852,6.252,26.569,21.880
'[22:21:26.211 13/03/2059]',-5.861,-125.031,90.647,57.045,81.270,-53.138,23.053,-33.602,101.197,-35.946,-10.549,-49.621,-44.933,19.927,39.853,-10.549,-12.503,-21.099,-89.866,137.534,-0.781,6.252,39.853
'[22:21:26.215 13/03/2059]',-51.184,-131.282,84.005,57.045,1.563,-35.556,25.006,-32.039,57.436,-18.755,-8.205,-48.449,-80.879,33.211,42.198,-13.675,-2.344,-21.880,-83.223,121.123,-2.735,21.099,42.198
'[22:21:26.219 13/03/2059]',-88.694,-104.713,46.496,60.952,-76.972,-7.814,27.350,-27.350,16.020,2.344,-3.516,-46.886,-108.620,36.337,57.827,-17.582,12.503,-21.880,-45.714,91.429,-20.317,24.225,57.827
'[22:21:26.223 13/03/2059]',-77.363,-87.912,29.695,67.204,-61.343,-17.973,30.867,-18.755,-29.695,19.145,5.470,-41.416,-139.878,37.118,78.535,-21.880,26.569,-15.629,-28.913,84.005,-26.569,13.284,78.535
'[22:21:26.227 13/03/2059]',-71.111,-48.449,-5.470,64.078,-77.363,-4.298,39.072,-18.364,-60.171,32.430,18.755,-46.105,-154.335,49.231,84.005,-33.602,33.211,-4.298,6.252,47.668,-25.788,17.192,84.005
'[22:21:26.230 13/03/2059]',-91.819,-42.979,-21.490,81.270,-113.700,1.563,41.026,-4.689,-87.521,36.728,20.708,-32.821,-166.447,46.886,80.879,-24.225,31.258,0.391,22.271,22.271,-21.099,32.821,80.879
'[22:21:26.234 13/03/2059]',-86.740,-70.720,10.940,76.581,-101.587,-2.344,42.589,-8.205,-55.092,30.476,31.648,-41.416,-125.812,41.807,86.740,-36.337,35.556,2.344,-10.159,58.608,-11.331,22.271,86.740
'[22:21:26.238 13/03/2059]',-104.322,-109.402,41.026,78.144,-148.864,15.629,45.714,-6.642,-30.085,23.443,38.291,-40.244,-100.415,52.747,78.926,-39.463,33.211,10.549,-40.244,85.177,-9.377,33.211,78.926
'[22:21:26.242 13/03/2059]',-103.541,-134.799,51.575,92.210,-168.400,26.569,37.118,9.768,-32.430,31.258,28.913,-15.238,-96.899,59.389,66.422,-16.801,33.993,13.675,-50.794,85.177,-17.192,58.999,66.422
'[22:21:26.246 13/03/2059]',6.642,-125.812,61.734,79.707,-1.954,-10.940,36.728,-0.781,57.827,19.536,33.211,-23.834,-26.569,67.204,71.502,-24.225,21.490,11.722,-60.952,107.839,-24.615,44.151,71.502
'[22:21:26.250 13/03/2059]',47.277,-105.495,57.045,76.190,43.761,-3.907,40.635,-4.298,42.589,27.741,42.589,-21.880,-32.039,67.985,81.661,-25.006,16.020,18.755,-56.264,107.448,-19.536,21.880,81.661
'[22:21:26.254 13/03/2059]',17.973,-53.529,7.814,82.833,-6.642,18.364,37.118,5.861,-29.695,52.747,46.105,-5.861,-77.363,65.250,85.568,-10.159,27.350,27.350,-7.033,48.449,-38.291,39.463,85.568
'[22:21:26.258 13/03/2059]',15.629,-24.615,-2.735,72.283,14.066,7.814,37.118,0.391,0.391,37.118,58.608,-14.457,-62.125,78.535,88.303,-21.490,37.900,31.648,3.516,28.523,-41.026,51.575,88.303
'[22:21:26.262 13/03/2059]',-5.079,-13.284,-9.768,59.780,-25.788,19.145,37.118,0.781,-14.457,62.906,72.674,-17.973,-44.542,92.601,87.521,-32.039,42.589,37.900,10.549,28.523,-45.714,52.357,87.521
'[22:21:26.266 13/03/2059]',-81.270,-7.424,-31.648,57.436,-166.447,52.357,35.556,13.284,-20.708,74.628,71.111,-0.391,-28.913,127.375,47.277,-20.708,48.840,44.151,32.430,7.033,-62.906,96.508,47.277
'[22:21:26.270 13/03/2059]',5.470,-6.252,-38.291,46.886,-74.628,33.211,34.774,13.675,-23.443,73.065,73.065,1.954,-35.165,126.203,53.919,-19.927,40.635,44.933,39.072,-9.768,-67.985,98.462,53.919
'[22:21:26.273 13/03/2059]',69.548,-73.455,26.569,45.714,-10.549,34.774,36.728,6.642,17.973,51.966,78.926,-3.516,-15.238,106.276,83.614,-28.523,26.960,44.933,-25.788,75.409,-66.422,58.217,83.614
'[22:21:26.277 13/03/2059]',18.755,-130.110,55.482,71.502,-116.435,73.846,33.211,23.834,-31.648,46.886,76.972,14.847,-56.264,85.177,91.038,-11.722,29.695,48.449,-54.701,132.063,-63.297,26.960,91.038
'[22:21:26.281 13/03/2059]',41.807,-81.270,12.112,82.442,-57.436,52.357,33.211,25.397,-44.933,31.648,79.316,13.284,-83.223,66.422,109.011,-11.331,38.681,51.966,-11.331,92.601,-73.846,25.788,109.011
'[22:21:26.285 13/03/2059]',55.482,-68.376,16.410,74.628,-5.079,28.913,33.602,19.927,55.482,28.523,82.442,3.516,16.801,71.111,106.667,-23.834,37.118,50.403,-15.629,96.508,-65.250,28.132,106.667
'[22:21:26.289 13/03/2059]',16.801,-26.960,-25.397,62.125,-87.131,55.482,28.132,29.304,36.728,58.608,84.396,14.066,41.026,90.647,80.879,-17.582,41.026,51.184,26.178,57.436,-71.111,42.198,80.879
'[22:21:26.293 13/03/2059]',24.225,-8.987,-36.728,52.357,-101.197,70.330,24.225,35.946,10.549,71.502,81.661,20.708,36.337,87.912,76.581,-14.457,47.277,55.092,37.509,42.198,-80.879,45.714,76.581
'[22:21:26.297 13/03/2059]',29.304,8.596,-36.337,42.198,-107.839,96.117,22.662,32.039,-3.126,81.661,79.707,24.225,26.960,84.005,87.131,-14.847,49.621,52.747,37.118,33.602,-78.535,37.900,87.131
'[22:21:26.301 13/03/2059]',12.894,-9.768,-26.960,52.747,-159.805,130.110,19.145,37.509,-39.853,82.833,76.190,29.304,-9.768,76.190,90.647,-7.033,52.747,51.575,27.741,60.952,-84.396,17.192,90.647
'[22:21:26.305 13/03/2059]',19.927,-7.814,-43.370,87.131,-128.547,120.342,4.689,58.217,-10.159,60.952,58.217,53.529,0.000,64.469,78.144,21.490,46.105,52.747,44.151,66.032,-97.680,21.490,78.144
'[22:21:26.309 13/03/2059]',92.210,31.648,-57.436,80.488,45.324,49.621,-1.954,53.529,-7.814,63.687,55.482,48.840,3.516,72.674,61.734,21.880,34.383,50.403,58.217,30.476,-83.223,39.463,61.734
'[22:21:26.313 13/03/2059]',114.481,-41.026,-7.814,60.562,31.648,55.092,-3.126,41.416,36.337,53.529,57.827,32.430,47.668,76.581,46.496,9.377,22.271,48.449,8.596,79.707,-78.144,37.509,46.496
'[22:21:26.316 13/03/2059]',77.753,-57.827,-1.954,68.376,-25.788,74.628,-12.503,49.231,9.377,24.615,50.012,41.026,6.642,62.515,40.244,16.020,24.225,47.668,2.735,103.541,-84.005,30.085,40.244
'[22:21:26.320 13/03/2059]',87.131,-34.383,-22.662,63.687,-26.569,87.131,-14.066,45.714,-61.734,42.198,49.231,32.039,-42.589,57.436,47.277,0.000,31.258,47.668,23.443,62.906,-63.687,34.774,47.277
'[22:21:26.324 13/03/2059]',-23.053,-17.192,-45.714,62.515,-204.737,155.116,-15.238,39.853,-77.753,30.476,41.807,19.927,-73.455,53.138,51.966,-16.020,37.118,41.807,46.496,44.933,-51.184,32.039,51.966
'[22:21:26.328 13/03/2059]',-21.099,40.244,-125.421,97.289,-170.745,126.203,-33.211,68.767,-64.860,27.741,20.708,53.919,-55.092,40.635,39.853,12.894,33.993,28.132,126.203,-0.781,-57.045,23.834,39.853
'[22:21:26.332 13/03/2059]',89.475,35.556,-121.905,101.978,33.602,47.668,-41.026,64.469,-13.675,42.198,8.987,50.012,3.516,51.966,22.271,9.377,17.582,21.880,122.686,12.503,-51.575,37.900,22.271
'[22:21:26.336 13/03/2059]',112.918,0.391,-79.316,96.508,96.508,25.788,-45.324,51.966,25.397,42.589,-4.298,38.291,21.490,60.952,10.159,7.814,5.470,11.331,80.098,50.403,-52.747,51.966,10.159
'[22:21:26.340 13/03/2059]',170.745,-46.886,-57.436,91.429,172.308,-7.033,-58.217,49.621,119.170,-5.079,-14.847,33.211,60.562,55.482,2.344,12.894,-4.298,-1.172,58.217,78.144,-62.125,43.370,2.344
'[22:21:26.344 13/03/2059]',164.493,-26.569,-54.310,69.939,173.089,2.735,-65.250,41.416,104.322,-5.079,-25.006,19.927,37.509,46.105,0.391,8.596,0.000,-5.861,55.092,66.422,-60.562,32.430,0.391
'[22:21:26.348 13/03/2059]',117.607,25.788,-98.462,54.701,93.773,36.337,-62.906,31.258,85.568,-20.317,-35.165,8.596,-0.391,32.430,-1.954,8.205,0.000,-12.112,99.243,-16.410,-38.291,33.211,-1.954
'[22:21:26.352 13/03/2059]',76.972,69.939,-155.897,46.105,18.364,58.217,-68.376,27.741,100.024,-46.105,-43.370,7.033,10.159,12.894,-23.053,16.410,-3.516,-19.145,156.679,-84.786,-34.774,38.291,-23.053
'[22:21:26.355 13/03/2059]',43.761,24.615,-101.587,51.184,12.112,47.277,-74.237,32.821,47.668,-21.490,-52.357,17.582,-1.954,7.033,-41.416,28.132,-2.735,-20.708,102.369,-26.960,-18.755,29.304,-41.416
'[22:21:26.359 13/03/2059]',54.701,-27.741,-51.575,50.403,45.324,28.132,-75.018,25.397,30.867,-16.020,-57.045,11.722,-16.020,10.940,-51.184,25.397,-3.126,-18.364,52.357,10.159,-11.331,41.026,-51.184
'[22:21:26.363 13/03/2059]',44.542,-117.607,21.880,52.357,19.927,37.509,-75.018,17.973,3.126,-7.033,-59.780,5.079,-36.337,5.470,-53.138,24.615,-1.563,-26.569,-21.099,86.740,-17.582,42.198,-53.138
'[22:21:26.367 13/03/2059]',43.370,-150.037,58.608,55.873,41.807,23.834,-74.628,16.410,-42.979,-8.205,-59.780,5.470,-86.349,-12.112,-33.602,26.569,8.987,-34.383,-57.827,135.189,-30.085,19.927,-33.602
'[22:21:26.371 13/03/2059]',92.210,-106.667,22.271,61.734,117.998,7.424,-71.893,14.847,0.391,-25.006,-67.595,2.344,-85.568,-14.066,-16.410,25.397,3.126,-38.681,-21.490,82.442,-23.834,18.364,-16.410
'[22:21:26.375 13/03/2059]',107.057,-26.569,-80.098,69.939,114.872,9.377,-66.813,11.722,117.216,-56.264,-76.972,-0.391,-8.987,-9.768,-26.569,28.132,-10.940,-49.231,80.879,-27.350,-17.582,36.728,-26.569
'[22:21:26.379 13/03/2059]',73.846,-9.377,-121.514,100.415,95.336,-2.344,-71.111,20.708,195.751,-87.521,-87.912,4.298,40.635,-12.894,-42.198,38.681,-19.927,-58.608,122.295,-44.542,-5.079,29.695,-42.198
'[22:21:26.383 13/03/2059]',87.131,-5.861,-92.991,73.455,146.520,-33.993,-67.595,15.629,219.976,-97.289,-92.210,9.768,57.827,-14.847,-50.012,46.886,-25.788,-54.701,93.773,-34.383,-11.331,24.225,-50.012
'[22:21:26.387 13/03/2059]',11.722,-4.689,-42.979,24.615,73.065,-29.304,-59.389,3.907,175.043,-89.084,-90.647,5.861,34.774,-28.913,-50.794,44.542,-29.304,-50.403,43.761,-33.602,-16.801,31.258,-50.794
'[22:21:26.391 13/03/2059]',39.463,-62.906,44.933,-12.112,100.024,-37.900,-56.654,4.689,54.310,-73.846,-90.647,3.126,-59.780,-55.873,-41.416,50.403,-21.490,-56.654,-44.151,27.741,-45.324,16.410,-41.416
'[22:21:26.395 13/03/2059]',103.150,-78.144,94.164,-38.291,190.672,-62.125,-50.794,3.126,24.615,-77.363,-80.488,14.457,-97.289,-60.562,-20.317,59.389,-11.722,-57.827,-93.382,76.581,-79.316,0.000,-20.317
'[22:21:26.398 13/03/2059]',82.442,-60.952,90.647,-33.993,189.499,-80.098,-38.681,7.424,-0.781,-59.780,-79.316,19.145,-100.024,-56.654,-19.927,55.092,-12.503,-62.515,-89.866,51.575,-69.158,17.582,-19.927
'[22:21:26.402 13/03/2059]',109.402,-66.032,37.118,-23.443,163.712,-74.628,-33.993,2.344,-23.834,-62.125,-72.283,14.066,-119.951,-48.449,-22.271,46.496,-7.424,-72.283,-36.337,-26.178,-47.277,41.026,-22.271
'[22:21:26.406 13/03/2059]',67.985,-30.476,-16.020,-7.033,118.388,-82.051,-28.132,4.689,50.403,-97.680,-64.078,16.020,-79.316,-38.291,-19.536,41.807,-6.252,-77.363,16.801,-58.999,-42.198,34.383,-19.536
'[22:21:26.410 13/03/2059]',44.151,-29.304,-17.973,-12.112,90.647,-87.131,-25.397,5.861,118.779,-100.415,-61.343,14.847,-9.377,-36.337,-19.927,37.509,-18.755,-75.800,18.755,-81.270,-24.615,33.602,-19.927
'[22:21:26.414 13/03/2059]',33.993,-15.629,-23.053,-25.397,57.045,-61.343,-16.801,-8.987,74.237,-82.051,-52.747,-1.172,-38.681,-35.946,-15.238,26.960,-17.582,-75.800,23.834,-96.899,-32.039,35.556,-15.238
'[22:21:26.418 13/03/2059]',-11.722,-28.913,0.000,-30.085,15.238,-56.654,-17.192,-12.894,116.435,-78.535,-52.357,-4.689,-14.847,-22.271,-17.582,35.946,-13.284,-77.363,0.781,-62.125,-58.217,28.523,-17.582
'[22:21:26.422 13/03/2059]',66.422,-109.011,79.316,-27.350,117.216,-82.442,-12.894,-12.894,119.170,-74.237,-46.496,-1.563,-13.284,-20.708,-12.894,42.979,-13.675,-68.376,-78.535,28.523,-73.846,16.410,-12.894
'[22:21:26.426 13/03/2059]',77.363,-108.230,110.965,-32.430,160.195,-93.382,-11.331,-7.424,23.053,-56.654,-45.324,12.894,-90.256,-2.735,-22.271,49.621,-16.801,-60.562,-110.183,23.834,-66.422,40.244,-22.271
'[22:21:26.430 13/03/2059]',109.792,-82.051,117.216,-51.966,258.657,-132.845,-8.205,-24.225,48.449,-70.330,-35.946,1.954,-84.786,19.145,-14.066,22.271,-26.569,-61.343,-116.435,24.615,-64.860,45.324,-14.066
'[22:21:26.434 13/03/2059]',177.387,-57.436,78.535,-53.919,316.484,-141.832,-3.907,-25.788,71.893,-72.674,-26.569,3.907,-57.827,26.960,-6.642,12.894,-33.602,-56.264,-77.753,-8.987,-56.654,30.867,-6.642
'[22:21:26.438 13/03/2059]',163.712,0.781,36.337,-60.562,305.153,-135.189,-0.781,-27.741,131.673,-82.833,-22.662,-2.344,-8.596,27.350,3.516,-0.391,-48.059,-48.840,-35.556,-66.032,-62.125,39.463,3.516
'[22:21:26.441 13/03/2059]',144.176,16.801,10.940,-73.455,250.452,-120.342,5.470,-35.556,167.228,-87.131,-20.708,-15.629,10.549,30.085,5.861,-4.298,-48.449,-46.886,-10.159,-93.382,-82.442,45.324,5.861
'[22:21:26.445 13/03/2059]',50.012,-24.615,37.118,-78.144,97.680,-94.164,17.973,-36.337,65.641,-44.933,-9.377,-32.039,-33.602,12.894,5.079,-6.642,-29.304,-41.416,-36.337,-39.072,-104.322,19.927,5.079
'[22:21:26.449 13/03/2059]',-4.298,-89.475,87.912,-75.018,-30.085,-57.827,28.523,-20.708,-49.621,-13.284,0.781,-19.145,-99.634,-2.735,34.383,-13.675,-8.205,-26.569,-87.131,13.284,-122.686,14.457,34.383
'[22:21:26.453 13/03/2059]',21.880,-72.674,99.243,-87.521,18.755,-75.800,35.556,-17.582,-58.217,-3.126,8.987,3.907,-98.071,20.708,29.304,-1.563,-1.172,-16.020,-98.462,-26.178,-105.104,47.668,29.304
'[22:21:26.457 13/03/2059]',-6.252,-23.443,109.011,-109.011,23.053,-69.158,44.151,-27.350,-32.821,21.490,24.615,0.000,-52.357,51.966,44.542,-32.039,-4.689,-11.331,-108.230,-25.006,-107.839,65.641,44.542
'[22:21:26.461 13/03/2059]',19.536,34.774,44.933,-108.620,42.979,-64.860,39.853,-26.569,63.687,-15.238,20.317,-3.516,6.642,73.065,20.317,-36.728,-16.020,-7.033,-44.151,-80.488,-96.508,60.952,20.317
'[22:21:26.465 13/03/2059]',98.071,51.184,31.648,-103.541,156.288,-82.442,36.728,-31.648,159.805,-59.389,19.927,-1.172,46.496,78.144,17.973,-24.225,-29.695,-0.781,-30.867,-106.276,-94.945,67.985,17.973
'[22:21:26.469 13/03/2059]',79.316,-5.470,80.879,-88.303,128.938,-62.515,33.993,-34.774,148.083,-55.873,24.225,-15.629,44.933,85.177,1.954,-32.430,-28.913,1.563,-80.098,-26.569,-100.415,71.111,1.954
'[22:21:26.473 13/03/2059]',-18.755,-53.529,89.475,-78.926,-20.708,-38.681,31.258,-33.602,33.602,-27.741,32.821,-41.807,-9.377,67.985,-9.768,-51.184,-12.112,5.470,-88.694,31.258,-104.713,42.589,-9.768
'[22:21:26.477 13/03/2059]',60.562,-52.357,78.926,-71.111,29.304,-24.615,33.602,-21.490,-8.205,-6.252,55.873,8.987,-28.132,65.250,58.217,-44.542,4.298,22.271,-78.144,7.814,-101.587,42.198,58.217
'[22:21:26.480 13/03/2059]',87.521,5.079,48.840,-83.223,53.919,-18.364,44.933,-21.490,-58.608,29.304,67.595,15.629,-39.072,74.237,76.972,-58.608,10.549,27.350,-48.059,-58.217,-85.958,62.906,76.972
'[22:21:26.484 13/03/2059]',89.084,58.999,39.463,-109.402,76.581,-28.523,58.608,-26.569,-108.230,60.562,69.939,9.768,-47.277,63.687,85.568,-69.548,10.159,26.178,-38.681,-68.376,-98.852,52.747,85.568
'[22:21:26.488 13/03/2059]',152.772,92.210,23.834,-108.620,154.335,-38.681,61.343,-15.238,-148.864,73.846,60.952,37.509,-84.005,48.840,107.839,-49.231,8.987,31.258,-23.053,-87.521,-108.230,33.211,107.839
'[22:21:26.492 13/03/2059]',92.991,90.647,37.900,-111.746,92.601,-23.443,63.297,-20.317,-106.276,55.873,52.357,20.317,-48.840,32.430,94.945,-55.873,8.596,31.258,-37.118,-94.164,-80.879,26.569,94.945
'[22:21:26.496 13/03/2059]',-51.184,78.144,77.363,-121.123,-73.846,17.582,66.813,-26.960,-48.449,33.993,48.449,9.768,-5.470,39.853,74.237,-64.078,15.238,28.523,-76.581,-0.391,-118.388,18.364,74.237
'[22:21:26.500 13/03/2059]',-96.117,66.422,43.370,-124.249,-194.969,44.151,60.952,-21.099,-41.416,40.244,48.059,17.973,8.987,55.092,66.032,-64.469,30.867,30.476,-42.589,-28.913,-115.263,13.284,66.032
'[22:21:26.504 13/03/2059]',-131.673,104.713,12.894,-132.454,-253.968,70.330,57.045,-19.927,-74.628,50.012,52.357,19.536,0.781,65.641,55.873,-74.237,44.151,37.900,-12.112,-100.024,-80.098,32.821,55.873
'[22:21:26.508 13/03/2059]',-17.582,106.667,15.629,-135.971,-129.719,55.092,59.780,-17.192,-28.913,29.695,49.231,13.675,28.523,81.661,35.946,-82.051,39.853,37.509,-14.847,-85.568,-93.382,56.264,35.946
'[22:21:26.512 13/03/2059]',162.540,75.800,53.919,-115.263,114.090,5.079,51.966,5.470,1.172,12.894,39.463,41.026,35.946,83.614,30.867,-54.701,22.662,30.867,-53.138,-43.761,-87.131,49.621,30.867
'[22:21:26.516 13/03/2059]',225.055,111.355,46.886,-92.991,267.253,-34.774,46.886,11.331,43.370,-12.112,39.463,55.873,53.919,70.330,43.370,-41.416,0.391,33.602,-46.105,-35.556,-79.707,30.085,43.370
'[22:21:26.520 13/03/2059]',249.280,89.866,34.383,-80.098,273.114,-33.602,53.919,0.391,116.044,-33.993,48.449,36.337,123.077,47.277,54.310,-58.217,-11.331,33.602,-33.602,-41.807,-70.330,35.556,54.310
'[22:21:26.523 13/03/2059]',119.951,89.866,23.053,-67.595,88.694,8.987,54.310,11.331,24.615,-6.642,48.449,44.933,55.092,52.357,50.012,-46.105,-1.172,27.741,-22.271,-19.145,-92.210,26.569,50.012
'[22:21:26.527 13/03/2059]',-19.145,84.005,29.304,-70.330,-91.819,35.165,52.747,25.788,-114.872,37.118,51.184,61.734,-5.079,26.569,50.403,-37.509,21.880,28.913,-28.523,-18.755,-62.125,-1.954,50.403
'[22:21:26.531 13/03/2059]',-40.635,64.469,39.463,-85.568,-141.050,30.867,59.389,26.569,-160.586,57.436,41.026,57.045,-16.801,23.834,31.258,-42.198,30.867,29.695,-38.681,-10.549,-61.734,10.159,31.258
'[22:21:26.535 13/03/2059]',-29.304,55.873,70.720,-92.210,-120.733,34.383,56.654,32.821,-153.553,27.350,27.350,62.125,-45.714,35.165,8.987,-34.383,32.039,25.397,-69.939,26.960,-76.972,23.834,8.987
'[22:21:26.539 13/03/2059]',-1.172,142.222,14.847,-90.256,-50.012,25.397,46.105,42.589,-58.217,1.563,21.099,66.032,7.033,55.482,1.954,-32.821,28.523,27.741,-14.066,-48.449,-53.138,30.476,1.954
'[22:21:26.543 13/03/2059]',43.370,235.214,-74.237,-91.038,19.927,3.516,54.310,34.383,98.071,-46.496,28.523,48.840,122.686,54.701,-4.298,-43.370,2.735,35.165,75.018,-118.779,-58.217,31.258,-4.298
'[22:21:26.547 13/03/2059]',95.336,209.817,-87.912,-76.190,17.973,38.291,50.794,32.430,119.170,-54.701,30.085,42.979,116.825,61.734,2.344,-43.370,3.516,31.648,88.694,-147.302,-51.575,48.449,2.344
'[22:21:26.551 13/03/2059]',33.602,149.646,-24.225,-84.396,-74.628,71.502,52.357,24.615,30.867,-27.741,45.324,34.383,71.893,53.138,4.689,-46.105,9.377,27.350,25.006,-71.893,-54.310,36.728,4.689
'[22:21:26.555 13/03/2059]',59.780,74.237,17.973,-69.939,-47.277,52.747,44.933,30.867,-22.271,-8.205,39.463,40.635,41.807,44.542,-0.391,-36.337,14.066,23.834,-17.192,-3.516,-39.853,11.722,-0.391
'[22:21:26.559 13/03/2059]',64.078,29.304,58.999,-64.469,-22.662,38.291,34.774,36.337,-37.118,-1.172,18.364,41.416,12.112,41.026,1.563,-32.821,7.424,14.066,-58.217,34.383,-61.343,36.728,1.563
'[22:21:26.563 13/03/2059]',41.807,71.893,33.602,-77.363,-23.834,41.807,23.834,27.350,-18.364,-5.861,12.894,35.556,25.397,40.635,-3.907,-38.291,-1.172,6.252,-32.821,8.987,-41.026,19.927,-3.907
'[22:21:26.566 13/03/2059]',39.463,161.368,-37.509,-73.846,25.006,8.205,17.192,35.556,22.271,-21.490,5.079,43.761,41.807,31.648,0.391,-25.006,-15.629,5.470,38.291,-69.939,-27.350,-1.172,0.391
'[22:21:26.570 13/03/2059]',63.297,172.698,-46.496,-75.800,66.032,-6.252,23.443,28.523,30.085,-31.648,10.159,31.648,49.621,15.238,6.252,-30.867,-28.132,7.424,47.277,-76.581,-43.370,12.503,6.252
'[22:21:26.574 13/03/2059]',24.615,138.706,-28.913,-65.250,-17.973,27.741,21.099,35.946,-54.701,-32.430,18.755,41.416,-11.722,-7.424,5.079,-12.894,-26.960,1.954,29.695,-73.065,-21.099,-1.172,5.079
'[22:21:26.578 13/03/2059]',34.383,101.587,-25.006,-62.515,-35.165,26.178,24.225,31.258,-117.607,-42.198,22.271,29.304,-82.833,-11.331,2.735,-16.020,-17.192,-0.781,25.788,-42.198,-37.900,-5.079,2.735
'[22:21:26.582 13/03/2059]',7.814,118.779,-25.788,-45.714,-39.072,34.383,25.788,31.648,-85.568,-30.867,11.722,28.523,-69.939,-2.735,16.410,-19.145,-8.205,-3.907,26.569,-29.304,-57.045,8.596,16.410
'[22:21:26.586 13/03/2059]',53.919,81.270,-49.621,-22.271,-13.675,27.741,10.940,37.900,7.814,-63.687,-0.781,28.132,-27.741,2.735,7.033,-10.940,-17.973,-16.410,50.403,-59.780,-53.529,31.258,7.033
'[22:21:26.590 13/03/2059]',87.912,103.541,-69.548,-23.443,50.403,13.675,2.735,29.304,108.620,-75.409,-2.344,16.410,44.151,13.284,6.252,-16.801,-32.430,-23.443,70.330,-63.687,-48.840,19.145,6.252
'[22:21:26.594 13/03/2059]',97.680,80.488,-62.515,-8.205,87.131,-15.629,1.563,32.821,84.005,-55.873,0.391,13.284,33.993,14.847,12.503,-19.536,-37.509,-26.178,63.297,-34.774,-39.072,5.861,12.503
'[22:21:26.598 13/03/2059]',67.985,32.430,-33.602,-8.987,43.761,-14.457,0.391,27.350,75.018,-62.125,-2.735,0.781,12.894,14.457,0.000,-16.801,-44.933,-32.430,34.383,-16.801,-39.072,20.708,0.000
'[22:21:26.602 13/03/2059]',71.111,25.006,-6.642,-29.695,34.774,-3.516,4.689,21.880,24.615,-59.389,0.781,-2.344,-40.635,31.258,-8.987,-16.801,-49.621,-38.291,7.424,-21.490,-26.178,34.383,-8.987
'[22:21:26.605 13/03/2059]',32.039,32.039,1.954,-28.132,21.490,-19.536,8.205,26.178,19.927,-65.641,0.781,10.159,-53.529,28.132,7.033,-16.020,-44.933,-37.900,-1.172,1.563,-22.271,14.457,7.033
'[22:21:26.609 13/03/2059]',-1.954,75.800,-45.714,-23.443,-7.814,-22.662,3.126,30.476,98.852,-105.885,-15.238,0.781,-11.722,7.814,2.344,-19.927,-51.966,-41.807,46.496,-37.900,-41.416,27.350,2.344
'[22:21:26.613 13/03/2059]',-3.516,76.190,-66.422,-14.847,-16.801,-25.006,3.516,27.350,98.852,-101.978,-11.331,1.172,-4.298,0.391,18.755,-28.523,-50.403,-47.277,67.204,-55.873,-16.410,16.020,18.755
'[22:21:26.617 13/03/2059]',-9.377,68.767,-96.508,7.424,-24.615,-40.635,-2.344,36.337,26.960,-84.396,-8.596,10.940,-36.728,-14.847,20.317,-22.662,-42.589,-51.184,97.289,-43.761,2.344,-26.178,20.317
'[22:21:26.621 13/03/2059]',-17.973,40.635,-101.197,-3.907,-65.250,-31.258,-7.814,21.880,-20.317,-54.310,-14.457,-14.847,-58.999,-26.569,20.317,-39.463,-36.337,-50.012,101.978,-73.065,0.781,3.516,20.317
'[22:21:26.625 13/03/2059]',-82.442,11.331,-51.575,-0.781,-115.653,-31.648,-3.516,26.178,-44.151,-41.416,-12.503,-12.503,-76.581,-19.536,18.755,-33.993,-39.463,-49.231,52.357,-35.556,10.940,7.814,18.755
'[22:21:26.629 13/03/2059]',-43.761,-22.271,-1.563,-1.172,-41.026,-56.654,-0.781,28.132,-87.912,-34.383,-5.861,-9.377,-112.918,10.940,-3.516,-33.602,-39.072,-46.105,2.344,29.695,6.252,25.788,-3.516
'[22:21:26.633 13/03/2059]',-17.192,-27.350,1.954,0.781,7.814,-75.800,0.391,25.006,-5.861,-53.919,-8.987,-25.006,-29.304,-19.145,-0.391,-44.933,-52.357,-42.198,-1.172,73.846,-4.298,5.079,-0.391
'[22:21:26.637 13/03/2059]',-40.244,46.105,-36.337,17.973,37.509,-89.866,7.033,30.867,26.178,-90.647,-7.033,-24.615,-28.913,-19.536,-2.735,-43.761,-65.641,-37.900,37.118,33.993,10.940,7.033,-2.735
'[22:21:26.641 13/03/2059]',74.237,-19.145,-27.741,29.304,146.520,-124.640,2.344,29.695,29.695,-86.349,2.344,-27.350,-24.615,-2.344,0.000,-52.747,-65.250,-41.026,28.523,41.416,33.602,9.377,0.000
'[22:21:26.645 13/03/2059]',79.707,-14.847,-28.913,36.728,160.195,-123.858,-4.298,39.463,59.780,-72.283,8.596,-17.192,19.145,-12.112,20.708,-48.059,-60.562,-38.681,29.695,38.291,29.304,-3.126,20.708
'[22:21:26.648 13/03/2059]',46.105,-23.834,-16.410,25.006,93.773,-107.057,1.954,39.463,134.799,-99.243,12.112,-14.066,45.714,3.907,29.695,-46.496,-58.999,-30.867,17.192,26.178,28.132,3.516,29.695
'[22:21:26.652 13/03/2059]',-1.954,-8.596,-1.172,17.582,55.873,-103.541,5.861,46.105,135.971,-91.429,12.894,-6.642,30.867,33.993,28.913,-44.151,-53.919,-25.006,1.954,18.755,12.894,38.681,28.913
'[22:21:26.656 13/03/2059]',-45.324,25.788,-48.449,7.033,-37.118,-80.488,4.298,51.184,71.111,-69.548,22.271,-3.907,7.424,11.722,42.198,-42.589,-40.244,-22.271,49.231,11.331,-28.132,16.410,42.198
'[22:21:26.660 13/03/2059]',-78.144,45.324,-90.647,6.642,-122.686,-47.668,-1.954,55.092,25.788,-67.204,20.708,-11.722,-43.370,8.596,50.403,-48.840,-34.383,-18.755,91.429,-36.728,-24.225,7.424,50.403
'[22:21:26.664 13/03/2059]',-48.840,63.297,-106.276,13.675,-69.939,-57.436,0.000,48.840,-46.105,-43.761,26.178,-21.880,-77.363,12.894,32.039,-54.310,-26.178,-19.145,107.057,-58.608,-4.689,21.880,32.039
'[22:21:26.668 13/03/2059]',-17.192,25.397,-98.852,32.039,-58.217,-50.012,-7.033,57.045,-59.780,-20.317,31.648,-16.020,-51.184,7.814,24.225,-47.277,-13.284,-24.225,99.634,-26.960,-13.284,25.788,24.225
'[22:21:26.672 13/03/2059]',63.297,-12.894,-54.310,37.118,66.422,-83.223,-7.033,55.873,10.159,-40.244,40.635,-25.397,5.861,14.066,17.582,-53.919,-7.814,-21.490,55.092,15.629,21.880,1.954,17.582
'[22:21:26.676 13/03/2059]',73.846,-42.589,10.940,21.099,106.276,-83.223,-7.424,47.277,32.039,-44.151,33.993,-27.741,14.847,44.542,-10.549,-54.701,-6.642,-12.894,-10.159,72.283,5.861,53.919,-10.549
'[22:21:26.680 13/03/2059]',79.316,-16.801,-33.211,9.768,83.223,-80.879,-16.410,52.747,2.735,-46.105,45.714,-20.708,15.629,10.940,1.954,-47.277,-3.126,-14.847,33.993,12.503,15.629,25.788,1.954
'[22:21:26.684 13/03/2059]',51.966,-4.298,-25.788,-12.894,53.919,-72.283,-16.410,42.589,-33.993,-29.695,62.125,-27.350,-11.331,23.053,21.880,-63.687,1.954,-5.470,26.569,12.894,5.861,26.960,21.880
'[22:21:26.688 13/03/2059]',1.563,17.192,-51.184,-12.503,-29.304,-46.105,-16.410,47.277,-86.349,5.470,65.641,-17.973,-30.867,22.271,28.132,-52.747,5.470,6.642,51.966,-26.178,-9.377,44.542,28.132
'[22:21:26.691 13/03/2059]',-21.099,64.078,-90.256,-6.252,-71.502,-19.927,-13.284,50.403,-25.397,10.549,72.674,-14.457,31.648,25.397,33.993,-48.840,12.112,13.675,91.038,-60.562,1.563,28.523,33.993
'[22:21:26.695 13/03/2059]',36.337,35.556,-61.343,15.629,36.728,-58.217,-11.331,58.999,62.515,1.563,64.469,-3.516,69.939,42.979,51.184,-39.853,16.410,12.894,62.125,8.205,-37.118,28.913,51.184
'[22:21:26.699 13/03/2059]',75.409,32.430,-36.728,13.284,114.481,-68.376,-11.331,49.621,107.839,-7.814,51.966,-11.331,86.740,51.966,44.151,-42.589,14.457,14.066,37.509,40.244,-22.271,7.424,44.151
'[22:21:26.703 13/03/2059]',115.263,-21.880,-20.708,16.801,128.938,-76.972,-10.159,47.668,93.382,5.861,43.370,-13.284,70.330,62.906,48.840,-52.747,12.112,11.722,21.490,56.264,-30.085,28.523,48.840
'[22:21:26.707 13/03/2059]',88.694,-26.569,-14.457,15.238,98.852,-68.767,-14.847,48.059,23.053,25.006,46.886,-10.940,35.946,61.343,50.012,-62.125,17.192,5.470,15.238,53.529,-26.569,37.509,50.012
'[22:21:26.711 13/03/2059]',15.238,-27.350,-17.192,12.503,-0.391,-55.873,-9.768,48.840,-37.900,41.026,48.449,-8.596,3.907,57.827,46.886,-65.641,28.523,8.205,17.973,60.562,-24.615,24.615,46.886
'[22:21:26.715 13/03/2059]',-30.085,-29.304,-18.755,2.344,-109.792,-10.549,2.344,40.244,-44.542,66.813,51.184,-7.424,42.589,55.873,33.993,-67.204,39.463,15.629,19.536,41.416,-9.768,26.569,33.993
'[22:21:26.719 13/03/2059]',-82.442,-27.741,-13.675,16.020,-152.772,-10.940,5.861,48.059,-51.966,62.515,44.933,19.536,47.668,57.827,14.066,-43.761,46.496,17.973,14.457,57.436,-22.271,39.072,14.066
'[22:21:26.723 13/03/2059]',-56.654,12.503,-44.933,1.172,-126.203,-4.689,5.470,35.946,-16.410,48.059,36.337,11.331,54.701,58.217,13.675,-47.277,47.277,18.755,45.714,25.397,-22.662,20.708,13.675
'[22:21:26.727 13/03/2059]',-4.298,21.490,-65.250,3.126,-82.051,-8.987,3.126,41.416,-2.344,44.151,23.834,17.973,61.734,62.906,-2.735,-37.900,40.635,17.973,66.032,25.397,-50.794,31.258,-2.735
'[22:21:26.730 13/03/2059]',97.680,62.125,-88.303,6.252,83.223,-43.370,-3.516,41.416,-8.987,53.529,20.317,32.430,58.608,89.084,-22.662,-26.178,25.788,15.629,89.084,-12.894,-62.515,80.488,-22.662
'[22:21:26.734 13/03/2059]',149.255,18.364,-55.873,8.596,139.487,-50.012,-8.205,39.072,4.689,47.277,16.801,24.615,68.767,60.952,-8.596,-26.569,18.364,8.205,56.654,14.847,-43.761,44.542,-8.596
'[22:21:26.738 13/03/2059]',166.447,17.582,-49.621,14.847,178.168,-63.297,-8.205,42.589,51.184,37.900,5.079,32.039,83.223,50.012,6.252,-12.112,17.973,11.722,50.403,11.331,-51.966,37.900,6.252
'[22:21:26.742 13/03/2059]',136.361,-13.284,-14.847,20.317,152.772,-59.780,-6.252,41.026,77.753,23.443,7.424,36.337,109.792,36.728,1.172,-1.954,19.927,13.675,15.629,57.436,-55.873,26.960,1.172
'[22:21:26.746 13/03/2059]',98.852,-42.979,-13.675,17.582,54.701,-23.834,-4.298,32.821,6.252,43.761,1.563,27.741,50.403,30.867,1.563,-2.735,32.821,8.987,14.457,60.952,-57.436,7.424,1.563
'[22:21:26.750 13/03/2059]',57.045,-44.542,-28.132,7.814,-48.449,12.112,0.000,26.960,10.159,42.589,0.000,26.178,66.422,16.801,-4.298,0.781,41.807,8.987,28.913,77.753,-99.634,-1.954,-4.298
'[22:21:26.754 13/03/2059]',-2.735,-41.807,-26.960,13.675,-119.170,28.523,1.172,29.304,-12.503,44.151,-6.252,35.946,27.741,72.674,-49.621,9.377,47.668,10.940,27.741,62.125,-113.309,61.343,-49.621
'[22:21:26.758 13/03/2059]',-19.927,21.099,-74.628,19.536,-148.083,60.171,0.000,32.821,-76.581,68.767,-1.954,50.794,1.172,57.827,-41.026,22.271,48.449,11.722,75.409,-4.689,-103.932,54.310,-41.026
'[22:21:26.762 13/03/2059]',-29.304,45.324,-101.978,29.695,-138.315,40.244,-3.516,44.151,-70.720,56.264,-10.159,74.237,14.457,27.741,-34.774,40.635,50.012,11.331,102.759,-12.503,-103.932,19.927,-34.774
'[22:21:26.766 13/03/2059]',44.542,105.104,-107.057,23.053,33.211,12.503,-17.973,36.728,0.781,15.238,-13.284,75.800,25.006,46.105,-40.244,46.105,37.900,14.066,107.839,-67.204,-66.813,25.788,-40.244
'[22:21:26.770 13/03/2059]',101.197,132.845,-117.216,24.615,139.878,-4.689,-23.834,30.867,47.668,-16.410,-16.020,80.488,31.258,40.244,-25.006,48.059,17.192,11.331,117.998,-33.602,-103.541,8.205,-25.006
'[22:21:26.773 13/03/2059]',148.474,75.018,-90.256,14.066,164.884,-8.987,-27.741,19.145,75.409,-25.397,-19.927,66.422,55.482,19.536,-19.145,38.681,5.861,1.563,91.038,-1.954,-107.839,-8.987,-19.145
'[22:21:26.777 13/03/2059]',138.706,1.172,-23.834,10.549,148.083,-8.205,-28.913,16.020,101.197,-44.151,-28.132,73.065,37.118,25.006,-8.596,47.668,0.000,-1.954,24.615,64.469,-143.004,3.516,-8.596
'[22:21:26.781 13/03/2059]',78.535,32.039,-58.999,12.894,69.939,5.861,-20.708,9.377,66.813,-30.867,-25.006,71.502,-3.126,46.496,-9.377,46.886,-2.735,-4.298,59.780,34.774,-174.261,30.476,-9.377
'[22:21:26.785 13/03/2059]',23.443,45.714,-91.819,25.788,-8.205,-2.735,-7.814,21.490,1.954,-23.834,-25.397,85.958,1.563,-29.695,-2.344,68.767,-3.907,-10.940,92.601,23.443,-172.698,-14.457,-2.344
'[22:21:26.789 13/03/2059]',33.602,21.880,-65.250,6.642,1.954,25.788,-34.774,3.126,-1.172,-32.430,-29.304,81.661,-13.675,-22.662,-12.112,67.595,-3.907,-12.894,66.032,-24.225,-83.614,-35.946,-12.112
'[22:21:26.793 13/03/2059]',27.350,35.556,-64.469,9.377,16.020,30.476,-47.277,7.814,1.954,-37.118,-41.026,80.098,-45.714,-4.298,-13.675,67.985,-10.159,-15.238,65.250,-18.755,-123.468,-6.252,-13.675
'[22:21:26.797 13/03/2059]',18.755,78.144,-97.289,7.033,21.880,27.350,-47.277,3.907,10.549,-47.668,-48.059,73.065,-45.714,-9.377,-22.662,66.032,-14.847,-25.006,98.071,-59.780,-105.495,-9.377,-22.662
'[22:21:26.801 13/03/2059]',19.927,44.933,-58.217,-2.735,20.708,32.430,-45.324,-4.298,18.755,-49.231,-41.807,62.125,-60.171,23.834,-26.178,52.747,-14.457,-31.648,58.999,0.391,-162.540,33.993,-26.178
'[22:21:26.805 13/03/2059]',10.549,59.780,-85.177,6.252,8.205,17.582,-42.589,7.424,3.126,-46.886,-41.026,64.860,-82.442,24.225,-21.490,59.780,-14.066,-34.774,85.958,-38.291,-193.016,70.720,-21.490
'[22:21:26.809 13/03/2059]',-0.781,100.806,-128.938,7.424,1.172,4.298,-32.821,5.861,-8.205,-48.059,-35.165,55.873,-33.993,-8.987,-46.105,52.747,-12.894,-35.946,129.719,-95.336,-123.858,52.357,-46.105
'[22:21:26.813 13/03/2059]',-3.126,83.614,-103.932,-7.033,-1.172,5.861,-25.397,-10.159,-18.364,-40.635,-23.443,34.383,-8.596,-52.747,-24.225,37.900,-11.722,-38.681,104.713,-66.813,-109.011,13.675,-24.225
'[22:21:26.816 13/03/2059]',12.112,48.449,-73.065,-11.722,-1.954,25.397,-37.118,-11.331,-11.331,-39.853,-29.304,30.476,-51.184,-8.596,-28.523,37.509,-8.987,-32.430,73.846,-68.767,-87.131,18.755,-28.523
'[22:21:26.820 13/03/2059]',1.172,51.966,-66.813,-20.708,-2.735,23.834,-37.900,-17.582,-1.954,-37.118,-39.072,21.099,-11.722,-56.654,-16.801,27.350,-12.112,-25.788,67.595,-78.144,-39.463,-18.364,-16.801
'[22:21:26.824 13/03/2059]',7.814,46.105,-64.469,-18.755,0.391,23.443,-40.635,-12.894,11.331,-48.059,-35.165,22.662,-54.310,-25.788,0.391,30.085,-17.192,-28.132,65.250,-51.184,-103.150,3.516,0.391
'[22:21:26.828 13/03/2059]',12.894,40.635,-66.422,-11.331,5.470,8.205,-35.556,-2.735,5.861,-48.059,-29.304,27.350,-62.515,17.973,-26.569,25.788,-19.145,-31.648,67.204,-39.853,-116.825,47.277,-26.569
'[22:21:26.832 13/03/2059]',-9.768,51.184,-72.283,-3.516,0.000,-11.722,-28.523,5.470,-3.516,-51.966,-24.225,33.993,-49.621,-2.735,-21.490,26.960,-21.490,-28.523,73.065,-46.105,-82.051,24.615,-21.490
'[22:21:26.836 13/03/2059]',-11.722,73.065,-107.448,-6.252,-13.284,-26.569,-14.847,2.735,-3.516,-53.919,-19.145,19.145,-50.012,-10.549,-12.503,15.238,-28.132,-26.569,108.230,-56.654,-123.858,44.933,-12.503
'[22:21:26.840 13/03/2059]',-44.151,141.832,-133.236,-24.225,-24.225,-28.523,6.252,-12.894,-8.596,-31.258,-6.252,-18.755,-78.926,21.490,13.675,-24.225,-30.867,-16.801,134.017,-72.283,-136.752,49.231,13.675
'[22:21:26.844 13/03/2059]',-79.707,156.679,-157.070,-11.331,-61.343,-32.039,-6.642,8.987,-21.880,-46.886,-20.317,-3.516,-89.084,-0.391,3.516,-7.033,-39.463,-11.722,157.851,-87.912,-106.667,15.629,3.516
'[22:21:26.848 13/03/2059]',-26.569,160.195,-221.929,-16.020,-61.343,-36.337,-12.894,6.642,-16.801,-48.059,-18.364,-9.768,-50.794,-14.847,-13.284,-13.675,-45.714,-3.126,222.711,-171.136,-57.827,10.159,-13.284
'[22:21:26.852 13/03/2059]',-14.457,147.692,-203.565,-25.397,-36.728,-49.621,-5.079,-3.516,-15.629,-43.761,-5.079,-30.476,-7.814,-6.252,-46.105,-35.556,-48.840,0.000,204.347,-164.103,-23.443,35.556,-46.105
'[22:21:26.855 13/03/2059]',-9.377,69.548,-144.957,-21.490,-46.105,-60.952,-3.126,3.126,-28.523,-48.449,3.516,-25.006,31.258,-35.165,-60.952,-34.383,-47.668,0.391,145.739,-59.780,-0.391,-8.205,-60.952
'[22:21:26.859 13/03/2059]',10.940,34.383,-123.077,-23.443,-48.840,-59.780,5.470,1.172,-31.258,-43.761,21.099,-30.085,78.535,-51.184,-68.376,-42.979,-40.244,10.159,123.858,-30.476,10.159,-4.298,-68.376
'[22:21:26.863 13/03/2059]',5.861,7.814,-48.840,-43.761,-30.085,-49.231,25.006,-24.615,-8.596,-32.821,25.788,-60.562,44.542,-7.033,-45.324,-69.158,-37.118,15.238,49.621,16.801,-32.821,59.780,-45.324
'[22:21:26.867 13/03/2059]',-13.284,15.629,-32.821,-21.099,-32.039,-44.151,31.648,-7.814,-15.629,-26.960,28.523,-51.184,-26.960,32.430,-10.159,-60.562,-31.648,16.410,33.602,47.277,-62.906,55.482,-10.159
'[22:21:26.871 13/03/2059]',15.238,37.509,-75.800,-5.861,-18.755,-41.026,21.880,9.377,7.814,-29.695,21.880,-29.695,-21.099,42.979,-11.722,-39.072,-25.006,24.615,76.581,-36.337,-63.687,95.726,-11.722
'[22:21:26.875 13/03/2059]',32.821,62.515,-112.918,6.252,10.940,-58.999,17.582,19.927,20.708,-19.536,17.582,-21.880,-17.582,98.071,-51.184,-31.258,-24.615,29.304,113.700,-80.098,-70.330,157.070,-51.184
'[22:21:26.879 13/03/2059]',28.913,53.138,-97.289,-0.781,13.675,-57.827,14.066,12.894,24.615,-14.457,37.509,-39.853,27.741,58.608,-33.211,-45.714,-23.443,30.085,98.071,-64.860,-27.350,101.197,-33.211
'[22:21:26.883 13/03/2059]',35.165,14.457,-72.674,0.391,12.112,-64.469,8.596,19.536,29.304,7.424,25.006,-35.946,71.893,14.066,-20.317,-38.681,-15.238,33.211,73.455,7.033,-42.979,54.310,-20.317
'[22:21:26.887 13/03/2059]',48.059,-5.079,-64.860,0.391,14.457,-50.403,-6.642,19.536,25.397,15.629,26.178,-39.463,62.125,18.364,-17.973,-33.602,-12.503,35.946,65.641,-55.092,0.000,76.581,-17.973
'[22:21:26.891 13/03/2059]',33.602,16.801,-67.595,-1.563,21.880,-54.310,0.000,13.284,22.271,18.755,37.118,-54.310,60.171,7.814,-4.689,-38.681,-7.033,34.774,68.376,-57.827,3.907,64.860,-4.689
'[22:21:26.895 13/03/2059]',42.979,4.298,-69.939,1.954,11.331,-44.933,-5.470,18.364,5.079,32.039,42.198,-48.840,70.720,-10.940,0.391,-28.132,2.344,35.946,70.720,-23.443,-37.118,57.045,0.391
'[22:21:26.898 13/03/2059]',37.900,8.205,-94.945,22.271,10.159,-41.026,-23.443,28.523,3.516,29.695,33.211,-30.085,43.761,42.198,-42.198,-6.642,8.987,43.761,95.726,-51.575,-35.165,104.322,-42.198
'[22:21:26.902 13/03/2059]',12.503,46.496,-117.216,17.192,-3.126,-41.807,-12.503,17.973,-13.675,37.900,51.966,-42.198,69.158,16.410,-39.853,-11.331,10.159,50.012,117.998,-78.926,-12.503,84.005,-39.853
'[22:21:26.906 13/03/2059]',-21.490,31.258,-79.707,13.675,-29.304,-42.979,4.689,11.722,-21.880,60.952,52.747,-61.343,79.316,21.880,-42.198,-28.523,13.675,49.621,80.488,-5.861,-16.020,73.455,-42.198
'[22:21:26.910 13/03/2059]',-23.834,5.079,-86.740,32.430,-43.370,-34.774,-15.238,21.099,-33.602,62.125,40.635,-50.403,55.092,11.331,-30.085,-17.192,16.410,50.012,87.521,-34.383,30.476,44.151,-30.085
'[22:21:26.914 13/03/2059]',-46.496,77.753,-139.878,11.722,-62.125,-34.383,1.563,-1.563,-48.840,75.018,51.184,-75.800,67.204,-7.033,-23.443,-33.602,17.582,48.840,140.659,-83.614,23.053,40.244,-23.443
'[22:21:26.918 13/03/2059]',-30.085,33.993,-120.342,13.675,-74.237,-24.225,1.563,-5.079,-46.886,86.349,46.105,-79.316,67.985,-11.331,-15.629,-33.993,23.053,43.370,121.123,-33.211,-27.741,55.482,-15.629
'[22:21:26.922 13/03/2059]',-0.781,-40.635,-89.866,29.695,-76.190,-2.344,-23.834,0.781,-45.714,90.256,37.118,-63.687,55.092,12.894,-28.913,-21.099,33.993,46.886,90.647,-5.079,-14.847,58.608,-28.913
'[22:21:26.926 13/03/2059]',-10.940,-16.020,-79.316,20.708,-73.846,13.675,-26.569,0.391,-38.291,96.508,39.463,-57.436,48.840,24.225,-16.801,-16.410,44.542,51.575,80.098,5.470,-47.277,68.376,-16.801
'[22:21:26.930 13/03/2059]',-13.675,-46.496,-39.853,27.741,-74.628,17.973,-24.225,7.814,-39.072,98.071,42.589,-51.184,44.542,35.946,-21.099,-9.768,49.621,42.979,40.635,61.343,-72.283,76.190,-21.099
'[22:21:26.934 13/03/2059]',-8.596,-35.165,-41.026,22.662,-59.780,28.913,-33.993,1.563,-51.184,102.759,46.105,-51.966,45.714,37.118,-25.397,-11.722,57.436,37.509,41.807,33.602,-15.238,47.668,-25.397
'[22:21:26.938 13/03/2059]',-60.562,63.297,-112.137,41.416,-71.111,11.722,-27.350,17.973,-68.376,91.429,36.728,-33.602,55.092,-0.391,-33.993,4.689,55.482,32.039,112.918,-6.642,-53.919,58.999,-33.993
'[22:21:26.941 13/03/2059]',-21.880,-22.662,-73.846,37.118,-77.753,19.536,-31.648,7.033,-58.999,103.541,12.112,-39.072,42.979,-6.252,-24.225,5.861,55.482,23.053,74.628,25.788,-62.515,51.184,-24.225
'[22:21:26.945 13/03/2059]',-15.238,-49.231,-66.813,37.118,-90.256,32.821,-39.853,1.563,-76.190,102.759,6.252,-30.476,55.482,-12.503,-51.184,10.159,58.608,15.238,67.595,10.549,-17.192,38.681,-51.184
'[22:21:26.949 13/03/2059]',-50.403,-64.860,-32.430,48.059,-107.057,34.383,-33.602,4.689,-77.363,93.382,-5.861,-13.675,68.376,-37.900,-49.231,14.847,60.562,13.284,33.211,69.158,-18.755,16.020,-49.231
'[22:21:26.953 13/03/2059]',-35.165,-93.382,-13.284,36.337,-103.541,51.575,-42.979,-10.940,-46.105,82.051,-27.350,-12.503,30.085,-3.907,-42.589,10.940,57.045,5.470,14.066,39.072,14.066,15.238,-42.589
'[22:21:26.957 13/03/2059]',-34.383,-57.045,-9.768,23.443,-71.111,50.012,-40.635,-16.410,-47.668,72.674,-32.039,-4.689,21.880,-7.424,-42.198,15.238,55.873,-4.689,10.549,17.582,14.066,18.755,-42.198
'[22:21:26.961 13/03/2059]',-74.628,33.602,-48.059,28.523,-64.860,42.198,-30.476,-6.642,-46.105,61.343,-36.337,12.503,65.250,-72.283,-28.913,26.960,55.873,-10.549,48.840,17.582,-29.304,0.391,-28.913
'[22:21:26.965 13/03/2059]',-33.211,56.264,-94.554,35.946,-40.244,30.476,-24.225,-1.563,-31.258,48.059,-53.529,28.132,7.814,-42.979,-16.410,43.761,51.184,-12.112,95.336,-41.416,-29.304,-10.940,-16.410
'[22:21:26.969 13/03/2059]',-6.252,-10.159,-46.105,49.621,-21.490,25.397,-22.662,4.298,-39.853,41.026,-50.794,42.979,12.112,-54.310,-21.880,57.827,46.105,-16.020,46.886,21.880,-64.078,7.033,-21.880
'[22:21:26.973 13/03/2059]',-34.383,14.066,-69.158,67.204,-39.853,22.662,-22.271,16.410,-57.045,30.085,-39.853,65.641,44.542,-89.866,-25.006,69.548,42.979,-16.801,69.939,27.741,-72.674,-4.298,-25.006
'[22:21:26.977 13/03/2059]',-40.635,-44.151,-2.735,59.780,-44.151,41.416,-26.960,1.563,-49.621,20.317,-50.012,73.065,-20.708,-11.722,-41.026,67.985,39.463,-10.940,3.516,69.939,-6.642,-25.788,-41.026
'[22:21:26.980 13/03/2059]',-45.324,-68.767,18.364,70.720,-47.668,43.761,-30.476,8.987,-46.886,8.596,-50.012,95.726,-27.741,25.006,-76.581,86.349,28.913,-12.503,-17.582,45.324,-23.443,66.813,-76.581
'[22:21:26.984 13/03/2059]',-80.488,-33.211,19.145,57.436,-69.158,34.774,-8.987,6.252,-51.966,8.205,-45.714,97.289,-30.085,25.788,-73.846,85.568,29.695,-16.801,-18.364,61.343,-26.569,42.979,-73.846
'[22:21:26.988 13/03/2059]',-131.282,-18.755,62.906,41.416,-83.223,34.383,3.516,0.000,-48.449,3.907,-46.105,87.131,-38.681,12.503,-51.184,74.628,27.741,-13.675,-62.125,92.210,-7.814,10.940,-51.184
'[22:21:26.992 13/03/2059]',-69.158,-78.535,51.575,53.919,-71.111,25.397,-4.689,8.596,-58.608,6.642,-44.151,92.601,-59.780,7.033,-35.556,85.177,24.615,-14.066,-50.794,55.873,6.252,9.768,-35.556
'[22:21:26.996 13/03/2059]',-56.264,-94.945,35.946,52.747,-82.833,-12.503,25.788,6.642,-52.357,4.298,-37.509,71.111,-28.523,-66.032,10.549,69.548,18.364,-22.271,-35.165,89.866,-46.105,-13.284,10.549
'[22:21:27.000 13/03/2059]',-58.217,-110.965,92.210,26.569,-60.952,31.648,-9.768,-10.549,-36.337,3.126,-39.463,57.436,-30.085,-80.879,33.211,62.906,19.145,-22.662,-91.429,81.661,14.457,-51.966,33.211
'[22:21:27.004 13/03/2059]',-39.072,-97.289,52.747,43.761,-50.794,17.582,-9.377,2.735,-37.509,-3.907,-42.198,70.720,-50.403,-55.482,9.768,82.442,9.768,-18.755,-51.966,29.695,-1.172,-2.344,9.768
'[22:21:27.008 13/03/2059]',-49.231,-90.647,60.562,28.523,-50.794,12.894,-7.424,-4.689,-27.741,-5.861,-44.542,52.357,-33.211,-86.349,21.490,71.502,1.563,-20.317,-59.780,21.880,-2.735,-0.391,21.490
'[22:21:27.012 13/03/2059]',-69.158,-88.303,74.628,28.913,-57.045,10.549,-5.470,-1.563,-30.085,-9.377,-47.668,52.357,-55.092,-73.065,18.755,73.846,-3.126,-23.834,-73.846,53.919,-1.563,-23.443,18.755
'[22:21:27.016 13/03/2059]',-126.984,-48.449,76.581,41.807,-69.548,23.053,-15.238,5.861,-44.151,-9.768,-46.886,63.297,-74.237,-60.562,7.424,89.084,-6.642,-14.457,-75.800,45.714,10.549,-16.020,7.424
'[22:21:27.020 13/03/2059]',-77.753,-130.501,74.628,50.012,-92.601,-0.781,4.298,5.470,-46.496,-6.642,-41.807,48.840,-58.217,-82.833,8.987,84.786,-15.629,-9.377,-73.846,88.303,-25.006,-10.159,8.987
'[22:21:27.023 13/03/2059]',-66.813,-139.487,83.223,45.714,-81.661,9.768,-5.470,0.000,-35.946,-5.861,-33.602,31.258,-73.065,-54.310,10.159,71.893,-16.801,-10.159,-82.442,75.800,3.907,-10.940,10.159
'[22:21:27.027 13/03/2059]',-103.541,-118.779,96.117,53.529,-84.005,5.861,-6.252,12.112,-36.728,-6.642,-24.225,35.556,-64.078,-48.449,4.689,74.237,-15.629,-3.907,-95.336,96.899,6.642,-8.205,4.689
'[22:21:27.031 13/03/2059]',-90.647,-119.951,89.866,55.482,-73.065,-16.020,8.205,14.847,-33.211,-3.516,-16.410,25.397,-57.827,-38.681,-0.391,68.376,-18.364,0.391,-89.084,73.455,8.987,21.099,-0.391
'[22:21:27.035 13/03/2059]',-51.575,-148.864,96.117,47.277,-70.720,-30.867,30.085,14.457,-36.337,-1.954,-3.907,17.973,-58.608,-27.350,-5.079,67.204,-18.364,0.781,-95.336,72.283,26.569,11.722,-5.079
'[22:21:27.039 13/03/2059]',-80.488,-107.057,103.150,44.151,-59.389,-12.112,14.066,17.582,-37.118,0.391,2.735,23.053,-49.231,-43.370,1.563,80.098,-15.629,4.689,-102.369,40.635,54.701,0.000,1.563
'[22:21:27.043 13/03/2059]',-84.396,-91.819,83.614,45.714,-73.455,-22.271,26.960,22.662,-50.794,-0.781,11.331,25.788,-46.496,-39.463,-24.225,96.899,-17.582,15.629,-82.833,51.575,48.059,-11.722,-24.225
'[22:21:27.047 13/03/2059]',-57.436,-112.137,78.535,31.648,-79.707,-18.364,33.602,5.861,-39.853,1.563,11.722,1.954,-46.886,-39.463,-20.708,83.614,-22.662,19.145,-77.753,56.264,30.085,-8.205,-20.708
'[22:21:27.051 13/03/2059]',-68.767,-119.560,112.527,31.258,-64.860,0.391,12.112,8.205,-32.039,1.954,18.755,-1.172,-46.886,-35.165,-1.172,71.893,-21.099,22.271,-111.746,55.092,46.886,-1.172,-1.172
'[22:21:27.055 13/03/2059]',-95.336,-91.819,94.945,42.979,-76.972,-11.722,19.927,20.317,-32.821,1.563,17.192,1.954,-50.012,-37.900,12.112,64.860,-19.927,29.695,-94.164,70.720,16.410,0.000,12.112
'[22:21:27.059 13/03/2059]',-78.144,-106.667,91.038,46.496,-79.316,-16.801,24.615,23.834,-28.132,5.079,17.582,-1.954,-54.310,-32.039,22.271,57.045,-17.582,33.211,-90.256,50.794,15.629,15.629,22.271
'[22:21:27.063 13/03/2059]',-80.488,-107.839,95.726,46.496,-75.018,-7.814,16.801,20.708,-29.304,8.205,23.053,-13.675,-44.151,-43.761,31.258,45.324,-10.549,30.085,-94.945,51.184,38.681,-2.735,31.258
'[22:21:27.066 13/03/2059]',-100.415,-92.601,90.256,50.012,-80.879,-15.238,22.662,21.490,-35.556,12.894,26.178,-17.973,-35.165,-45.714,23.834,42.198,-5.079,33.211,-89.475,67.985,59.389,-25.397,23.834
'[22:21:27.070 13/03/2059]',-91.429,-112.137,96.508,42.979,-83.614,-17.973,25.006,12.503,-32.821,20.317,25.788,-35.165,-33.211,-33.211,7.814,36.728,-5.079,38.291,-95.726,77.363,50.794,-5.079,7.814
'[22:21:27.074 13/03/2059]',-87.131,-96.117,91.038,39.463,-64.860,-8.205,16.020,4.298,-25.397,30.085,29.695,-51.184,-26.960,-24.225,12.112,22.662,-1.954,35.165,-90.256,50.403,66.813,8.987,12.112
'[22:21:27.078 13/03/2059]',-92.210,-64.860,75.800,44.542,-54.310,-13.675,21.099,10.549,-25.788,39.853,33.602,-42.979,-26.178,-20.708,24.615,27.350,3.126,35.946,-75.018,60.171,46.496,1.563,24.615
'[22:21:27.082 13/03/2059]',-77.363,-30.867,22.271,50.012,-50.794,-7.814,13.284,9.377,-31.258,44.933,32.430,-35.946,-31.648,-23.834,27.741,37.509,8.987,37.118,-21.490,9.768,37.900,2.735,27.741
'[22:21:27.086 13/03/2059]',-99.634,-9.768,1.954,58.999,-63.297,-8.987,13.284,10.549,-40.244,50.794,27.741,-34.383,-33.211,-28.132,25.006,39.853,10.940,35.556,-1.172,-18.364,53.919,5.079,25.006
'[22:21:27.090 13/03/2059]',-101.978,-64.078,56.654,55.482,-73.846,-7.033,17.582,8.987,-42.979,59.389,26.569,-38.291,-25.788,-24.615,18.364,35.946,19.145,33.211,-55.873,49.621,55.092,-0.391,18.364
'[22:21:27.094 13/03/2059]',-96.117,-147.302,126.593,52.357,-85.958,1.172,9.377,10.549,-41.026,63.687,21.490,-38.681,-16.410,-20.317,10.159,32.039,26.960,33.993,-125.812,116.435,69.158,-5.079,10.159
'[22:21:27.098 13/03/2059]',-96.117,-166.056,144.567,49.621,-86.740,2.735,10.940,4.298,-25.006,73.065,11.722,-46.886,-3.516,-18.755,12.503,22.271,31.258,31.648,-143.785,128.156,62.515,11.722,12.503
'[22:21:27.102 13/03/2059]',-74.237,-158.632,137.924,56.654,-58.217,4.689,8.596,6.642,-10.940,79.707,7.814,-51.184,11.331,-21.880,17.192,17.973,37.118,23.443,-137.143,115.653,65.641,16.020,17.192
'[22:21:27.105 13/03/2059]',-55.873,-133.236,104.322,57.827,-37.509,1.954,1.563,6.252,-5.470,80.488,6.252,-53.529,15.238,-22.271,19.145,14.847,41.807,15.629,-103.541,113.700,52.357,0.391,19.145
'[22:21:27.109 13/03/2059]',-50.794,-76.190,46.886,61.343,-24.225,-1.563,-3.126,11.331,-1.563,81.270,1.954,-47.277,14.066,-15.238,19.145,15.238,42.589,12.503,-46.105,54.310,49.621,9.377,19.145
'[22:21:27.113 13/03/2059]',-49.621,-66.422,56.264,49.621,-15.238,1.172,-1.563,4.689,2.735,86.349,3.126,-51.184,15.238,6.642,12.503,5.079,44.151,4.298,-55.482,36.337,68.767,25.397,12.503
'[22:21:27.117 13/03/2059]',-44.933,-126.203,116.044,44.151,-14.847,12.112,-6.252,-1.563,3.516,91.038,5.079,-57.827,14.066,25.006,5.470,-1.954,49.621,-3.126,-115.263,116.435,57.045,25.006,5.470
'[22:21:27.121 13/03/2059]',-47.668,-145.348,132.063,46.105,-19.927,19.145,-10.159,-3.126,1.563,98.071,3.516,-55.092,10.549,23.834,17.973,-4.689,53.138,-1.172,-131.282,114.481,72.283,23.443,17.973
'[22:21:27.125 13/03/2059]',-40.635,-138.706,110.183,46.496,-21.099,25.006,-10.549,-14.847,0.000,108.230,2.344,-71.502,8.987,16.410,25.006,-12.112,55.873,-3.126,-109.402,92.991,67.595,23.053,25.006
'[22:21:27.129 13/03/2059]',-37.900,-135.580,97.289,49.231,-25.397,33.993,-11.722,-22.662,-2.344,115.653,3.907,-81.270,8.596,16.020,27.350,-16.410,60.562,-4.298,-96.508,108.620,52.747,9.377,27.350
'[22:21:27.133 13/03/2059]',-38.681,-97.289,60.171,49.231,-29.304,33.211,-5.861,-23.443,-5.079,120.342,5.470,-71.893,3.126,25.788,27.741,-9.377,62.906,3.907,-59.389,82.051,40.635,5.861,27.741
'[22:21:27.137 13/03/2059]',-32.821,-67.595,33.993,44.933,-30.476,34.383,-0.391,-24.225,-5.470,125.812,4.689,-66.422,0.781,48.059,12.503,-3.907,63.297,10.159,-33.211,43.370,30.085,32.430,12.503
'[22:21:27.141 13/03/2059]',-31.648,-74.237,55.092,33.602,-30.085,48.449,-6.642,-27.741,0.781,128.547,8.596,-65.641,6.252,71.502,-1.172,-4.689,63.297,5.470,-54.310,42.979,35.165,50.794,-1.172
'[22:21:27.145 13/03/2059]',-47.277,-78.144,82.442,30.085,-27.741,43.761,-5.470,-21.490,-1.172,125.812,6.252,-59.389,8.987,67.985,-5.079,-1.954,62.906,-1.563,-81.661,77.753,46.105,28.913,-5.079
'[22:21:27.148 13/03/2059]',-56.264,-34.383,48.449,30.867,-27.350,28.913,2.344,-14.066,-3.516,121.514,2.344,-57.827,1.563,58.217,5.079,-3.126,59.780,-7.424,-47.668,50.794,34.383,23.053,5.079
'[22:21:27.152 13/03/2059]',-13.675,-99.634,81.270,16.410,-16.410,42.589,-12.894,-26.960,0.391,114.481,3.126,-60.952,2.344,46.496,16.020,-8.987,54.310,-14.847,-80.488,50.012,54.310,19.145,16.020
'[22:21:27.156 13/03/2059]',-29.304,-119.560,119.951,7.424,-23.443,45.714,-16.020,-26.178,-2.735,111.746,5.470,-57.045,-1.563,32.821,36.728,-10.159,51.184,-17.582,-119.170,88.694,48.449,-3.126,36.728
'[22:21:27.160 13/03/2059]',-18.364,-79.707,63.297,16.020,-32.821,11.331,14.847,-12.894,-10.159,109.011,3.907,-43.761,-12.112,30.867,41.807,-1.954,46.886,-10.159,-62.515,96.117,-14.066,-8.596,41.807
'[22:21:27.164 13/03/2059]',23.834,-107.448,82.051,-4.689,-2.344,47.668,-19.927,-30.867,-10.940,102.369,2.735,-35.165,-12.894,31.648,28.132,10.940,39.853,-9.768,-81.270,44.151,9.768,7.033,28.132
'[22:21:27.168 13/03/2059]',20.708,-95.336,103.150,-19.145,16.410,55.092,-19.536,-41.807,-11.331,103.541,4.689,-37.118,-5.079,37.509,23.443,3.126,35.556,-11.722,-102.369,36.337,29.304,10.159,23.443
'[22:21:27.172 13/03/2059]',-41.026,65.641,0.781,-7.424,12.503,29.304,4.689,-29.304,-17.582,96.117,-7.424,-16.410,-16.020,34.383,18.364,16.020,32.821,-11.331,0.000,-1.172,-25.397,1.172,18.364
'[22:21:27.176 13/03/2059]',38.681,-8.596,33.602,-25.788,48.059,81.661,-47.668,-43.370,-7.033,86.349,-14.457,-10.549,-23.053,49.231,4.689,21.099,32.039,-13.284,-32.821,-94.164,51.966,21.490,4.689
'[22:21:27.180 13/03/2059]',-17.973,8.987,64.469,-27.350,32.821,79.316,-37.509,-45.714,-0.391,77.753,-20.708,-6.642,-19.536,35.946,15.238,16.410,26.569,-18.364,-63.687,-63.687,58.608,4.298,15.238
'[22:21:27.184 13/03/2059]',-51.184,53.138,53.529,-32.039,12.503,71.502,-21.880,-38.681,-3.126,70.720,-28.523,4.298,-33.211,29.304,25.397,20.708,23.053,-17.582,-52.747,-58.999,37.900,-17.192,25.397
'[22:21:27.188 13/03/2059]',1.563,25.788,45.714,-34.774,26.960,72.674,-28.132,-32.430,4.298,63.687,-36.728,16.020,-37.118,26.569,26.960,29.304,17.192,-12.894,-44.933,-81.270,17.973,-8.205,26.960
'[22:21:27.191 13/03/2059]',-1.563,12.894,82.833,-43.370,44.151,80.879,-37.118,-36.728,-6.642,59.780,-39.463,26.569,-39.463,10.549,28.523,39.072,10.159,-11.331,-82.051,-57.436,3.907,-7.033,28.523
'[22:21:27.195 13/03/2059]',36.728,8.205,71.111,-45.714,48.840,73.065,-14.457,-36.728,-11.722,66.422,-41.416,26.569,-47.277,14.457,36.337,34.383,12.503,-7.424,-70.330,-60.562,-8.596,-14.457,36.337
'[22:21:27.199 13/03/2059]',84.005,31.258,-1.563,-37.509,57.827,54.701,-7.814,-29.304,-20.708,58.608,-44.933,32.430,-54.701,6.642,27.350,43.761,12.503,-3.907,2.344,-83.223,-52.357,-23.834,27.350
'[22:21:27.203 13/03/2059]',60.562,-38.681,94.554,-34.774,69.548,57.045,-7.424,-36.728,-28.913,50.403,-44.151,29.304,-66.422,9.768,14.847,47.277,9.768,-1.954,-93.773,-77.363,34.383,-12.112,14.847
'[22:21:27.207 13/03/2059]',8.596,54.701,46.496,-26.569,70.720,38.681,5.861,-32.430,-26.178,38.291,-44.151,23.053,-73.065,12.894,2.344,46.886,7.033,-7.814,-45.714,-129.719,58.608,-19.536,2.344
'[22:21:27.211 13/03/2059]',25.788,-2.735,111.746,-40.244,103.541,59.780,-30.476,-38.291,-16.410,19.536,-46.886,32.821,-74.628,15.238,-14.457,62.515,7.814,-16.410,-110.965,-61.343,49.621,-30.867,-14.457
'[22:21:27.215 13/03/2059]',10.159,26.960,104.713,-37.509,117.607,46.105,-23.053,-34.774,0.000,8.987,-48.059,36.337,-75.409,21.880,-19.927,70.720,5.470,-15.629,-103.932,-81.270,43.761,-17.582,-19.927
'[22:21:27.219 13/03/2059]',25.397,49.621,71.111,-50.012,109.792,49.621,-19.927,-41.026,0.391,2.344,-47.277,36.728,-84.005,21.490,-17.973,72.674,1.954,-14.457,-70.330,-105.104,11.722,-17.582,-17.973
'[22:21:27.223 13/03/2059]',36.728,13.284,91.819,-50.012,94.945,50.403,-16.410,-34.774,-1.954,-0.391,-47.668,50.403,-88.303,16.801,-10.549,80.879,-0.781,-11.331,-91.038,-24.225,-47.668,-31.648,-10.549
'[22:21:27.227 13/03/2059]',30.476,5.470,108.620,-48.840,76.972,59.389,-4.689,-35.165,-2.344,0.391,-40.244,47.277,-89.475,26.569,-8.987,75.800,-1.172,-1.172,-107.839,-34.774,-21.490,-30.867,-8.987
'[22:21:27.230 13/03/2059]',24.615,67.595,44.151,-25.006,61.343,39.072,32.039,-20.708,1.172,3.516,-45.324,56.264,-91.819,41.416,-24.225,89.866,-1.563,4.298,-43.370,-82.442,-42.198,-5.079,-24.225
'[22:21:27.234 13/03/2059]',-39.072,137.924,46.105,-12.503,76.190,39.072,33.211,-17.192,-2.344,11.722,-42.198,57.436,-81.661,51.575,-47.277,100.806,2.735,-1.563,-45.324,-126.593,2.344,12.503,-47.277
'[22:21:27.238 13/03/2059]',-60.171,211.380,21.099,-14.457,100.806,37.118,38.291,-19.927,8.205,13.675,-37.509,48.840,-67.985,60.171,-55.092,97.289,13.675,5.079,-20.317,-185.201,47.668,7.814,-55.092
'[22:21:27.242 13/03/2059]',6.252,189.109,-45.324,-8.596,93.773,-0.781,64.860,-15.629,3.907,11.331,-39.072,44.542,-64.860,37.118,-55.482,104.322,12.894,10.159,46.105,-272.332,81.661,-6.642,-55.482
'[22:21:27.246 13/03/2059]',-122.686,292.259,-18.755,-7.033,102.759,9.377,54.310,-23.053,-13.284,14.457,-30.476,45.324,-73.065,16.020,-25.788,98.852,15.238,9.377,19.536,-182.466,22.271,-22.271,-25.788
'[22:21:27.250 13/03/2059]',35.556,47.668,101.978,-31.648,123.077,83.614,-7.424,-44.542,-12.112,10.549,-21.880,39.463,-68.376,5.470,-15.238,93.773,18.364,12.112,-101.197,-151.990,101.978,-42.589,-15.238
'[22:21:27.254 13/03/2059]',26.178,26.178,126.203,-32.039,109.792,75.018,-0.391,-37.118,6.642,-1.954,-20.708,47.668,-51.966,-3.126,-16.020,102.759,10.159,19.536,-125.421,-124.249,87.912,-37.118,-16.020
'[22:21:27.258 13/03/2059]',0.000,128.156,25.006,-13.675,101.978,64.078,3.907,-30.867,25.788,-10.940,-19.145,44.542,-33.602,1.954,-28.913,100.415,1.563,17.582,-24.225,-194.188,71.111,-15.238,-28.913
'[22:21:27.262 13/03/2059]',-2.344,60.562,119.560,-40.244,101.978,75.409,1.172,-42.198,26.569,-8.205,-12.894,34.383,-21.490,13.675,-47.277,94.554,1.563,16.410,-118.779,-143.785,109.792,-12.894,-47.277
'[22:21:27.266 13/03/2059]',-20.708,106.276,46.496,-27.741,72.674,41.807,24.225,-35.165,0.391,-1.172,-12.112,34.774,-25.006,-10.549,-42.198,100.024,-1.172,22.662,-45.714,-177.387,102.759,-38.291,-42.198
'[22:21:27.270 13/03/2059]',-46.496,129.328,12.112,-23.834,48.449,26.178,36.337,-40.635,-58.217,16.410,-11.722,17.582,-68.376,-29.304,-24.615,86.740,-1.954,23.834,-11.331,-180.513,73.065,-33.211,-24.615
'[22:21:27.273 13/03/2059]',-46.886,69.158,91.819,-38.681,60.952,48.840,16.410,-51.575,-129.719,47.277,-3.907,9.377,-113.700,-37.509,-7.033,81.661,4.689,18.364,-91.038,-114.090,63.687,-32.039,-7.033
'[22:21:27.277 13/03/2059]',-8.987,11.331,116.435,-38.681,73.065,51.966,5.079,-50.403,-116.825,34.383,-3.516,5.861,-113.309,-45.714,-3.907,84.396,8.205,16.410,-115.653,-93.382,82.442,-51.184,-3.907
'[22:21:27.281 13/03/2059]',-3.126,47.668,60.952,-16.801,89.866,21.099,21.490,-44.151,-51.184,7.424,-10.940,5.861,-82.051,-39.072,-12.894,86.740,1.954,15.629,-60.171,-117.216,78.144,-39.072,-12.894
'[22:21:27.285 13/03/2059]',10.549,52.747,78.535,-19.145,133.626,17.192,19.536,-48.059,23.834,-14.457,-14.457,3.126,-37.118,-24.225,-31.648,91.819,-4.689,10.159,-77.753,-109.792,78.144,-19.536,-31.648
'[22:21:27.289 13/03/2059]',21.490,70.720,40.244,-7.814,145.348,0.781,22.662,-43.761,76.972,-34.774,-19.536,0.391,-0.391,-23.834,-47.277,94.554,-9.377,7.033,-39.463,-132.454,97.680,-36.337,-47.277
'[22:21:27.293 13/03/2059]',-10.940,150.037,-52.357,9.768,114.872,-23.053,37.900,-32.821,75.800,-30.085,-31.648,-2.735,0.391,-37.900,-43.370,92.210,-12.503,7.033,53.138,-161.758,62.515,-51.184,-43.370
'[22:21:27.297 13/03/2059]',-44.542,141.832,-23.834,-3.907,99.243,-8.205,22.662,-45.324,25.397,-10.940,-32.430,-15.629,-38.291,-39.853,-30.867,75.018,-11.331,0.000,24.615,-132.063,27.350,-28.523,-30.867
'[22:21:27.301 13/03/2059]',-40.635,109.011,-9.377,-11.722,82.442,-1.954,21.880,-56.264,-1.172,6.252,-26.569,-30.476,-50.794,-40.244,-17.582,57.436,-3.907,-7.814,10.159,-105.104,23.053,-37.509,-17.582
'[22:21:27.305 13/03/2059]',-64.078,126.984,-32.821,-5.470,63.687,3.907,8.987,-53.138,2.735,10.940,-33.211,-24.225,-52.357,-37.900,-6.252,53.138,-1.563,-7.814,33.602,-111.746,21.490,-41.026,-6.252
'[22:21:27.309 13/03/2059]',-16.410,7.814,76.581,-23.834,98.071,19.145,-8.205,-66.422,40.635,11.331,-33.602,-26.960,-28.132,-28.913,-1.172,50.012,-3.907,-8.596,-75.800,-42.589,30.867,-20.317,-1.172
'[22:21:27.313 13/03/2059]',10.549,43.761,-13.284,-1.563,102.369,-30.867,17.192,-49.621,70.720,-1.563,-41.026,-21.880,-0.391,-29.695,-18.755,54.701,-12.894,-17.192,14.066,-98.852,57.045,-35.165,-18.755
'[22:21:27.316 13/03/2059]',-4.689,15.629,20.708,-18.364,90.647,-27.741,6.252,-55.482,76.581,-11.722,-46.496,-21.490,3.126,-30.085,-30.476,53.529,-16.801,-21.099,-19.927,-40.244,52.747,-53.138,-30.476
'[22:21:27.320 13/03/2059]',14.457,-17.582,14.847,-14.847,82.051,-64.078,23.443,-45.714,53.529,-19.927,-51.575,-22.271,-17.973,-25.397,-49.231,52.747,-21.880,-25.788,-14.066,-9.768,15.629,-28.913,-49.231
'[22:21:27.324 13/03/2059]',-57.827,102.369,-72.674,3.907,57.436,-89.866,43.370,-35.556,28.913,-23.053,-52.357,-19.927,-33.993,-16.410,-66.813,50.403,-20.708,-31.258,73.455,7.814,-62.125,-10.549,-66.813
'[22:21:27.328 13/03/2059]',-36.337,-8.987,81.661,-41.416,79.316,-17.973,-6.252,-60.562,19.145,-8.205,-39.853,-31.258,-35.556,7.033,-64.469,32.039,-3.907,-32.039,-80.879,51.966,7.033,-3.907,-64.469
'[22:21:27.332 13/03/2059]',-7.424,-18.755,67.985,-37.118,84.396,5.861,-25.006,-61.343,16.801,4.298,-30.476,-33.993,-31.258,17.192,-54.310,25.006,4.689,-22.271,-67.204,-0.781,32.430,10.159,-54.310
'[22:21:27.336 13/03/2059]',-65.641,63.687,21.490,-28.132,57.436,7.424,-18.364,-55.092,16.410,16.801,-25.397,-38.681,-18.755,6.252,-35.556,17.192,7.814,-12.894,-20.708,-47.277,37.509,7.033,-35.556
'[22:21:27.340 13/03/2059]',-15.238,21.099,6.252,-33.602,46.886,25.006,-37.118,-56.264,18.755,14.457,-19.145,-46.886,-13.284,-1.172,-23.834,6.252,8.205,-10.549,-5.470,-108.620,105.885,-14.066,-23.834
'[22:21:27.344 13/03/2059]',14.066,20.708,-32.430,-28.523,35.165,13.284,-30.867,-42.979,0.781,12.894,-23.443,-42.198,-30.085,-12.503,-17.582,8.205,4.689,-8.596,33.211,-103.932,80.098,-29.304,-17.582
'[22:21:27.348 13/03/2059]',3.516,-24.615,8.987,-23.053,26.960,-1.172,-27.350,-33.993,-13.675,8.205,-30.867,-44.542,-43.761,-26.178,-15.238,5.470,-1.172,-12.112,-8.205,-25.788,49.621,-29.695,-15.238
'[22:21:27.352 13/03/2059]',32.821,-63.687,39.463,-27.741,42.198,1.172,-31.648,-29.695,3.907,13.675,-26.960,-48.449,-22.271,-20.708,-11.722,-1.172,-1.172,-19.145,-38.681,-11.331,62.906,-21.880,-11.722
'[22:21:27.355 13/03/2059]',32.821,-33.211,20.317,-28.132,35.946,7.424,-32.039,-18.755,0.391,26.960,-21.490,-44.933,-12.503,-8.987,-8.596,-6.642,3.516,-21.490,-19.536,-19.536,59.389,-26.960,-8.596
'[22:21:27.359 13/03/2059]',-15.629,10.159,-4.689,-10.940,2.735,-2.735,-23.834,2.735,-35.556,37.118,-19.536,-33.602,-23.834,-1.954,-22.662,-2.344,5.470,-17.192,5.470,-25.006,63.687,-23.443,-22.662
