'Time and date','FP1-F7','F7-T7','T7-P7','P7-O1','FP1-F3','F3-C3','C3-P3','P3-O1','FP2-F4','F4-C4','C4-P4','P4-O2','FP2-F8','F8-T8','T8-P8','P8-O2','FZ-CZ','CZ-PZ','P7-T7','T7-FT9','FT9-FT10','FT10-T8','T8-P8'
'hh:mm:ss.mmm dd/mm/yyyy','uV','uV','uV','uV','uV','uV','uV','uV','uV','uV','uV','uV','uV','uV','uV','uV','uV','uV','uV','uV','uV','uV','uV'
'[16:23:54.000 02/09/2075]',-7.033,9.377,-13.284,-14.066,2.344,-22.271,-7.814,2.735,-5.079,-26.569,-4.689,-1.563,-14.457,35.556,-43.761,-15.238,-24.615,-7.424,14.066,-7.033,20.317,28.523,-43.761
'[16:23:54.004 02/09/2075]',0.391,0.391,0.391,0.391,0.391,0.391,0.391,0.391,0.391,0.391,0.391,0.391,0.391,0.391,0.391,0.391,0.391,0.391,0.391,0.391,0.391,0.391,0.391
'[16:23:54.008 02/09/2075]',0.391,0.391,0.391,0.391,0.391,0.391,0.391,0.391,0.391,0.391,0.391,0.391,0.391,0.391,0.391,0.391,0.391,0.391,0.391,0.391,0.391,0.391,0.391
'[16:23:54.012 02/09/2075]',0.391,0.391,0.391,0.391,0.391,0.391,0.391,0.391,0.781,0.391,0.391,0.391,0.391,1.172,0.000,0.391,0.391,0.391,0.391,0.391,0.391,0.781,0.000
'[16:23:54.016 02/09/2075]',1.172,0.000,0.391,0.391,1.563,0.000,0.000,0.391,0.391,0.391,0.391,0.391,0.391,0.391,0.000,0.391,0.391,0.391,0.391,1.172,0.391,0.000,0.000
'[16:23:54.020 02/09/2075]',-0.781,0.781,-0.781,0.391,0.391,-0.391,0.391,0.000,-1.172,0.391,0.781,0.391,0.391,-2.344,1.954,0.781,0.391,0.391,1.563,-0.391,0.391,-0.781,1.954
'[16:23:54.023 02/09/2075]',-4.298,1.563,-1.172,0.391,-5.079,0.781,1.563,-0.781,-0.391,0.391,1.172,0.000,0.000,-3.516,4.298,0.391,0.391,1.172,1.954,-2.735,0.391,-0.391,4.298
'[16:23:54.027 02/09/2075]',0.000,-0.391,1.563,0.391,-2.735,2.344,0.781,0.391,0.391,0.000,0.391,-0.391,-1.172,0.391,1.172,-0.391,0.391,0.391,-0.781,0.781,0.781,0.391,1.172
'[16:23:54.031 02/09/2075]',6.252,-3.126,3.907,0.781,5.470,0.391,0.000,1.954,-2.735,1.172,-0.391,1.563,-1.954,3.907,-3.126,1.172,0.391,0.391,-3.126,5.861,1.172,0.000,-3.126
'[16:23:54.035 02/09/2075]',2.344,0.391,0.391,0.781,5.079,-1.563,0.391,0.391,-0.391,1.954,1.172,1.954,3.907,-0.781,0.000,2.735,0.391,0.781,0.391,1.954,0.391,0.000,0.000
'[16:23:54.039 02/09/2075]',-5.470,3.126,-3.516,0.000,-3.516,-1.172,1.563,-2.344,2.735,-0.391,2.344,-1.172,6.252,-8.987,5.470,0.391,0.391,1.563,4.298,-3.907,-1.172,-3.126,5.470
'[16:23:54.043 02/09/2075]',-9.768,0.000,-6.642,0.391,-8.987,-4.298,1.172,-4.298,-16.020,-1.954,2.344,-1.172,-7.033,-26.178,15.238,0.391,-0.391,2.735,7.424,-3.907,0.000,-16.801,15.238
'[16:23:54.047 02/09/2075]',-30.867,5.079,-11.722,2.344,-36.728,0.781,10.159,-7.814,-33.211,1.954,7.814,1.563,-16.801,-45.714,37.118,4.298,0.000,8.987,12.503,-18.364,-0.391,-22.271,37.118
'[16:23:54.051 02/09/2075]',-29.304,-9.768,2.344,1.954,-46.105,6.252,14.457,-9.768,-25.006,0.781,8.596,-5.079,-13.284,-48.449,40.244,0.391,0.000,12.503,-1.563,-2.735,2.344,-31.258,40.244
'[16:23:54.055 02/09/2075]',-5.861,-17.192,12.503,6.642,-22.662,8.205,15.629,-3.907,-40.635,3.516,8.205,4.298,-22.271,-48.449,35.165,11.722,0.781,12.894,-11.722,12.112,3.516,-38.291,35.165
'[16:23:54.059 02/09/2075]',-11.722,-10.549,14.457,7.033,-26.960,12.503,19.145,-5.079,-44.542,12.112,13.284,6.642,-11.331,-33.602,19.145,14.457,1.172,17.582,-13.675,9.768,2.735,-18.755,19.145
'[16:23:54.063 02/09/2075]',0.781,-5.470,10.159,5.470,-20.317,19.927,16.801,-4.689,2.344,8.205,14.066,2.344,37.118,-35.165,13.284,12.894,0.781,16.020,-9.377,5.861,0.391,-16.020,13.284
'[16:23:54.066 02/09/2075]',8.205,3.516,1.954,1.954,-8.596,17.973,11.331,-4.689,-5.470,3.516,10.549,0.391,21.099,-33.211,16.020,3.907,0.391,11.722,-1.172,-0.391,-0.391,-18.364,16.020
'[16:23:54.070 02/09/2075]',4.298,5.079,-5.470,-0.391,-10.940,8.596,7.424,-1.954,-14.457,11.331,7.814,0.391,15.238,-35.946,26.960,-0.391,-1.172,10.549,6.252,-9.377,-1.172,-26.569,26.960
'[16:23:54.074 02/09/2075]',-2.735,3.516,-10.549,-1.563,-20.317,3.907,5.470,-1.563,15.629,6.642,3.907,2.344,28.523,-35.556,34.774,1.172,-1.172,8.205,11.331,-14.457,-2.344,-30.085,34.774
'[16:23:54.078 02/09/2075]',-8.987,-3.907,-5.470,-5.079,-2.344,-22.271,4.689,-5.079,3.516,-3.126,0.391,0.000,-1.954,-23.834,24.615,1.563,-1.563,3.516,6.252,-6.252,-5.861,-26.960,24.615
'[16:23:54.082 02/09/2075]',-22.271,0.391,-6.252,-3.516,-27.350,-5.861,3.907,-3.126,-17.973,0.000,0.391,3.516,-23.443,-15.238,17.582,6.642,-0.781,3.907,7.033,-10.159,-10.940,-18.364,17.582
'[16:23:54.086 02/09/2075]',-19.927,-1.563,-5.079,-0.391,-28.913,-0.781,4.689,-3.126,-3.516,-3.516,0.391,8.205,-2.735,7.424,-17.192,13.675,-1.563,3.516,5.861,-11.722,-8.596,15.238,-17.192
'[16:23:54.090 02/09/2075]',-2.344,-4.689,3.907,0.391,-7.033,2.735,7.424,-5.861,2.344,-4.298,2.735,0.781,4.689,-3.907,-5.470,5.861,-1.954,5.470,-3.126,-0.781,-10.549,6.642,-5.470
'[16:23:54.094 02/09/2075]',10.940,0.000,11.331,1.563,1.954,14.847,10.549,-3.516,-12.112,7.033,9.377,2.735,4.689,-34.383,31.648,5.470,-0.391,11.331,-10.549,2.735,-5.079,-26.960,31.648
'[16:23:54.098 02/09/2075]',11.331,7.033,1.954,3.907,0.391,14.457,11.722,-1.954,8.205,10.940,9.768,4.689,33.602,-45.714,39.463,6.642,-0.781,14.457,-1.172,-4.689,0.000,-35.165,39.463
'[16:23:54.102 02/09/2075]',-1.563,12.112,2.344,0.781,-10.940,14.457,16.410,-5.470,-6.252,12.503,13.284,0.391,18.755,-46.496,47.277,0.000,0.781,16.801,-1.563,-7.033,-0.391,-31.258,47.277
'[16:23:54.105 02/09/2075]',0.391,13.284,2.344,-1.172,-19.927,24.225,16.020,-4.689,-32.430,14.847,14.066,4.689,-1.563,-44.542,49.621,-0.391,4.689,16.410,-1.563,-4.298,0.781,-38.681,49.621
'[16:23:54.109 02/09/2075]',-1.563,12.112,-3.516,-1.172,-41.807,35.556,13.284,-0.391,-41.026,16.801,9.768,8.987,-2.735,-26.960,29.304,-2.735,6.642,14.847,4.298,-6.642,1.954,-22.271,29.304
'[16:23:54.113 02/09/2075]',-2.735,3.126,2.735,-2.735,-29.304,18.364,14.457,-3.126,-30.085,14.066,8.987,10.549,0.391,-9.377,16.801,-1.954,8.596,12.112,-1.954,-3.126,-2.344,0.391,16.801
'[16:23:54.117 02/09/2075]',-5.079,1.954,9.377,-5.470,-30.476,20.708,13.284,-1.563,0.000,5.079,9.768,11.722,11.331,-9.768,25.788,0.781,6.252,9.768,-8.596,1.563,-6.642,-7.033,25.788
'[16:23:54.121 02/09/2075]',0.391,2.735,7.033,-3.907,-24.615,19.145,8.987,1.954,10.159,0.000,8.596,16.020,12.503,-17.192,32.821,7.033,7.424,7.424,-6.252,2.735,-8.596,-22.271,32.821
'[16:23:54.125 02/09/2075]',1.954,7.814,0.781,-2.344,-18.364,15.629,9.768,1.563,31.258,-8.596,9.768,18.755,23.053,-1.563,19.145,10.549,4.689,7.424,0.000,-6.252,-12.112,-2.344,19.145
'[16:23:54.129 02/09/2075]',-3.907,16.801,-5.470,-2.344,-29.304,20.708,13.284,-0.391,23.834,-11.722,13.284,17.973,14.066,1.563,14.457,13.675,2.344,7.424,6.252,-12.894,-16.410,5.861,14.457
'[16:23:54.133 02/09/2075]',3.516,23.443,-13.675,1.954,-16.410,15.238,11.722,5.079,11.331,-3.516,11.722,22.271,12.894,-2.344,21.880,9.768,4.689,8.987,14.457,-17.192,-8.987,-6.252,21.880
'[16:23:54.137 02/09/2075]',0.781,22.662,-14.847,3.516,-17.973,12.112,12.112,5.861,1.563,7.424,10.159,21.490,21.490,13.284,7.033,-0.391,2.344,10.549,15.629,-16.801,-0.781,10.549,7.033
'[16:23:54.141 02/09/2075]',-4.689,16.801,-3.126,1.172,-11.722,6.252,12.503,2.735,0.391,15.238,8.205,15.238,24.225,10.549,10.940,-4.298,2.344,9.768,3.907,-7.814,-3.126,12.894,10.940
'[16:23:54.145 02/09/2075]',7.814,9.377,5.079,-1.563,5.861,4.689,9.768,0.000,-25.788,18.364,10.159,5.861,3.126,-21.099,39.853,-12.894,2.344,7.033,-4.298,6.642,-7.033,-19.536,39.853
'[16:23:54.148 02/09/2075]',22.271,-1.563,8.596,2.344,5.079,14.457,6.642,4.298,-53.529,19.536,8.205,8.987,-14.066,-34.383,40.244,-6.252,0.391,5.470,-7.814,12.503,-4.298,-29.304,40.244
'[16:23:54.152 02/09/2075]',0.391,1.954,8.596,5.079,-28.132,29.695,8.987,5.079,-21.880,10.549,11.331,17.582,1.954,-33.211,39.072,9.768,1.563,7.033,-7.814,2.735,-7.033,-20.708,39.072
'[16:23:54.156 02/09/2075]',-5.470,5.861,7.424,4.298,-30.476,25.788,11.722,4.298,-14.066,-3.516,14.066,13.675,-11.722,-25.788,35.165,12.503,5.470,4.298,-6.642,4.689,-8.987,-21.880,35.165
'[16:23:54.160 02/09/2075]',-5.470,4.298,5.470,8.205,-24.615,17.973,9.768,8.205,10.159,-1.563,10.549,8.596,11.722,-23.053,29.695,9.768,8.205,3.907,-4.689,8.205,-4.689,-27.350,29.695
'[16:23:54.164 02/09/2075]',-13.675,14.066,6.642,6.642,-19.145,13.675,13.284,5.079,43.370,5.079,12.503,5.079,44.151,-4.689,24.225,3.516,12.503,7.424,-5.861,-1.172,-1.563,-6.252,24.225
'[16:23:54.168 02/09/2075]',-0.781,16.020,8.205,4.298,0.391,9.768,14.066,3.126,28.132,7.424,12.894,5.079,25.788,-7.033,34.383,2.735,15.238,7.033,-7.424,0.391,-7.814,-4.689,34.383
'[16:23:54.172 02/09/2075]',18.755,22.271,0.000,2.344,25.397,4.298,9.377,3.126,25.397,15.238,8.987,0.391,36.728,-21.099,38.291,-1.563,13.284,4.689,0.781,-3.126,-4.689,-22.271,38.291
'[16:23:54.176 02/09/2075]',16.410,33.993,-8.596,1.563,4.298,22.662,10.159,5.079,21.880,16.410,8.987,8.205,38.681,-16.020,35.165,-0.391,12.112,8.596,9.377,-18.755,3.126,-16.410,35.165
'[16:23:54.180 02/09/2075]',-0.391,28.132,-1.172,1.172,-17.973,30.085,10.159,4.298,-4.298,13.675,7.033,8.596,11.331,-8.987,23.443,0.781,12.112,7.033,1.954,-12.894,1.563,-4.298,23.443
'[16:23:54.184 02/09/2075]',-2.735,32.821,-5.079,-1.563,-15.238,28.913,5.470,2.344,-12.112,13.284,2.344,-1.563,0.000,-0.391,13.675,-9.768,14.847,1.172,5.861,-10.159,0.391,-3.907,13.675
'[16:23:54.188 02/09/2075]',-12.503,24.225,2.735,-0.781,-32.430,37.509,4.298,3.907,-1.172,15.238,0.391,-2.344,7.424,21.099,-3.516,-12.894,16.410,0.391,-1.954,-2.735,-0.391,14.457,-3.516
'[16:23:54.191 02/09/2075]',-11.722,11.331,15.238,2.735,-19.145,29.304,4.689,2.735,1.172,11.722,1.563,5.470,3.907,27.741,-6.642,-2.735,17.582,-1.563,-14.457,4.689,-2.344,28.913,-6.642
'[16:23:54.195 02/09/2075]',-8.987,4.298,14.847,1.563,-0.781,11.331,4.298,-2.735,5.861,4.689,2.344,4.689,0.391,20.708,-1.954,-0.391,14.847,-3.907,-14.066,8.596,-5.470,26.178,-1.954
'[16:23:54.199 02/09/2075]',-11.722,1.954,8.987,-1.172,-5.470,6.252,2.735,-4.689,25.397,1.563,-1.563,0.391,17.582,6.252,1.563,0.391,12.503,-3.907,-8.205,6.252,0.391,5.861,1.563
'[16:23:54.203 02/09/2075]',7.814,7.814,3.516,1.563,26.569,-2.735,2.344,-3.907,-4.298,-0.391,-2.344,1.954,-7.033,-10.549,12.894,0.391,10.159,-2.735,-2.735,-3.126,8.205,-5.079,12.894
'[16:23:54.207 02/09/2075]',9.768,26.569,-4.298,-1.563,33.211,2.344,3.516,-10.159,-8.205,8.205,0.391,-8.987,-1.954,-22.662,24.615,-8.596,10.549,-2.344,5.079,-14.066,10.549,-14.066,24.615
'[16:23:54.211 02/09/2075]',4.298,41.026,-16.020,2.344,19.145,16.801,1.954,-5.861,14.457,21.880,-2.344,-12.894,30.085,-25.397,25.788,-8.596,12.894,-2.344,16.801,-24.615,13.284,-22.271,25.788
'[16:23:54.215 02/09/2075]',1.563,35.556,-7.814,7.814,14.847,24.225,1.954,-3.516,23.443,19.536,-3.516,-8.596,31.258,-19.536,23.053,-3.516,12.503,-1.172,8.596,-18.755,13.675,-16.801,23.053
'[16:23:54.219 02/09/2075]',-8.205,23.834,1.563,5.079,8.596,21.099,1.172,-8.596,30.085,16.410,-3.126,-12.112,32.039,-13.284,16.801,-3.516,11.331,-1.954,-0.781,-10.940,8.596,-5.079,16.801
'[16:23:54.223 02/09/2075]',-26.960,5.861,12.503,4.298,-5.861,10.549,-0.391,-7.424,25.788,7.814,-5.079,-13.675,10.940,-4.689,13.284,-3.516,10.940,-4.298,-11.722,6.642,4.689,-9.377,13.284
'[16:23:54.227 02/09/2075]',-23.834,1.563,12.894,2.344,-0.391,1.954,-0.781,-7.033,3.907,3.907,-2.735,-11.722,-12.112,-4.298,18.364,-7.424,10.940,-4.298,-12.112,7.424,1.563,-10.159,18.364
'[16:23:54.230 02/09/2075]',-10.159,9.377,7.424,0.781,16.410,0.391,-0.391,-7.814,6.642,-3.516,1.954,-10.940,-12.503,-7.033,21.490,-6.642,12.894,-2.344,-6.642,-4.689,-1.563,-1.172,21.490
'[16:23:54.234 02/09/2075]',-10.549,15.629,-0.391,4.689,16.020,0.391,0.391,-7.033,14.066,8.205,4.298,-7.033,6.252,-7.424,22.662,-1.172,12.503,-2.344,1.172,-13.284,-0.781,-0.781,22.662
'[16:23:54.238 02/09/2075]',-10.549,17.582,-7.814,5.470,-5.861,19.145,0.391,-7.814,26.960,8.596,1.563,-8.987,23.053,-3.907,9.768,0.000,11.331,-1.954,8.596,-16.801,-0.391,2.735,9.768
'[16:23:54.242 02/09/2075]',8.987,14.457,-8.987,6.252,0.781,29.695,0.391,-8.987,18.364,2.344,2.735,-2.344,9.377,14.066,-10.159,8.596,10.940,1.954,9.768,-16.410,-4.689,22.662,-10.159
'[16:23:54.246 02/09/2075]',8.205,5.079,-1.563,2.735,10.159,17.192,0.391,-13.284,0.781,1.954,3.126,-7.814,-5.861,10.940,-11.722,4.689,8.205,1.172,2.344,-10.159,-5.470,19.927,-11.722
'[16:23:54.250 02/09/2075]',8.987,0.000,6.252,1.563,10.549,20.317,-0.391,-12.112,-19.536,7.814,4.298,-5.470,-17.973,17.973,-12.112,1.172,7.033,2.735,-5.470,1.563,-7.033,20.317,-12.112
'[16:23:54.254 02/09/2075]',8.596,7.424,0.391,0.391,24.615,4.689,-3.126,-8.987,-44.542,4.298,6.252,1.563,-39.463,-1.954,8.596,2.344,5.079,4.298,0.391,-3.126,-6.642,-1.563,8.596
'[16:23:54.258 02/09/2075]',1.563,6.642,-0.391,-3.126,28.523,-9.377,-4.689,-9.768,-42.589,2.344,3.126,0.000,-38.291,-21.880,18.755,5.470,1.172,1.172,1.172,-6.252,-9.377,-16.020,18.755
'[16:23:54.262 02/09/2075]',-0.391,3.126,-4.298,-6.642,22.271,-9.768,-5.470,-14.457,-10.549,2.344,0.781,-9.377,-10.159,-21.880,14.066,0.781,-1.954,-1.172,5.079,-3.907,-10.940,-19.927,14.066
'[16:23:54.266 02/09/2075]',-12.503,6.252,-8.987,-9.377,17.192,-21.490,-6.252,-13.675,12.112,-10.549,-0.391,-9.377,0.391,-13.675,5.861,-0.391,-2.344,-1.172,9.768,-4.689,-13.675,-14.066,5.861
'[16:23:54.270 02/09/2075]',-13.284,-0.781,-4.298,-5.470,-2.735,-3.516,-7.424,-9.768,21.099,-11.722,-3.907,-5.079,5.079,-19.145,9.377,4.298,-1.563,-1.172,5.079,-2.735,-9.377,-17.192,9.377
'[16:23:54.273 02/09/2075]',-3.516,-4.689,2.735,-1.954,-3.516,10.940,-3.516,-11.331,35.556,-6.252,-0.391,-3.907,24.615,-26.569,17.192,8.596,1.172,0.391,-1.954,5.079,-10.549,-18.755,17.192
'[16:23:54.277 02/09/2075]',3.907,1.954,-0.391,5.861,0.391,15.629,0.391,-4.689,33.602,-6.252,3.126,5.861,25.788,-22.662,22.271,11.331,3.516,2.735,1.172,2.344,-5.470,-15.629,22.271
'[16:23:54.281 02/09/2075]',3.126,7.424,-6.252,9.768,6.252,8.987,1.563,-2.735,13.675,-0.391,0.781,7.814,10.159,-25.788,18.755,19.145,3.516,3.516,7.033,-7.033,-2.344,-14.457,18.755
'[16:23:54.285 02/09/2075]',-14.457,12.503,-13.284,9.377,-9.768,3.126,5.861,-5.470,-14.066,5.861,2.344,8.205,-16.410,-17.973,18.364,19.536,1.954,6.252,14.066,-19.145,-8.987,-3.907,18.364
'[16:23:54.289 02/09/2075]',-15.629,16.801,-16.410,3.126,-4.298,-6.252,7.033,-7.814,-23.834,7.814,1.954,-2.735,-23.834,6.642,-6.642,6.642,1.563,5.470,17.192,-17.973,-11.722,12.112,-6.642
'[16:23:54.293 02/09/2075]',-17.582,-5.861,3.126,-0.391,-2.735,-14.457,5.079,-7.814,-25.006,4.298,-3.126,-5.861,-34.383,9.768,-8.205,2.735,4.298,6.252,-2.344,3.516,-13.284,5.861,-8.205
'[16:23:54.297 02/09/2075]',-19.927,-14.066,13.284,3.516,-19.536,5.470,1.563,-4.298,-32.039,4.689,-2.735,3.516,-40.635,1.172,5.861,7.424,3.516,5.079,-12.503,9.768,-19.145,5.861,5.861
'[16:23:54.301 02/09/2075]',11.722,-14.066,15.238,-1.172,16.020,6.642,-2.344,-7.814,-25.397,2.735,-2.344,-7.033,-31.258,2.735,0.391,-3.907,2.735,-1.954,-14.457,13.284,-12.894,7.033,0.391
'[16:23:54.305 02/09/2075]',26.569,-13.284,10.159,0.781,39.072,-1.172,-8.596,-4.298,-3.126,-8.205,-3.126,-6.252,-20.317,-0.781,5.470,-5.470,0.781,-7.424,-9.377,10.549,-3.126,-2.344,5.470
'[16:23:54.309 02/09/2075]',21.490,-6.252,0.391,2.344,35.556,-0.781,-12.503,-3.126,1.563,-8.987,-5.470,-3.907,-20.317,-8.987,9.768,2.344,0.000,-9.768,0.391,1.954,-1.954,-8.596,9.768
'[16:23:54.313 02/09/2075]',0.391,-0.781,-6.642,-4.298,16.410,-8.987,-8.596,-10.549,10.549,-4.298,-4.298,-16.020,-5.470,-16.410,8.596,-0.781,0.000,-10.940,7.424,-4.298,-2.344,-10.549,8.596
'[16:23:54.316 02/09/2075]',-22.271,0.000,-11.331,-1.172,-12.112,-12.112,-5.079,-5.861,21.880,0.391,-1.563,-13.675,7.424,-16.801,12.894,2.344,0.781,-5.861,12.112,-3.126,-4.689,-17.973,12.894
'[16:23:54.320 02/09/2075]',-24.225,-7.033,-5.079,0.391,-25.788,-5.079,-3.516,-2.344,16.410,7.424,-6.252,-10.159,8.596,-11.722,3.516,5.861,3.907,-1.563,5.861,5.861,-4.298,-11.722,3.516
'[16:23:54.324 02/09/2075]',-16.410,-5.470,-4.298,0.000,-19.536,-6.252,1.563,-4.298,0.391,11.331,-3.907,-11.722,2.735,-6.252,-4.298,4.298,1.954,0.000,5.079,-0.781,-1.954,4.298,-4.298
'[16:23:54.328 02/09/2075]',-7.814,-8.596,-3.516,0.781,5.079,-23.834,3.907,-4.689,-23.443,17.192,-2.735,-17.582,-14.066,-1.172,-10.159,0.000,1.172,0.000,4.298,0.391,0.391,8.205,-10.159
'[16:23:54.332 02/09/2075]',-3.126,-12.894,4.298,7.033,1.954,-7.033,1.172,-1.563,-23.443,8.205,-8.987,-10.549,-32.821,23.053,-30.476,4.689,1.954,-1.172,-3.516,8.596,3.126,26.178,-30.476
'[16:23:54.336 02/09/2075]',-13.284,-8.205,3.126,10.159,-8.205,-0.391,0.391,0.000,12.112,0.391,-10.159,-1.172,-8.596,14.066,-19.536,14.457,-1.172,-1.563,-2.344,3.516,0.391,21.099,-19.536
'[16:23:54.340 02/09/2075]',-16.801,-9.768,1.563,8.987,-15.238,0.391,0.000,-0.781,14.066,3.126,-2.735,-0.781,-1.172,-4.689,7.033,12.503,-4.689,-1.563,-0.781,7.033,-3.907,1.172,7.033
'[16:23:54.344 02/09/2075]',8.205,-8.596,0.391,7.814,-1.172,10.549,-3.907,2.344,3.907,0.781,-0.781,0.391,-9.377,-4.689,7.814,10.159,-5.861,-1.172,0.391,7.033,-1.563,0.000,7.814
'[16:23:54.348 02/09/2075]',21.099,-7.033,-11.331,8.596,17.192,-4.298,-5.470,3.516,-7.814,1.563,0.781,-0.391,-5.861,-8.205,-1.172,9.377,-7.033,0.391,12.112,-5.079,5.470,5.470,-1.172
'[16:23:54.352 02/09/2075]',5.470,-15.238,-8.205,3.126,19.145,-28.132,-3.516,-1.954,-22.271,9.377,2.344,-16.020,-12.894,-25.006,15.238,-3.126,-6.642,-1.172,8.987,-6.642,10.549,-6.642,15.238
'[16:23:54.355 02/09/2075]',-10.940,-10.159,2.735,2.735,20.317,-29.304,-0.781,-3.516,2.344,4.689,2.735,-21.099,-10.159,0.000,2.735,-3.907,1.172,0.391,-1.954,-0.391,12.112,2.344,2.735
'[16:23:54.359 02/09/2075]',-12.894,-4.298,4.689,6.252,18.364,-21.490,0.000,-1.563,50.012,7.814,0.391,-13.284,30.867,12.112,0.391,0.391,6.252,2.344,-3.907,0.391,8.205,3.907,0.391
'[16:23:54.363 02/09/2075]',5.470,-6.252,7.814,5.861,41.416,-24.225,3.126,-5.470,62.515,18.364,4.298,-12.503,43.370,14.066,18.364,-3.126,7.814,4.298,-7.033,1.563,0.391,0.391,18.364
'[16:23:54.367 02/09/2075]',32.039,-1.563,10.159,6.252,47.277,-1.172,5.861,-3.907,39.072,19.927,6.642,-3.126,16.801,30.867,8.596,4.298,11.722,5.861,-9.377,7.033,-6.642,9.377,8.596
'[16:23:54.371 02/09/2075]',38.681,-4.689,5.079,8.596,33.993,9.768,1.954,0.781,0.781,17.192,3.516,3.907,-15.238,26.178,4.689,9.377,7.814,3.516,-4.298,8.596,-7.424,2.344,4.689
'[16:23:54.375 02/09/2075]',41.026,-0.781,-2.344,4.689,34.383,9.768,0.781,-2.344,3.907,14.847,1.954,-4.689,-14.847,16.020,8.596,5.470,7.814,1.172,3.126,2.344,-10.549,-1.954,8.596
'[16:23:54.379 02/09/2075]',19.536,-0.781,-2.344,0.781,7.814,13.284,0.000,-4.298,18.364,12.503,0.781,-9.768,-2.344,6.642,8.596,8.596,7.424,0.391,3.126,6.642,-17.973,-5.079,8.596
'[16:23:54.383 02/09/2075]',-5.079,-1.954,3.126,-1.563,-12.503,10.159,-0.781,-2.735,41.807,10.159,3.907,-1.563,16.801,10.549,13.284,12.894,6.252,1.563,-2.344,9.377,-22.662,-4.689,13.284
'[16:23:54.387 02/09/2075]',26.569,4.689,3.516,-3.907,27.741,4.298,-1.172,-0.391,69.158,17.192,7.033,-0.391,50.403,18.364,13.675,10.549,7.814,5.861,-2.735,3.516,-21.490,0.391,13.675
'[16:23:54.391 02/09/2075]',49.621,5.079,2.735,-3.126,50.794,-0.781,3.126,0.391,53.138,21.880,14.066,3.907,41.807,20.708,15.238,14.847,7.814,8.205,-1.954,-0.391,-29.695,10.940,15.238
'[16:23:54.395 02/09/2075]',64.860,17.973,-0.781,-1.954,74.237,-4.298,6.642,2.735,37.900,19.145,18.755,8.596,22.662,26.569,17.582,17.973,10.159,8.205,1.563,-8.987,-27.350,10.159,17.582
'[16:23:54.398 02/09/2075]',65.250,22.271,-10.549,-0.391,68.767,-3.126,5.861,4.298,20.708,16.801,14.457,3.126,7.424,22.662,12.112,12.112,8.205,7.424,11.331,-16.801,-23.443,6.252,12.112
'[16:23:54.402 02/09/2075]',50.012,28.523,-21.099,0.391,43.370,3.126,7.424,2.735,0.391,24.225,8.596,-0.391,-5.079,27.741,0.391,9.768,5.861,7.814,21.880,-28.913,-23.053,18.364,0.391
'[16:23:54.406 02/09/2075]',26.960,16.410,-8.596,0.391,16.020,12.894,6.642,-1.563,-9.377,28.913,5.470,-3.907,-7.424,26.960,-1.172,2.344,5.079,7.814,9.377,-11.722,-14.847,12.503,-1.172
'[16:23:54.410 02/09/2075]',24.225,-4.689,14.066,0.781,13.675,15.629,5.470,-1.172,-16.410,21.880,3.126,-1.563,-18.364,33.211,-5.079,-1.954,5.861,7.814,-13.284,10.159,-8.205,14.847,-5.079
'[16:23:54.414 02/09/2075]',21.099,-10.549,19.927,1.954,20.708,8.205,3.907,-1.563,-17.582,18.755,0.000,0.391,-16.020,40.635,-22.662,-1.172,1.172,6.252,-19.145,11.722,-5.861,33.993,-22.662
'[16:23:54.418 02/09/2075]',9.768,-10.549,19.536,-0.781,15.629,3.126,2.344,-3.907,21.490,5.470,0.000,-3.126,10.159,21.099,-4.298,-3.907,2.735,0.391,-18.755,9.768,-3.907,17.582,-4.298
'[16:23:54.422 02/09/2075]',13.284,-15.238,18.755,-5.470,17.582,-3.907,1.172,-4.298,51.184,-9.377,-3.126,-10.159,22.662,7.033,1.954,-4.298,3.516,-3.126,-17.973,12.112,-4.298,0.391,1.954
'[16:23:54.426 02/09/2075]',3.907,-8.205,2.344,-3.907,10.159,-12.503,-0.391,-2.735,46.105,-3.907,-7.424,-12.894,22.271,12.112,-11.722,-2.344,1.563,-4.298,-1.563,-0.391,-7.424,9.377,-11.722
'[16:23:54.430 02/09/2075]',23.053,-5.470,-4.298,-3.907,16.020,-3.516,1.954,-6.642,51.575,5.470,-0.391,-15.629,35.165,19.536,-10.549,-2.735,6.642,0.391,5.079,-5.079,-9.377,17.582,-10.549
'[16:23:54.434 02/09/2075]',47.668,-5.470,0.781,-2.344,45.324,-0.781,3.907,-7.424,37.900,17.582,1.563,-19.145,26.960,17.192,0.781,-7.033,8.596,3.126,0.000,3.516,-7.033,4.298,0.781
'[16:23:54.438 02/09/2075]',48.059,-2.344,0.391,3.907,48.840,0.391,2.735,-2.344,29.304,20.317,3.126,-12.894,18.755,32.039,-6.252,-5.079,5.079,4.689,0.391,2.344,-4.298,14.066,-6.252
'[16:23:54.441 02/09/2075]',43.370,3.516,-4.689,4.689,44.151,2.344,3.126,-2.344,26.569,11.331,3.907,-7.814,11.331,16.410,0.781,4.689,4.298,2.735,5.470,-5.079,-7.033,4.689,0.781
'[16:23:54.445 02/09/2075]',23.053,3.516,-4.298,3.516,26.960,0.391,1.563,-3.516,18.364,6.642,1.954,-8.596,2.735,-7.033,11.722,10.159,0.000,-0.781,5.079,-10.549,-5.861,-12.503,11.722
'[16:23:54.449 02/09/2075]',-2.735,3.126,-5.079,5.470,-5.470,5.861,0.000,0.391,19.927,2.735,-0.391,-3.516,1.954,-12.894,16.801,11.722,-0.391,-4.298,5.861,-12.503,-5.079,-17.582,16.801
'[16:23:54.453 02/09/2075]',0.391,-1.563,-3.126,5.861,-6.642,6.642,-1.172,1.172,-9.377,1.563,-3.126,5.079,-21.099,-18.755,11.331,22.271,1.172,-4.298,3.907,-13.284,-5.470,-16.020,11.331
'[16:23:54.457 02/09/2075]',5.079,-2.344,1.563,7.424,7.814,2.735,1.563,-0.781,-28.523,18.364,0.781,2.344,-27.350,-8.596,14.847,13.284,5.079,-3.126,-0.781,-5.079,-5.079,-8.987,14.847
'[16:23:54.461 02/09/2075]',12.503,-3.126,3.516,5.861,25.006,-5.079,0.781,-0.781,-16.801,25.397,0.000,-6.642,-7.814,1.563,9.377,-3.126,7.424,-5.079,-2.735,2.344,-3.516,-3.516,9.377
'[16:23:54.465 02/09/2075]',12.894,-12.503,4.298,6.252,30.867,-16.410,-1.172,-1.172,17.582,5.470,-3.907,-8.205,14.457,9.377,-10.159,-3.126,7.033,-6.642,-3.516,8.596,-7.033,8.596,-10.159
'[16:23:54.469 02/09/2075]',13.284,-13.284,2.735,4.298,32.821,-17.582,-1.563,-4.298,16.410,1.563,-3.516,-10.549,11.722,24.225,-25.397,-7.424,5.470,-6.252,-1.954,5.861,-7.814,30.867,-25.397
'[16:23:54.473 02/09/2075]',10.940,-15.629,-1.563,3.907,14.457,-7.814,-5.861,-2.735,10.940,0.000,-5.861,-12.894,9.377,5.079,-14.847,-8.987,1.563,-10.549,2.344,5.470,-2.735,6.252,-14.847
'[16:23:54.477 02/09/2075]',19.145,-15.238,-1.563,0.391,17.582,-2.344,-7.814,-3.907,26.569,-2.735,-7.424,-8.205,17.192,2.344,-5.861,-6.252,3.516,-11.331,2.344,6.642,-0.391,-5.470,-5.861
'[16:23:54.480 02/09/2075]',24.225,-6.642,-5.470,-1.172,16.801,7.424,-7.814,-6.642,1.954,0.391,-10.940,-4.689,-8.205,0.391,-2.344,-3.126,1.172,-10.549,6.252,-1.172,2.344,-6.642,-2.344
'[16:23:54.484 02/09/2075]',18.755,-3.907,-6.252,-8.205,13.675,3.907,-8.987,-10.159,-7.424,2.344,-14.066,-12.894,-17.973,-2.344,0.000,-12.503,-0.781,-16.020,7.033,0.391,0.781,-7.814,0.000
'[16:23:54.488 02/09/2075]',7.033,-7.033,-7.424,-9.768,7.424,-5.079,-10.940,-8.987,28.132,-12.503,-17.192,-12.503,2.344,12.894,-14.066,-16.410,0.391,-20.708,8.205,6.252,-0.781,1.563,-14.066
'[16:23:54.492 02/09/2075]',-4.689,-6.642,-12.112,-6.252,-13.675,-3.126,-9.377,-5.079,26.960,-17.582,-14.847,1.954,7.424,9.768,-17.192,-4.298,-0.781,-18.364,12.894,-0.391,0.391,10.159,-17.192
'[16:23:54.496 02/09/2075]',-16.410,-17.582,-5.861,-6.252,-19.927,-14.066,-7.033,-5.861,-1.172,-4.298,-10.940,-0.781,-2.344,-6.252,-7.033,-3.126,0.000,-17.973,6.642,6.252,-3.516,1.954,-7.033
'[16:23:54.500 02/09/2075]',-6.252,-16.801,-9.377,-7.424,-23.053,-5.861,-7.814,-3.516,4.689,3.907,-8.987,-7.033,14.847,-21.880,4.298,-5.470,0.781,-16.801,10.159,10.159,-6.642,-18.755,4.298
'[16:23:54.504 02/09/2075]',3.126,-10.549,-10.940,-4.689,-15.629,0.391,-8.596,0.000,-3.126,12.112,-8.987,-8.596,14.066,-24.615,8.205,-7.033,3.907,-12.112,11.722,5.861,0.391,-24.225,8.205
'[16:23:54.508 02/09/2075]',19.536,-7.033,-8.205,-4.689,11.331,-2.735,-5.861,-4.298,-7.814,15.629,-7.033,-18.364,9.377,-21.099,3.126,-9.377,1.563,-10.940,8.987,5.470,0.000,-15.629,3.126
'[16:23:54.512 02/09/2075]',35.165,0.391,-14.457,-4.298,33.211,-6.642,-5.470,-4.298,-10.159,7.814,-2.735,-24.225,-3.126,3.126,-17.192,-12.894,0.391,-12.503,15.238,-1.172,-2.344,8.987,-17.192
'[16:23:54.516 02/09/2075]',23.834,-1.172,-8.596,1.172,30.867,-11.722,-3.907,0.391,5.861,-4.689,2.735,-9.377,-3.516,17.582,-18.755,-0.781,0.781,-9.377,9.377,-0.391,1.563,15.629,-18.755
'[16:23:54.520 02/09/2075]',0.781,-8.596,-2.344,10.159,12.503,-15.629,-1.563,4.298,-1.954,2.735,1.954,3.516,-10.159,14.847,-10.940,13.675,0.391,-7.814,3.126,1.172,2.344,15.238,-10.940
'[16:23:54.523 02/09/2075]',-14.457,-17.192,-0.781,7.033,-12.503,-14.457,-0.391,1.563,2.735,1.563,2.735,-2.344,-5.861,25.788,-23.443,7.033,1.172,-7.814,1.563,10.159,-3.126,22.662,-23.443
'[16:23:54.527 02/09/2075]',-14.066,-19.927,0.391,10.159,-5.861,-21.490,0.000,4.689,17.192,4.689,2.344,0.781,10.940,5.470,1.563,6.252,5.079,-6.252,0.391,16.801,0.391,-6.252,1.563
'[16:23:54.531 02/09/2075]',-16.410,-12.894,-6.252,14.066,-28.132,0.000,-1.172,6.642,11.331,6.252,-3.907,5.861,8.987,-16.410,16.410,10.159,4.689,-7.033,7.033,8.987,0.781,-21.490,16.410
'[16:23:54.535 02/09/2075]',15.238,-10.549,-8.596,8.205,-0.781,5.470,-1.563,1.563,-4.298,0.391,-5.861,-2.735,-10.159,-23.443,15.629,3.126,1.172,-8.987,9.377,5.470,-1.172,-21.490,15.629
'[16:23:54.539 02/09/2075]',31.258,-12.112,-4.298,7.814,28.913,-4.689,-2.735,0.391,-4.689,2.344,-2.735,-8.205,-7.424,-19.145,10.159,2.344,0.781,-8.987,5.079,12.503,-6.252,-19.536,10.159
'[16:23:54.543 02/09/2075]',13.675,-10.940,-0.781,12.112,22.271,-9.768,-4.689,5.861,-2.344,0.781,-1.954,5.079,-3.907,-10.549,1.172,14.457,0.391,-7.033,1.563,13.284,-4.298,-9.768,1.172
'[16:23:54.547 02/09/2075]',9.768,-15.629,-2.735,11.722,33.602,-31.648,-4.689,5.079,-10.549,1.172,1.954,3.126,-7.033,1.563,-13.284,14.457,-1.563,-4.298,3.516,9.377,-6.252,8.987,-13.284
'[16:23:54.551 02/09/2075]',10.549,-14.847,-5.470,7.814,39.463,-40.244,-4.298,3.126,-7.424,1.954,7.424,-2.735,-4.298,11.331,-14.457,7.424,-2.735,-2.735,6.252,8.987,-8.987,15.629,-14.457
'[16:23:54.555 02/09/2075]',1.954,-13.675,-9.377,14.847,6.642,-19.927,-4.298,10.940,-13.675,7.424,7.033,10.940,-1.954,-3.516,5.470,12.894,-1.172,-1.954,10.159,6.642,-1.563,-1.563,5.470
'[16:23:54.559 02/09/2075]',4.689,-9.768,-15.629,11.722,-7.814,-3.907,-5.079,7.814,6.642,-0.391,3.516,5.079,0.391,-1.954,12.503,4.298,-3.126,-2.344,16.410,-3.516,-2.344,-1.172,12.503
'[16:23:54.563 02/09/2075]',-0.391,-8.987,-14.457,8.205,-24.615,10.159,-2.735,0.781,15.238,-6.642,0.000,-4.689,-5.079,3.126,7.814,-2.735,-0.781,-5.079,15.238,-3.126,-0.781,3.516,7.814
'[16:23:54.566 02/09/2075]',-11.722,-9.377,-6.252,8.987,-30.085,10.159,-2.344,2.735,39.463,-6.252,-3.907,0.781,24.225,7.814,-1.172,-1.172,0.781,-5.861,7.033,7.424,1.563,4.298,-1.172
'[16:23:54.570 02/09/2075]',3.516,-12.503,-1.172,9.377,-5.861,3.126,-3.516,5.470,35.946,-10.159,-7.814,5.079,21.099,9.377,-11.722,2.344,-0.781,-4.689,1.954,10.940,4.298,5.470,-11.722
'[16:23:54.574 02/09/2075]',8.205,-8.596,0.391,7.814,10.940,-5.079,0.391,1.954,16.801,-8.205,-2.735,1.954,7.033,0.781,-3.516,3.126,-3.907,-3.516,0.391,9.377,2.344,1.172,-3.516
'[16:23:54.578 02/09/2075]',25.788,-6.252,3.126,9.768,41.416,-14.066,1.954,3.516,10.940,-3.126,0.781,7.033,6.642,-7.814,3.126,13.284,-1.172,-1.172,-2.344,14.457,-0.781,-9.377,3.126
'[16:23:54.582 02/09/2075]',30.476,-7.424,1.954,10.549,42.198,-11.331,-1.172,5.861,3.907,-0.391,-0.781,6.642,2.735,-17.973,7.033,17.973,0.391,-1.563,-1.172,14.066,0.391,-24.225,7.033
'[16:23:54.586 02/09/2075]',26.569,4.689,-2.735,5.861,36.728,-1.172,-1.172,0.781,37.118,0.391,-0.391,-0.781,24.225,-3.516,4.298,10.159,5.470,-0.781,3.516,4.298,-0.391,-13.284,4.298
'[16:23:54.590 02/09/2075]',28.913,14.457,-8.205,2.344,46.886,-5.861,-2.735,0.000,52.357,0.391,-1.172,-7.033,38.681,16.020,-14.847,2.735,9.768,-0.391,8.987,4.689,-1.954,-1.172,-14.847
'[16:23:54.594 02/09/2075]',34.383,17.582,-12.894,-3.907,45.714,-3.907,-5.079,-0.781,52.747,3.907,-3.126,-8.205,54.310,17.973,-25.397,-2.735,10.549,0.391,13.675,10.159,2.344,-8.205,-25.397
'[16:23:54.598 02/09/2075]',35.165,32.430,-22.271,-5.079,47.277,-1.172,-3.907,-1.563,52.747,7.814,-2.735,-6.252,64.860,23.053,-26.178,-10.549,8.205,0.781,23.053,-1.172,4.298,1.954,-26.178
'[16:23:54.602 02/09/2075]',28.913,40.635,-25.397,-6.642,55.092,-12.503,-3.126,-2.344,35.946,7.814,-3.907,-5.861,47.668,31.648,-32.039,-13.675,5.861,-0.781,26.178,-3.126,4.298,11.722,-32.039
'[16:23:54.605 02/09/2075]',42.979,28.523,-13.284,-7.033,53.919,1.563,-3.126,-1.954,40.635,4.298,-2.735,2.344,56.654,12.503,-17.192,-7.033,4.689,-5.470,14.066,15.629,9.377,-11.722,-17.192
'[16:23:54.609 02/09/2075]',58.999,34.774,-4.298,-2.344,70.330,16.410,-5.079,3.907,81.661,7.814,-6.642,6.642,89.084,17.582,-12.894,-3.907,10.159,-7.424,5.079,18.364,12.503,-11.722,-12.894
'[16:23:54.613 02/09/2075]',78.144,49.231,2.344,0.000,114.090,18.364,-4.689,2.344,131.282,7.424,-5.861,-0.391,120.733,41.026,-23.443,-7.033,16.801,-7.033,-1.563,20.708,10.549,7.424,-23.443
'[16:23:54.617 02/09/2075]',111.355,51.966,5.470,-2.735,150.818,19.927,-5.079,0.781,145.348,15.238,-1.172,-5.861,140.269,45.714,-25.006,-8.596,20.708,-5.079,-4.689,32.821,8.987,-1.172,-25.006
'[16:23:54.621 02/09/2075]',114.481,60.952,4.298,-2.735,148.083,31.648,-5.079,2.735,153.553,27.350,0.781,-8.987,156.288,32.821,-6.642,-9.768,25.788,0.000,-3.516,33.993,7.814,-25.788,-6.642
'[16:23:54.625 02/09/2075]',116.435,72.674,1.563,-1.172,154.335,38.291,-2.344,0.391,143.004,35.556,5.861,-10.159,149.255,33.211,4.298,-13.675,29.695,4.689,-0.781,28.132,5.470,-23.053,4.298
'[16:23:54.629 02/09/2075]',130.110,71.111,-2.344,-3.126,157.460,40.244,0.391,-3.126,116.435,44.151,10.940,-11.331,139.096,25.788,11.722,-16.410,31.258,7.424,3.126,28.523,4.298,-30.085,11.722
'[16:23:54.633 02/09/2075]',124.640,75.800,0.000,-1.954,144.176,51.184,3.516,-1.563,126.593,42.979,15.238,-5.470,147.692,26.178,21.880,-16.020,39.463,9.768,0.781,29.304,7.424,-35.946,21.880
'[16:23:54.637 02/09/2075]',119.170,87.912,1.563,1.563,151.600,50.403,4.689,3.516,140.659,43.761,12.112,7.814,157.070,46.496,7.424,-6.252,42.979,11.722,-0.781,23.053,12.894,-16.801,7.424
'[16:23:54.641 02/09/2075]',124.249,109.011,-8.596,-0.391,186.374,32.039,5.861,-1.563,165.665,34.383,10.159,2.735,173.089,50.794,-2.344,-7.424,45.324,11.722,9.377,13.675,14.066,-14.847,-2.344
'[16:23:54.645 02/09/2075]',121.905,114.872,-3.907,-3.126,168.791,51.184,10.940,-2.344,180.513,28.523,14.457,2.735,183.248,47.668,0.781,-5.470,46.886,12.894,4.689,17.973,17.192,-25.397,0.781
'[16:23:54.648 02/09/2075]',125.031,112.137,1.954,1.563,169.573,58.217,8.205,5.079,200.049,29.695,7.033,10.940,206.300,41.807,-6.252,5.861,44.933,15.629,-1.172,26.178,15.629,-28.132,-6.252
'[16:23:54.652 02/09/2075]',159.805,120.733,-3.907,-2.344,204.737,58.217,7.424,2.344,193.797,35.556,5.079,3.126,208.645,43.761,-7.814,-5.861,43.370,15.629,4.689,16.020,12.503,-17.192,-7.814
'[16:23:54.656 02/09/2075]',169.963,119.951,3.907,-6.642,212.943,61.734,11.331,0.391,183.639,42.589,10.159,0.391,199.658,53.529,-0.781,-14.847,44.933,16.020,-3.126,22.662,10.159,-14.066,-0.781
'[16:23:54.660 02/09/2075]',166.447,114.872,14.457,-4.689,213.724,60.952,8.596,6.252,182.857,57.827,7.814,7.424,206.300,77.753,-15.629,-10.549,48.059,15.238,-13.675,30.085,10.549,2.735,-15.629
'[16:23:54.664 02/09/2075]',162.149,126.593,6.642,-5.079,206.300,67.595,10.549,4.298,171.526,60.562,10.159,7.033,189.109,113.700,-34.383,-17.192,49.231,17.192,-5.861,16.020,8.987,37.509,-34.383
'[16:23:54.668 02/09/2075]',155.116,127.375,7.814,-7.424,194.969,71.111,13.675,1.563,173.480,47.277,12.112,6.642,177.778,96.117,-16.020,-16.020,51.966,16.801,-7.033,14.847,7.033,18.364,-16.020
'[16:23:54.672 02/09/2075]',142.222,117.607,11.331,-3.516,173.871,74.237,12.112,5.470,170.745,49.621,14.066,9.768,185.983,87.131,-17.973,-7.033,51.966,16.801,-10.549,28.523,3.907,5.470,-17.973
'[16:23:54.676 02/09/2075]',150.818,114.872,10.549,-5.861,187.155,66.422,10.159,5.079,164.884,50.012,11.722,9.768,189.109,60.171,-2.735,-8.205,48.449,19.536,-9.768,27.350,3.126,-14.066,-2.735
'[16:23:54.680 02/09/2075]',148.474,128.938,0.000,-11.722,214.505,33.993,13.675,1.954,162.149,44.542,11.722,7.814,193.016,16.410,24.225,-6.252,46.496,18.755,0.781,13.675,3.126,-46.105,24.225
'[16:23:54.684 02/09/2075]',139.096,133.236,-1.954,-14.457,194.969,42.198,13.284,3.126,176.996,50.403,7.814,6.642,215.287,16.410,15.629,-4.689,43.370,17.192,2.735,15.629,5.470,-52.747,15.629
'[16:23:54.688 02/09/2075]',135.189,137.143,-2.344,-12.112,184.420,53.919,10.159,7.033,181.685,41.026,3.907,6.642,206.300,28.132,8.987,-8.987,42.979,17.973,3.126,12.894,9.768,-43.370,8.987
'[16:23:54.691 02/09/2075]',130.891,142.613,-10.159,-14.847,171.526,58.217,10.549,5.470,172.698,33.211,3.907,3.907,191.062,32.821,2.735,-11.722,41.416,17.582,10.940,0.781,7.033,-32.821,2.735
'[16:23:54.695 02/09/2075]',132.454,132.845,-1.954,-12.112,159.023,72.283,11.722,5.861,174.261,33.211,8.596,5.470,189.109,37.118,2.735,-6.252,40.244,17.582,2.735,8.987,1.172,-25.788,2.735
'[16:23:54.699 02/09/2075]',122.686,107.839,13.675,-7.814,150.427,65.250,9.377,9.768,155.507,33.602,12.112,15.238,167.619,42.979,8.596,-1.172,39.072,18.364,-12.894,25.788,-1.563,-23.443,8.596
'[16:23:54.703 02/09/2075]',115.653,96.899,12.112,-11.331,144.957,50.403,6.252,9.768,132.454,35.165,8.205,18.364,155.116,37.509,0.781,0.391,34.774,15.629,-11.331,20.317,1.172,-19.536,0.781
'[16:23:54.707 02/09/2075]',103.150,87.131,12.503,-12.112,137.143,36.728,8.987,6.642,120.342,36.728,9.768,18.364,151.209,24.225,5.079,4.689,28.132,12.112,-11.722,24.615,-0.781,-25.006,5.079
'[16:23:54.711 02/09/2075]',103.932,80.488,11.331,-11.331,135.189,33.211,7.033,7.033,116.435,30.085,8.596,19.536,140.269,32.821,-3.907,6.642,23.834,8.596,-10.549,23.834,0.781,-20.317,-3.907
'[16:23:54.715 02/09/2075]',90.256,75.800,11.331,-9.768,116.825,34.774,6.252,7.814,92.210,20.708,5.470,15.238,111.746,42.979,-22.271,1.563,19.145,7.424,-10.549,16.801,6.642,-1.954,-22.271
'[16:23:54.719 02/09/2075]',76.190,72.283,7.814,-7.424,105.495,28.913,6.642,5.470,90.647,16.410,3.126,10.159,109.792,27.350,-12.112,-3.126,16.410,7.424,-7.033,13.284,7.033,-7.033,-12.112
'[16:23:54.723 02/09/2075]',44.542,59.780,8.987,-6.642,67.204,26.960,5.470,5.079,89.475,10.549,4.298,7.814,107.448,26.960,-14.457,-5.861,15.629,7.033,-8.205,17.192,9.377,-6.252,-14.457
'[16:23:54.727 02/09/2075]',25.397,44.933,14.847,-7.033,36.728,28.913,3.907,5.470,66.032,5.079,4.689,5.861,89.084,26.178,-12.894,-18.755,12.894,6.252,-14.066,22.271,17.973,-5.079,-12.894
'[16:23:54.730 02/09/2075]',39.072,45.324,8.596,-8.987,59.389,16.020,3.516,3.516,38.681,9.768,4.689,5.470,76.972,-2.735,2.344,-15.238,11.722,5.470,-7.814,10.940,15.238,-17.973,2.344
'[16:23:54.734 02/09/2075]',38.291,41.026,8.596,-7.424,60.171,11.722,4.298,1.954,21.099,12.894,8.205,11.331,58.999,-18.364,21.880,-6.642,7.814,3.907,-7.814,5.470,14.066,-27.741,21.880
'[16:23:54.738 02/09/2075]',40.244,39.072,11.331,-3.907,59.389,15.629,3.907,5.861,27.741,6.252,8.596,14.847,45.324,-12.503,23.443,2.344,5.470,3.907,-10.549,2.344,10.549,-26.960,23.443
'[16:23:54.742 02/09/2075]',33.993,37.509,5.861,-0.391,46.496,16.020,4.298,7.814,22.271,-3.126,7.814,19.927,28.913,-19.145,22.271,14.847,3.126,8.205,-5.079,-6.642,4.689,-23.053,22.271
'[16:23:54.746 02/09/2075]',0.781,30.867,0.391,1.172,12.894,7.033,5.861,6.252,16.801,0.000,5.861,13.675,21.880,-17.973,15.629,16.020,0.391,7.814,0.391,-10.549,-0.391,-14.847,15.629
'[16:23:54.750 02/09/2075]',-24.225,21.099,3.907,1.172,-16.801,3.907,6.252,7.814,0.000,0.391,6.642,10.159,11.331,-14.847,9.768,11.331,-4.689,10.159,-3.126,-2.735,-0.781,-12.503,9.768
'[16:23:54.754 02/09/2075]',-40.244,7.033,10.549,-0.781,-40.635,3.516,2.735,10.159,-25.006,-0.781,0.781,10.159,-7.033,-25.006,7.814,8.987,-7.424,9.768,-9.768,2.735,-0.781,-15.629,7.814
'[16:23:54.758 02/09/2075]',-39.853,0.391,13.284,-3.126,-33.602,-5.079,2.344,5.470,-40.244,-0.781,-1.954,2.735,-17.582,-33.211,8.987,2.344,-11.331,6.642,-12.503,3.907,-0.391,-13.284,8.987
'[16:23:54.762 02/09/2075]',-27.350,2.735,9.377,-8.205,-11.331,-18.364,3.126,2.344,-45.714,-0.781,0.391,-0.391,-23.053,-12.894,-5.079,-3.907,-12.112,5.470,-8.596,-3.126,3.126,6.642,-5.079
'[16:23:54.766 02/09/2075]',-39.072,-3.516,8.987,-3.516,-34.383,-12.112,0.781,6.642,-33.602,-9.377,0.781,3.907,-17.973,-5.079,-11.722,-1.563,-12.503,5.079,-8.205,-4.298,8.205,12.894,-11.722
'[16:23:54.770 02/09/2075]',-32.430,-7.814,7.033,-1.563,-34.774,-8.987,1.172,6.642,-40.635,-10.159,-1.954,4.689,-28.523,-2.344,-15.629,-0.391,-14.457,3.907,-6.252,-7.424,7.033,21.880,-15.629
'[16:23:54.773 02/09/2075]',-33.602,-14.847,8.205,-1.954,-31.258,-16.410,4.298,0.391,-54.701,-2.735,0.391,-1.172,-38.681,-4.298,-10.549,-3.907,-14.847,3.907,-7.424,-1.563,5.079,19.145,-10.549
'[16:23:54.777 02/09/2075]',-47.668,-35.556,17.973,5.861,-58.608,-8.205,2.344,3.516,-44.542,-8.205,1.563,4.298,-33.211,-35.946,19.536,2.735,-17.973,3.126,-17.192,12.112,6.642,-14.457,19.536
'[16:23:54.781 02/09/2075]',-45.324,-44.151,23.443,6.252,-58.999,-5.861,3.126,1.954,-41.026,-22.662,-1.172,5.861,-47.277,-44.542,21.099,12.112,-21.880,3.907,-22.662,13.675,4.689,-17.192,21.099
'[16:23:54.785 02/09/2075]',-37.509,-42.589,17.192,5.079,-57.827,-4.689,5.861,-1.954,-33.211,-22.271,0.391,1.172,-42.979,-33.602,15.238,7.424,-20.317,4.689,-16.410,2.735,3.126,-0.391,15.238
'[16:23:54.789 02/09/2075]',-72.674,-33.993,5.470,7.033,-79.316,-22.271,3.907,2.344,-33.993,-25.788,3.516,1.954,-43.370,-29.695,10.549,8.205,-19.927,2.735,-4.689,-9.768,6.642,1.954,10.549
'[16:23:54.793 02/09/2075]',-77.363,-24.225,-1.563,4.689,-76.581,-27.350,0.000,5.079,-57.436,-21.490,1.563,1.563,-58.608,-16.801,-6.252,6.642,-20.317,2.344,2.344,-19.927,10.159,14.066,-6.252
'[16:23:54.797 02/09/2075]',-79.707,-9.768,-11.722,4.298,-66.422,-35.556,-0.391,3.516,-65.250,-11.331,0.781,0.781,-60.171,-16.801,-0.391,3.126,-19.927,3.126,12.503,-32.430,5.861,21.099,-0.391
'[16:23:54.801 02/09/2075]',-84.005,-17.582,-5.079,-0.781,-64.078,-45.324,-2.344,3.516,-56.264,-19.145,1.563,-4.298,-50.794,-33.211,10.549,-3.907,-23.834,0.781,5.861,-21.490,5.079,6.252,10.549
'[16:23:54.805 02/09/2075]',-66.813,-32.430,7.814,-3.516,-71.111,-24.225,-4.689,4.689,-84.005,-14.066,2.735,-2.344,-64.469,-39.463,9.377,-1.954,-26.960,0.391,-7.033,-2.735,5.470,-1.563,9.377
'[16:23:54.809 02/09/2075]',-46.105,-39.463,11.331,-0.781,-67.595,-12.112,-1.172,5.470,-78.926,-17.192,1.172,0.781,-62.906,-31.648,0.391,1.563,-28.523,1.954,-10.549,1.172,1.954,11.722,0.391
'[16:23:54.813 02/09/2075]',-57.436,-48.840,14.066,-1.172,-94.164,-7.033,3.516,3.516,-75.018,-18.364,4.689,-1.954,-59.389,-35.165,1.563,2.735,-29.304,3.516,-13.284,2.344,-0.391,14.066,1.563
'[16:23:54.816 02/09/2075]',-62.515,-48.449,9.377,6.252,-90.647,-18.364,3.516,9.768,-101.978,-13.284,4.298,9.377,-88.303,-33.602,6.252,14.847,-26.960,2.735,-8.596,-0.391,4.298,3.126,6.252
'[16:23:54.820 02/09/2075]',-58.999,-35.165,0.000,8.987,-73.455,-27.741,3.126,10.940,-98.462,-14.457,2.735,12.894,-95.336,-24.225,7.814,14.457,-26.569,4.298,0.781,-14.066,5.861,8.205,7.814
'[16:23:54.824 02/09/2075]',-61.343,-35.165,1.563,5.470,-62.515,-38.291,3.516,7.424,-73.846,-17.973,1.954,8.987,-77.363,-20.708,10.159,7.033,-27.741,3.516,-0.781,-15.238,3.516,15.629,10.159
'[16:23:54.828 02/09/2075]',-71.502,-29.304,-0.781,1.954,-73.065,-35.556,1.563,5.861,-60.952,-17.582,2.344,4.298,-60.171,-13.284,1.563,1.172,-23.443,2.344,1.563,-16.410,5.861,17.582,1.563
'[16:23:54.832 02/09/2075]',-74.628,-28.523,-2.735,-0.781,-77.753,-34.774,-1.172,5.079,-64.469,-15.629,1.954,1.954,-52.357,-26.569,5.470,-2.344,-23.443,1.563,3.516,-15.629,9.377,3.907,5.470
'[16:23:54.836 02/09/2075]',-80.098,-50.403,7.033,-0.781,-99.243,-25.788,-3.126,4.689,-37.509,-16.801,-1.954,0.391,-26.178,-32.039,6.642,-3.516,-25.006,0.000,-6.252,-1.954,6.642,5.861,6.642
'[16:23:54.840 02/09/2075]',-92.991,-57.436,6.252,0.391,-121.514,-22.662,-3.126,3.516,-40.635,-21.099,-3.516,-7.033,-36.337,-42.198,8.596,-3.126,-26.178,-1.954,-5.470,4.298,5.470,-3.126,8.596
'[16:23:54.844 02/09/2075]',-65.641,-60.171,3.907,2.735,-87.521,-28.523,-7.424,5.861,-75.018,-18.755,-7.033,-1.954,-71.502,-40.635,7.033,0.781,-24.615,-5.079,-3.126,6.642,4.689,-1.563,7.033
'[16:23:54.848 02/09/2075]',-41.416,-53.529,1.954,1.954,-60.171,-25.006,-8.205,2.344,-79.316,-19.145,-7.424,-7.033,-81.661,-24.615,1.563,-9.768,-23.053,-5.861,-1.172,-2.344,3.516,21.099,1.563
'[16:23:54.852 02/09/2075]',-46.105,-33.993,-7.424,1.563,-65.641,-15.629,-5.470,0.391,-76.581,-16.801,-7.033,-8.987,-83.223,-14.066,-0.781,-10.549,-19.536,-5.861,8.205,-20.708,1.563,33.211,-0.781
'[16:23:54.855 02/09/2075]',-53.138,-20.708,-11.331,0.391,-64.078,-16.801,-3.516,-0.781,-94.554,-8.205,-4.298,-6.252,-95.336,-21.099,7.814,-5.079,-13.284,-5.470,12.112,-25.397,1.954,16.020,7.814
'[16:23:54.859 02/09/2075]',-62.515,-28.913,-1.563,1.172,-66.813,-21.880,-3.126,0.000,-99.634,-8.205,-3.126,-7.814,-96.117,-35.556,18.755,-6.642,-13.284,-3.907,2.344,-17.582,5.861,-1.172,18.755
'[16:23:54.863 02/09/2075]',-82.833,-33.602,0.781,1.954,-92.210,-21.490,2.344,-1.954,-89.866,-6.252,-2.735,-9.768,-87.131,-30.085,13.675,-5.079,-15.629,-0.391,0.000,-18.755,7.424,5.079,13.675
'[16:23:54.867 02/09/2075]',-87.131,-43.761,10.159,4.298,-96.899,-25.006,5.470,0.781,-90.647,-10.549,-1.954,-9.377,-90.647,-28.523,10.940,-5.861,-16.801,0.391,-9.377,-7.033,9.768,6.642,10.940
'[16:23:54.871 02/09/2075]',-76.581,-46.496,15.238,7.814,-88.694,-25.006,6.252,6.252,-83.614,-12.503,1.563,0.781,-80.879,-12.503,5.470,-5.470,-15.238,4.298,-14.457,-5.079,14.847,21.490,5.470
'[16:23:54.875 02/09/2075]',-78.144,-36.728,5.470,9.377,-103.541,-12.112,6.642,8.205,-42.589,-13.284,1.563,5.470,-38.681,8.596,-13.675,-4.298,-18.364,6.252,-4.689,-19.536,13.675,50.012,-13.675
'[16:23:54.879 02/09/2075]',-59.780,-28.913,5.861,8.596,-76.190,-10.940,5.861,6.642,-25.006,-10.159,0.391,4.689,-24.615,0.391,-4.298,-1.172,-16.801,5.470,-5.079,-18.755,7.033,44.542,-4.298
'[16:23:54.883 02/09/2075]',-59.389,-30.085,5.861,7.033,-65.641,-16.410,0.000,7.033,-54.310,-2.735,2.344,2.344,-43.370,-21.490,16.801,-3.126,-16.801,1.954,-5.079,-11.722,5.470,12.894,16.801
'[16:23:54.887 02/09/2075]',-50.403,-31.648,8.596,5.470,-51.184,-19.536,-4.298,8.205,-55.873,-3.516,-4.298,2.735,-47.668,-18.364,6.252,-0.391,-19.927,0.391,-7.814,-10.549,7.033,15.629,6.252
'[16:23:54.891 02/09/2075]',-20.317,-40.244,16.020,2.344,-14.847,-24.615,-3.126,1.172,-59.389,-5.079,-1.172,-4.689,-62.515,-20.317,15.629,-3.516,-21.490,-2.344,-15.238,-1.954,1.172,8.596,15.629
'[16:23:54.895 02/09/2075]',-26.569,-45.714,17.582,2.344,-14.457,-37.509,0.391,0.391,-77.363,-13.284,2.735,-6.252,-87.131,-25.397,19.927,-1.172,-19.145,-3.126,-16.801,1.563,0.391,0.391,19.927
'[16:23:54.898 02/09/2075]',-45.714,-34.774,11.722,5.861,-41.416,-26.569,0.391,5.079,-80.879,-19.536,1.172,3.907,-96.117,-7.033,0.391,8.987,-18.755,-1.563,-10.940,-9.768,-1.172,20.708,0.391
'[16:23:54.902 02/09/2075]',-73.065,-30.867,8.596,3.126,-66.422,-26.960,1.172,1.563,-60.562,-28.132,-2.735,3.126,-87.131,-7.424,-3.126,9.768,-17.582,-3.516,-7.814,-18.755,-1.954,25.397,-3.126
'[16:23:54.906 02/09/2075]',-92.991,-29.304,10.159,0.391,-95.336,-17.192,1.954,-0.781,-70.330,-23.834,-0.781,-3.126,-90.647,-14.457,7.033,0.000,-16.020,-4.689,-9.377,-14.066,-2.344,12.112,7.033
'[16:23:54.910 02/09/2075]',-103.932,-23.834,14.847,1.954,-119.951,0.781,3.516,5.079,-79.707,-13.284,1.954,11.722,-85.177,-21.490,25.397,2.735,-14.066,-0.781,-14.066,-16.020,4.689,5.079,25.397
'[16:23:54.914 02/09/2075]',-66.813,-28.523,17.582,0.391,-86.740,3.516,2.735,2.735,-30.867,-10.549,0.000,8.987,-30.085,-30.085,30.085,-1.954,-15.629,-1.172,-16.801,-10.159,4.689,-0.391,30.085
'[16:23:54.918 02/09/2075]',-24.225,-26.569,15.238,-0.781,-39.463,-0.391,5.861,-2.344,-23.834,-5.470,1.563,2.344,-23.053,-26.178,35.165,-10.549,-16.020,-1.172,-14.457,-10.549,2.344,5.079,35.165
'[16:23:54.922 02/09/2075]',-10.159,-20.708,12.503,4.689,-16.801,-3.907,3.126,3.907,-32.430,-2.344,3.516,9.377,-27.741,-20.317,30.085,-2.735,-12.112,0.000,-11.722,-11.722,1.954,9.768,30.085
'[16:23:54.926 02/09/2075]',-21.099,-11.722,3.126,3.516,-12.894,-16.020,0.391,2.735,-30.476,-4.298,-0.391,7.424,-31.648,-14.457,17.582,0.391,-7.814,-1.563,-2.344,-18.755,1.563,10.159,17.582
'[16:23:54.930 02/09/2075]',-46.886,-8.596,-2.735,1.954,-45.714,-12.894,1.172,1.172,-58.999,-4.298,2.735,1.172,-65.641,-11.722,16.020,1.954,-6.252,-0.781,3.516,-29.304,-0.391,11.331,16.020
'[16:23:54.934 02/09/2075]',-74.237,-20.317,11.331,4.689,-71.893,-13.675,1.563,5.861,-75.018,-6.252,6.252,2.344,-82.051,-2.735,7.814,4.689,-1.563,0.391,-10.549,-13.284,-0.391,15.238,7.814
'[16:23:54.938 02/09/2075]',-60.952,-20.317,12.503,3.907,-75.800,1.172,0.391,8.596,-54.701,-7.033,4.689,1.954,-54.701,5.079,-9.768,3.907,-0.781,0.391,-11.722,-9.377,6.252,17.973,-9.768
'[16:23:54.941 02/09/2075]',-39.072,-16.410,10.940,3.126,-49.621,-1.172,1.954,7.033,-33.602,-15.238,5.079,1.563,-38.291,0.781,-8.596,4.689,-4.298,0.781,-10.159,-13.675,8.596,19.145,-8.596
'[16:23:54.945 02/09/2075]',-21.099,-23.443,16.410,7.033,-31.648,0.781,3.516,6.252,-11.722,-27.350,3.907,4.298,-23.443,10.549,-19.927,1.563,-5.079,0.391,-15.629,-4.298,9.768,35.556,-19.927
'[16:23:54.949 02/09/2075]',-21.490,-26.178,18.364,7.814,-25.397,-3.907,1.172,6.252,-21.490,-21.880,2.344,7.424,-19.145,4.298,-18.364,0.391,-7.033,0.000,-17.582,1.172,13.675,28.132,-18.364
'[16:23:54.953 02/09/2075]',-37.900,-21.490,16.020,8.987,-35.946,-8.987,2.344,8.205,-43.761,-15.238,1.563,18.364,-41.416,-14.066,8.987,7.033,-7.033,1.172,-15.238,-8.596,13.675,10.159,8.987
'[16:23:54.957 02/09/2075]',-47.668,-25.006,14.457,8.596,-47.668,-11.331,1.954,7.033,-80.879,-4.298,2.735,17.192,-69.939,-14.847,8.987,10.549,-5.861,0.781,-13.675,-8.205,1.954,14.066,8.987
'[16:23:54.961 02/09/2075]',-50.403,-24.615,12.894,3.516,-51.184,-12.503,-0.391,5.079,-90.256,8.205,3.907,9.768,-64.078,-12.503,3.516,6.642,-6.252,0.391,-12.112,-7.424,-1.563,12.503,3.516
'[16:23:54.965 02/09/2075]',-50.794,-15.629,3.516,0.391,-63.687,0.000,-1.954,4.298,-99.634,7.814,5.470,7.424,-74.237,-18.364,7.814,7.814,-6.252,0.781,-2.735,-17.973,-2.344,3.907,7.814
'[16:23:54.969 02/09/2075]',-50.012,2.735,-12.894,-3.907,-68.767,5.861,-2.344,0.391,-87.131,0.000,5.470,0.781,-69.548,-31.648,13.675,7.424,-6.642,0.391,13.675,-36.728,-2.735,-6.252,13.675
'[16:23:54.973 02/09/2075]',-38.291,-6.252,-3.516,-7.814,-62.125,8.596,0.000,-3.126,-58.217,-3.126,5.079,-8.205,-41.026,-27.350,7.424,-2.735,-8.596,-0.781,4.298,-19.536,-0.391,-10.940,7.424
'[16:23:54.977 02/09/2075]',-35.556,-18.364,10.549,-5.861,-55.092,5.470,0.391,-0.781,-43.370,-9.768,5.470,-3.516,-37.118,-19.536,9.768,-4.298,-5.470,-2.735,-9.768,-5.079,3.126,-9.377,9.768
'[16:23:54.980 02/09/2075]',-12.894,-18.364,13.675,-1.563,-19.927,-5.079,3.516,1.563,-30.867,-16.410,4.689,6.252,-35.165,-21.099,13.675,5.079,-5.861,-1.172,-12.894,-8.987,7.814,-4.298,13.675
'[16:23:54.984 02/09/2075]',-17.582,-29.695,17.582,0.391,-26.569,-10.549,6.252,1.172,-21.099,-17.582,2.344,5.470,-30.476,-12.112,9.377,3.516,-8.596,-0.781,-16.801,-0.781,3.516,7.814,9.377
'[16:23:54.988 02/09/2075]',-41.026,-36.337,19.145,3.907,-50.794,-10.940,2.735,4.689,-14.066,-22.271,0.000,9.768,-24.225,-14.457,4.298,7.814,-9.377,-0.781,-18.364,5.470,8.205,2.344,4.298
'[16:23:54.992 02/09/2075]',-46.105,-29.695,6.252,2.735,-57.045,-14.847,0.391,4.298,-16.410,-32.821,0.391,10.159,-26.569,-23.053,-0.781,12.112,-11.331,0.391,-5.470,-3.516,7.424,-0.391,-0.781
'[16:23:54.996 02/09/2075]',-56.264,-17.973,-7.424,2.344,-69.548,-14.066,0.391,3.126,-39.463,-22.271,3.516,7.033,-31.258,-19.927,-8.205,8.596,-12.112,0.781,8.205,-14.066,0.000,8.596,-8.205
'[16:23:55.000 02/09/2075]',-42.198,-21.099,-2.344,-0.391,-53.529,-13.284,-2.735,1.954,-66.422,-14.457,7.814,1.172,-46.886,-8.596,-18.364,2.735,-8.596,0.000,3.126,-3.126,-5.470,12.894,-18.364
'[16:23:55.004 02/09/2075]',-22.271,-19.536,-3.126,-1.172,-44.933,-2.344,-3.126,3.516,-78.926,-11.722,12.503,3.907,-61.734,-8.205,-3.907,0.000,-7.424,0.391,3.907,-8.987,-7.814,10.940,-3.907
'[16:23:55.008 02/09/2075]',-15.238,-9.768,-8.205,-1.172,-25.397,-11.722,0.391,1.172,-96.117,-3.126,12.112,1.563,-84.396,-3.907,-1.563,5.079,-8.596,0.781,8.987,-21.880,-14.847,19.536,-1.563
'[16:23:55.012 02/09/2075]',-19.145,-21.880,2.344,-0.781,-25.788,-13.675,1.172,-1.172,-81.270,7.033,11.722,-4.689,-65.250,-10.549,3.907,5.470,-11.722,0.000,-1.563,-9.768,-15.238,11.722,3.907
'[16:23:55.016 02/09/2075]',-5.079,-29.695,7.424,2.344,-12.503,-15.238,1.954,0.391,-35.946,0.391,7.033,-1.954,-34.383,-14.457,8.596,9.377,-12.894,0.391,-6.642,-2.344,-10.940,2.344,8.596
'[16:23:55.020 02/09/2075]',-10.940,-22.662,8.596,6.642,-16.801,-10.159,2.735,5.470,-7.033,-5.079,2.344,6.252,-14.457,-15.629,7.814,18.755,-12.112,1.172,-7.814,-6.642,-5.861,2.735,7.814
'[16:23:55.023 02/09/2075]',-19.145,-20.708,7.814,7.033,-16.801,-16.410,4.298,3.907,6.252,-3.516,0.391,0.391,6.252,-30.867,16.020,12.112,-10.940,0.000,-7.033,-0.781,-0.391,-12.503,16.020
'[16:23:55.027 02/09/2075]',-19.145,-14.457,1.172,4.298,-23.053,-13.284,3.516,3.907,10.549,-17.973,-3.126,-3.126,-0.781,-28.523,8.987,5.470,-5.079,-4.298,-0.391,-5.079,4.298,-17.973,8.987
'[16:23:55.031 02/09/2075]',-31.258,-10.159,2.344,5.861,-28.913,-14.847,5.079,5.470,-6.252,-24.225,-5.861,0.391,-24.615,-26.178,5.079,7.814,-3.907,-3.907,-1.563,-11.722,7.814,-8.987,5.079
'[16:23:55.035 02/09/2075]',-35.165,-17.192,4.298,4.689,-19.145,-30.867,5.470,1.563,-20.708,-21.490,-8.596,-6.642,-41.416,-27.350,5.079,4.298,-6.252,-5.861,-3.516,-8.987,2.344,-4.689,5.079
'[16:23:55.039 02/09/2075]',-29.695,-28.523,6.642,7.424,-39.072,-10.549,5.079,0.781,-25.006,-19.145,-7.033,-5.079,-46.105,-20.317,0.391,8.987,-2.344,-6.642,-5.861,-0.391,4.298,-6.642,0.391
'[16:23:55.043 02/09/2075]',-42.589,-29.304,8.205,7.814,-64.860,3.516,1.563,2.735,-36.728,-16.410,-6.252,0.391,-56.264,-11.331,-3.126,10.549,-1.954,-3.907,-7.424,1.172,3.126,0.391,-3.126
'[16:23:55.047 02/09/2075]',-30.476,-25.006,0.391,5.079,-48.449,-1.172,-0.391,-0.391,-57.827,-1.172,-6.642,-2.735,-55.482,-11.331,-8.596,6.642,-6.252,-3.907,0.391,-3.907,3.126,8.596,-8.596
'[16:23:55.051 02/09/2075]',-17.973,-19.145,-10.159,0.391,-29.695,-9.768,-1.172,-6.252,-55.482,1.954,-5.470,-9.768,-41.026,-10.549,-15.629,-1.172,-8.987,-6.252,10.940,-6.642,2.344,10.159,-15.629
'[16:23:55.055 02/09/2075]',-12.503,-9.768,-12.112,-0.391,-1.954,-27.741,-2.344,-3.907,-57.045,1.172,-5.470,-1.172,-41.026,13.675,-37.900,1.172,-11.331,-7.424,12.894,-13.284,3.126,37.118,-37.900
'[16:23:55.059 02/09/2075]',-18.364,-17.582,-8.596,0.000,12.894,-50.012,-4.689,-4.298,-36.728,-7.814,-12.503,-3.126,-28.523,-4.298,-25.397,-1.563,-18.364,-10.940,9.377,-7.814,1.563,25.397,-25.397
'[16:23:55.063 02/09/2075]',-32.430,-33.211,6.642,-0.391,-9.377,-39.853,-0.781,-8.987,0.391,-17.973,-14.066,-5.470,-10.159,-10.159,-15.238,0.000,-15.629,-12.112,-5.861,5.861,1.172,13.675,-15.238
'[16:23:55.066 02/09/2075]',-57.436,-37.509,9.377,3.907,-57.045,-18.755,-1.954,-2.735,-5.861,-23.443,-12.112,0.391,-17.973,-18.755,-8.987,5.079,-12.112,-11.331,-8.596,11.722,1.563,-0.781,-8.987
'[16:23:55.070 02/09/2075]',-54.310,-32.430,6.252,5.470,-64.860,-5.470,-3.126,0.000,-1.954,-27.350,-13.284,5.079,-21.490,-36.728,8.596,11.722,-7.424,-9.377,-5.470,6.252,1.954,-23.053,8.596
'[16:23:55.074 02/09/2075]',-23.443,-32.039,4.689,1.954,-44.151,3.516,-1.954,-5.079,-1.954,-25.397,-9.768,-2.344,-17.973,-53.138,24.225,6.252,-7.033,-8.596,-3.907,4.298,-0.781,-33.993,24.225
'[16:23:55.078 02/09/2075]',0.391,-25.788,0.000,5.861,-3.907,-6.642,-1.563,-5.079,-23.834,-24.615,-3.516,0.391,-38.291,-46.105,19.927,11.331,-3.907,-8.596,0.781,0.391,-3.516,-24.225,19.927
'[16:23:55.082 02/09/2075]',9.768,-18.755,-9.377,6.642,16.410,-17.192,-3.516,-6.252,-55.482,-12.503,-5.470,-2.344,-64.469,-33.602,15.629,4.689,-1.954,-8.205,10.159,-4.689,-4.689,-14.457,15.629
'[16:23:55.086 02/09/2075]',3.907,-26.960,-5.861,6.252,10.940,-21.099,-2.344,-8.987,-48.059,-3.516,-2.735,-5.861,-50.012,-20.708,8.596,0.391,-3.516,-6.642,6.642,-3.516,-7.033,2.344,8.596
'[16:23:55.090 02/09/2075]',-20.708,-25.397,-6.252,9.768,-9.768,-23.053,-0.781,-8.205,-47.668,1.563,0.391,-5.470,-45.324,5.470,-14.457,1.954,0.781,-5.861,7.033,0.391,-8.205,21.880,-14.457
'[16:23:55.094 02/09/2075]',-35.556,-22.662,-11.331,6.252,-51.184,-2.735,-1.563,-7.033,-47.277,5.470,-1.563,-8.596,-38.681,0.391,-9.768,-2.735,4.689,-5.861,12.112,0.391,-1.172,2.735,-9.768
'[16:23:55.098 02/09/2075]',-37.118,-35.165,1.563,5.470,-59.389,0.781,-1.563,-5.861,-8.205,-5.861,-3.516,-2.735,-10.940,-22.662,12.112,0.391,0.391,-5.861,-0.781,2.735,1.954,-13.284,12.112
'[16:23:55.102 02/09/2075]',-48.840,-41.416,12.112,6.642,-51.184,-11.331,-1.954,-5.470,14.457,-20.317,-5.861,-5.079,1.172,-19.145,3.126,-1.563,0.391,-8.987,-11.331,12.894,3.907,-6.252,3.126
'[16:23:55.105 02/09/2075]',-32.821,-42.198,17.973,8.596,-23.834,-20.317,-0.391,-1.954,17.582,-25.397,-4.298,1.563,0.000,-15.629,0.391,5.079,1.563,-9.377,-17.192,17.973,9.377,-6.252,0.391
'[16:23:55.109 02/09/2075]',-7.814,-39.072,16.801,14.457,4.298,-22.662,-0.391,3.907,6.642,-21.490,0.000,11.722,-4.689,-12.894,1.954,12.894,-0.781,-5.861,-16.020,12.112,9.768,0.391,1.954
'[16:23:55.113 02/09/2075]',-26.569,-26.178,11.722,14.847,-4.689,-26.178,1.954,3.516,-13.284,-10.159,2.344,7.814,-16.801,19.927,-24.225,8.205,-1.954,-4.298,-10.940,2.735,6.252,38.681,-24.225
'[16:23:55.117 02/09/2075]',-19.927,-23.834,5.079,13.675,-2.735,-24.225,0.391,1.954,-43.761,0.781,-0.391,-1.954,-42.979,13.675,-17.192,0.000,-2.344,-5.470,-4.298,6.252,1.172,26.178,-17.192
'[16:23:55.121 02/09/2075]',-0.781,-28.913,3.516,8.987,5.861,-20.317,-2.735,0.781,-58.999,8.596,-6.252,-11.722,-53.919,-20.317,12.112,-7.033,-3.516,-7.424,-2.735,12.112,0.000,-15.238,12.112
'[16:23:55.125 02/09/2075]',-16.020,-32.430,1.563,9.768,-7.424,-22.271,-3.516,-1.563,-60.952,8.205,-10.159,-19.145,-59.780,-27.350,14.847,-9.768,-5.079,-8.205,-0.781,13.675,-7.814,-13.675,14.847
'[16:23:55.129 02/09/2075]',-8.987,-30.867,-1.563,10.549,8.987,-32.821,-0.781,-6.252,-19.536,-5.861,-8.205,-16.801,-37.509,-26.178,14.066,-2.344,-2.344,-7.033,2.344,12.894,-11.722,-8.205,14.066
'[16:23:55.133 02/09/2075]',0.391,-22.271,-9.768,14.066,-16.020,-2.344,3.126,-0.781,-16.020,-1.172,-6.252,-3.126,-30.476,-12.503,5.470,9.377,0.391,-1.172,10.549,4.298,-5.861,-3.126,5.470
'[16:23:55.137 02/09/2075]',-23.834,-12.112,-10.549,19.927,-51.966,13.675,6.252,3.907,-10.940,-4.689,-2.735,13.284,-27.741,1.954,0.391,19.536,3.126,5.470,11.331,-7.424,-6.642,19.536,0.391
'[16:23:55.141 02/09/2075]',-53.138,-12.112,-7.033,18.364,-73.455,9.377,7.814,0.781,-5.470,4.689,0.000,14.066,-9.377,2.735,3.516,14.847,1.954,8.205,7.814,-6.252,-6.252,26.960,3.516
'[16:23:55.145 02/09/2075]',-35.556,-22.662,-1.954,14.066,-57.045,5.861,6.642,-1.563,-2.344,8.987,0.391,1.954,-0.391,-17.973,22.271,3.907,1.563,8.596,2.735,3.907,-4.298,-2.735,22.271
'[16:23:55.148 02/09/2075]',-19.927,-30.867,10.549,14.457,-10.549,-16.410,1.563,0.000,17.192,-1.172,0.391,-1.172,12.503,-28.913,25.006,4.689,0.391,8.987,-9.768,11.722,0.781,-10.940,25.006
'[16:23:55.152 02/09/2075]',-7.814,-33.993,10.549,14.847,20.708,-37.900,1.563,-1.172,14.847,-3.516,1.563,-2.344,11.722,-14.847,8.596,3.126,-4.298,10.159,-9.768,8.987,2.344,9.768,8.596
'[16:23:55.156 02/09/2075]',9.768,-27.350,7.424,11.331,28.913,-27.350,3.907,-2.735,-6.642,-3.516,3.907,-8.596,-9.768,3.516,-6.252,-3.516,-5.861,9.768,-6.642,9.377,6.642,18.755,-6.252
'[16:23:55.160 02/09/2075]',4.689,-12.112,4.689,10.549,15.629,-14.457,5.079,1.172,-51.184,-0.781,4.689,-6.252,-47.277,39.853,-42.589,-3.516,-4.689,11.331,-3.907,1.172,11.331,48.059,-42.589
'[16:23:55.164 02/09/2075]',-17.582,-10.549,1.563,11.331,-21.880,-0.391,5.861,1.172,-96.899,20.317,6.252,-3.907,-62.125,28.132,-37.900,-2.344,-4.298,14.066,-0.781,-5.079,6.642,47.277,-37.900
'[16:23:55.168 02/09/2075]',-35.556,-16.020,5.470,5.470,-46.496,5.470,7.033,-6.642,-86.740,18.755,5.079,-17.582,-58.217,-12.894,-0.781,-7.033,-2.735,12.894,-4.689,-0.391,2.735,4.689,-0.781
'[16:23:55.172 02/09/2075]',-16.801,-16.410,7.814,6.252,-18.755,0.391,4.689,-5.079,-39.853,8.596,3.516,-18.755,-29.304,-20.317,7.814,-3.907,-0.391,9.377,-7.033,-0.391,5.861,-12.894,7.814
'[16:23:55.176 02/09/2075]',-16.020,-19.927,4.689,11.722,-20.708,-0.391,4.298,-1.563,6.252,-0.781,2.735,-8.596,9.377,-33.211,16.020,5.861,-1.563,10.549,-3.907,-3.907,4.689,-17.973,16.020
'[16:23:55.180 02/09/2075]',-15.238,-10.940,0.391,7.033,-23.053,0.391,8.987,-5.079,28.913,-15.238,3.126,-8.205,10.940,-24.225,12.894,7.033,-0.391,10.940,0.391,-9.768,3.126,-11.722,12.894
'[16:23:55.184 02/09/2075]',-14.457,3.907,-8.596,8.596,-14.847,-5.861,9.377,0.781,45.714,-28.913,5.079,-2.735,16.020,-7.814,7.033,3.126,-0.391,8.987,9.377,-16.020,4.298,-3.907,7.033
'[16:23:55.188 02/09/2075]',-31.258,3.516,-7.033,8.987,-45.714,7.033,7.814,5.079,12.894,-21.880,4.298,3.907,-1.172,-2.735,-0.391,4.298,0.391,11.722,7.814,-14.847,10.940,-1.563,-0.391
'[16:23:55.191 02/09/2075]',-36.728,-8.596,7.814,4.689,-40.244,0.391,8.205,0.000,-16.410,-13.675,5.079,-1.563,-20.317,-7.814,3.126,-1.172,-0.781,12.112,-7.033,-0.781,7.814,-2.344,3.126
'[16:23:55.195 02/09/2075]',-22.662,-19.145,13.675,7.814,-5.861,-16.801,4.689,-0.781,-15.629,-15.238,8.987,-3.907,-14.847,-13.675,6.642,-3.516,0.391,9.377,-12.894,8.596,3.516,-3.516,6.642
'[16:23:55.199 02/09/2075]',-26.178,-26.569,20.317,6.642,-21.490,-6.642,3.907,-0.781,-40.635,7.814,12.894,-2.735,-17.973,-7.424,5.470,-1.172,2.344,10.940,-19.536,13.675,5.470,-3.907,5.470
'[16:23:55.203 02/09/2075]',-27.350,-26.178,16.801,8.596,-25.006,-8.596,4.298,1.172,-69.158,14.066,10.940,0.781,-43.761,10.159,-11.722,2.735,1.563,12.894,-16.020,10.940,4.298,13.675,-11.722
'[16:23:55.207 02/09/2075]',2.735,-19.927,8.596,8.987,-4.689,-3.907,6.642,2.735,-39.072,10.940,14.457,3.907,-21.490,27.741,-22.271,7.424,1.172,13.675,-7.814,5.470,0.391,28.132,-22.271
'[16:23:55.211 02/09/2075]',21.490,-15.629,4.298,8.987,0.000,7.424,5.079,5.470,-26.960,10.549,13.675,5.861,-14.847,32.430,-15.238,1.563,0.781,13.675,-3.516,5.470,3.516,21.099,-15.238
'[16:23:55.215 02/09/2075]',20.317,-12.894,3.516,6.252,0.000,10.159,2.735,3.907,-25.788,8.987,10.549,8.987,-16.801,50.012,-30.476,1.172,-3.126,13.675,-2.735,3.126,4.298,39.853,-30.476
'[16:23:55.219 02/09/2075]',0.781,-12.112,-3.907,5.470,-10.159,-1.563,0.391,1.954,1.954,1.563,3.126,5.470,5.079,16.020,-10.940,2.735,-2.735,8.205,4.689,-2.344,-3.907,17.582,-10.940
'[16:23:55.223 02/09/2075]',-19.145,-7.424,-8.205,-0.781,-25.397,-7.033,-1.954,-2.735,12.503,3.516,2.735,-3.126,12.112,-8.596,19.145,-7.424,0.391,4.298,8.987,-1.954,-3.516,-18.364,19.145
'[16:23:55.227 02/09/2075]',-48.449,-7.033,-8.205,-3.126,-57.436,-5.861,-1.563,-1.563,-8.987,5.861,0.391,0.391,-9.377,-12.894,17.192,1.954,1.563,2.735,8.987,-3.907,-5.470,-22.271,17.192
'[16:23:55.230 02/09/2075]',-45.714,-6.252,-18.364,-1.172,-46.105,-23.834,-1.954,0.000,-14.847,-1.563,-6.642,-0.781,-17.973,-21.490,5.861,8.205,0.000,0.000,19.145,-12.112,-10.159,-18.364,5.861
'[16:23:55.234 02/09/2075]',-10.159,-3.126,-16.410,-2.735,-25.397,-6.642,0.000,-1.172,-35.946,-1.172,-2.735,-3.907,-36.337,-17.192,8.205,0.391,-0.391,-0.781,17.192,-13.675,-7.814,-10.940,8.205
'[16:23:55.238 02/09/2075]',16.020,-5.470,-8.596,0.391,-3.126,6.642,-1.954,1.172,-58.999,4.689,-0.391,0.391,-47.668,0.391,-11.722,3.907,0.781,0.391,9.377,-5.079,-8.987,9.377,-11.722
'[16:23:55.242 02/09/2075]',7.424,-1.172,-15.238,3.126,-4.689,4.298,-5.470,0.781,-76.190,9.377,-3.516,1.563,-57.436,0.391,-17.973,6.252,-1.563,0.781,16.020,-14.066,-8.205,13.284,-17.973
'[16:23:55.246 02/09/2075]',0.000,-5.079,-7.814,0.391,-6.252,2.344,-4.689,-3.907,-69.939,16.020,0.391,0.781,-45.714,-7.814,-4.298,4.689,0.000,1.954,8.596,-10.549,-10.159,4.298,-4.298
'[16:23:55.250 02/09/2075]',-6.642,-11.722,2.735,-1.172,-5.079,-0.781,-5.470,-4.689,-23.834,13.675,1.172,1.563,-13.675,-1.172,2.735,4.298,3.516,0.391,-1.954,3.516,-14.457,-3.516,2.735
'[16:23:55.254 02/09/2075]',-20.708,-16.410,7.033,-1.563,-20.708,-2.735,-6.252,-2.344,23.053,-2.344,-6.252,5.079,2.344,-4.298,10.549,9.768,3.126,-0.781,-6.252,5.470,-12.503,-17.192,10.549
'[16:23:55.258 02/09/2075]',-20.708,-14.457,2.344,-1.172,-17.582,-9.377,-5.079,-1.563,26.960,-14.457,-7.424,4.298,0.391,-3.516,4.689,7.814,4.298,-4.689,-1.563,-0.391,-10.940,-10.159,4.689
'[16:23:55.262 02/09/2075]',17.973,-7.814,1.563,-7.033,23.053,-6.642,-3.126,-8.205,26.569,-14.847,-4.298,-1.172,0.000,3.907,-3.126,3.907,11.331,-8.596,-0.781,-3.516,-9.377,-1.172,-3.126
'[16:23:55.266 02/09/2075]',16.410,-1.172,-4.689,-2.344,14.847,2.344,-7.033,-2.344,14.457,-13.284,-3.516,1.172,-5.861,7.814,-8.987,3.516,10.940,-8.205,5.470,-8.596,-6.252,1.563,-8.987
'[16:23:55.270 02/09/2075]',-0.391,4.689,-13.284,-1.563,5.079,-2.735,-9.377,-2.344,-16.410,-9.768,-1.954,0.000,-25.397,29.695,-35.165,1.563,7.814,-7.424,14.066,-20.708,-6.642,32.039,-35.165
'[16:23:55.273 02/09/2075]',4.689,-2.344,-4.689,-1.172,7.033,0.391,-5.470,-5.470,-20.708,-4.689,5.861,-0.781,-28.132,14.457,-11.331,2.735,7.814,-4.689,5.470,-9.768,-11.331,12.503,-11.331
'[16:23:55.277 02/09/2075]',-7.814,-10.549,1.563,3.126,-12.112,5.470,-5.470,0.391,-0.781,-2.344,7.033,0.391,-11.331,5.079,5.079,4.298,6.252,-1.954,-0.781,1.954,-10.940,-5.861,5.079
'[16:23:55.281 02/09/2075]',-21.099,-6.252,-2.735,3.907,-24.225,1.954,-4.689,0.781,-15.629,-4.689,5.079,1.172,-23.834,1.954,1.172,6.252,0.781,0.391,3.516,-5.861,-12.112,-1.954,1.172
'[16:23:55.285 02/09/2075]',-9.377,7.033,-14.847,-0.391,-13.284,1.563,-1.954,-2.735,-39.853,1.563,5.470,-2.735,-42.979,-1.954,7.033,2.735,1.563,0.391,15.629,-19.536,-14.847,-4.298,7.033
'[16:23:55.289 02/09/2075]',-7.424,12.503,-16.020,-1.954,-12.112,3.907,-1.954,-2.735,-27.741,1.172,6.252,-0.391,-28.523,6.252,-1.172,1.954,3.126,-0.781,16.801,-19.927,-12.503,4.298,-1.172
'[16:23:55.293 02/09/2075]',-15.238,17.973,-23.443,-1.563,-12.112,-4.298,-5.470,0.391,-26.569,-7.814,1.954,6.642,-25.006,-1.954,-1.563,3.126,0.391,-3.907,24.225,-27.350,-3.516,-2.735,-1.563
'[16:23:55.297 02/09/2075]',-7.033,4.689,-17.582,-4.298,-7.424,-7.424,-5.079,-3.907,-8.596,-16.410,-1.954,5.079,-10.549,-10.549,-4.689,3.516,-1.563,-5.470,18.364,-21.099,1.172,-5.861,-4.689
'[16:23:55.301 02/09/2075]',-3.907,-16.020,2.735,-0.781,-3.907,-7.424,-3.516,-1.563,-3.907,-17.582,0.000,11.722,-5.470,-19.927,6.642,7.424,-2.735,-5.861,-1.954,3.126,2.735,-14.457,6.642
'[16:23:55.305 02/09/2075]',-2.735,-30.867,8.596,1.172,-10.549,-7.814,-7.033,3.126,-1.563,-14.847,-3.516,14.457,1.954,-29.695,9.768,11.722,-3.516,-5.079,-7.814,18.755,1.954,-31.648,9.768
'[16:23:55.309 02/09/2075]',8.205,-27.350,8.205,-0.391,-3.516,-3.516,-4.689,1.563,-4.689,-3.126,-0.781,10.940,-1.172,-18.364,8.987,11.722,-4.689,-0.781,-7.424,15.629,-9.377,-17.973,8.987
'[16:23:55.313 02/09/2075]',6.642,-13.284,1.563,-2.344,-3.516,-0.781,-3.516,0.781,-0.391,5.079,5.861,5.861,-10.549,11.331,7.033,8.596,-2.344,1.172,-0.781,5.079,-28.523,9.768,7.033
'[16:23:55.316 02/09/2075]',17.582,-11.331,-8.987,-1.563,1.954,-3.516,-6.642,3.907,1.954,2.344,3.516,10.940,-17.192,25.006,-4.298,16.020,-3.516,0.781,9.768,2.344,-29.304,10.549,-4.298
'[16:23:55.320 02/09/2075]',1.563,-17.192,-22.271,-7.033,-28.523,-7.814,-9.377,0.391,-13.284,-8.596,-1.954,3.516,-35.165,24.615,-16.801,6.252,-11.722,-0.391,23.053,-5.861,-27.350,12.894,-16.801
'[16:23:55.324 02/09/2075]',0.391,-22.271,-19.927,-10.940,-26.178,-15.629,-7.814,-2.735,-10.549,-18.364,-3.126,0.391,-47.277,35.556,-23.053,2.344,-13.675,-1.563,20.708,-5.470,-34.383,26.960,-23.053
'[16:23:55.328 02/09/2075]',16.801,-32.821,-18.755,-8.987,-22.271,-10.159,-6.642,-3.516,-46.105,-4.298,-3.126,5.079,-63.687,16.410,-11.331,8.596,-9.768,-2.344,19.536,3.126,-32.430,3.516,-11.331
'[16:23:55.332 02/09/2075]',11.722,-42.198,-14.457,-7.424,-35.556,-7.814,-7.033,-1.563,-27.741,-3.516,-3.126,7.814,-39.463,10.159,1.172,0.391,-8.987,-0.391,15.238,8.205,-30.867,-1.172,1.172
'[16:23:55.336 02/09/2075]',35.165,-35.946,-12.503,-6.642,7.814,-16.020,-9.377,-1.954,-12.112,1.172,-7.033,8.205,-25.006,7.033,7.424,-0.391,-10.940,-1.172,13.284,3.907,-30.085,0.000,7.424
'[16:23:55.340 02/09/2075]',45.714,-39.463,-10.940,-5.861,9.768,-4.298,-11.722,-4.298,-9.768,-4.298,-7.033,5.079,-27.741,14.457,-0.781,-3.126,-10.940,-5.470,11.722,10.549,-27.741,5.079,-0.781
'[16:23:55.344 02/09/2075]',31.648,-41.026,-16.020,-8.987,-4.689,-6.642,-17.192,-4.298,3.516,-14.066,-12.112,1.172,-20.708,3.126,5.079,-9.377,-14.847,-8.987,16.801,9.768,-19.145,-11.722,5.079
'[16:23:55.348 02/09/2075]',21.880,-32.039,-27.741,-16.020,-17.973,-9.377,-17.192,-7.814,-12.894,-23.834,-16.801,-7.424,-42.198,-10.549,0.000,-8.596,-21.490,-12.503,28.523,-4.298,-22.662,-14.847,0.000
'[16:23:55.352 02/09/2075]',19.145,-30.476,-28.132,-16.020,-18.755,-13.675,-12.894,-7.424,-42.198,-17.973,-12.503,-7.033,-67.204,-12.112,1.563,-3.516,-20.708,-11.331,28.913,-7.814,-28.132,-9.768,1.563
'[16:23:55.355 02/09/2075]',12.894,-25.397,-29.695,-15.629,-31.648,-8.596,-10.159,-5.079,-26.178,-5.861,-8.987,-4.298,-32.430,-18.364,2.735,1.563,-16.801,-7.424,30.476,-9.377,-21.099,-21.880,2.735
'[16:23:55.359 02/09/2075]',15.238,-25.788,-30.085,-9.768,-25.006,-14.066,-8.987,-0.781,-8.987,-8.987,-10.940,2.735,-14.066,-17.582,-1.563,5.861,-17.582,-4.298,30.867,-9.768,-20.317,-17.582,-1.563
'[16:23:55.363 02/09/2075]',16.020,-29.304,-21.099,-8.596,-18.364,-10.940,-6.252,-5.861,1.563,-13.284,-8.205,-2.735,-11.331,-4.298,-6.252,-1.172,-16.801,0.000,21.880,-2.344,-21.490,-2.735,-6.252
'[16:23:55.367 02/09/2075]',9.377,-31.648,-16.020,-9.768,-23.053,-8.596,-6.642,-9.377,10.940,-18.364,-4.298,-4.689,-8.205,3.126,-3.907,-7.814,-13.284,0.391,16.801,3.516,-18.755,-3.516,-3.907
'[16:23:55.371 02/09/2075]',18.755,-27.350,-20.317,-7.814,-23.834,-0.781,-5.470,-5.470,0.781,-19.927,-1.563,1.954,-22.662,1.563,1.172,0.000,-11.722,2.344,21.099,0.000,-23.834,-6.252,1.172
'[16:23:55.375 02/09/2075]',15.238,-24.615,-23.834,-8.205,-17.973,-8.987,-4.298,-7.814,-20.317,-21.880,-0.391,-2.735,-42.198,-3.126,0.781,-1.563,-14.457,0.391,24.615,-5.861,-26.960,-1.954,0.781
'[16:23:55.379 02/09/2075]',14.066,-28.132,-19.927,-8.596,-13.675,-12.894,-4.689,-10.159,-33.993,-12.894,1.563,-9.377,-39.072,-8.987,-2.344,-3.907,-14.066,-0.781,20.708,0.781,-30.085,-0.391,-2.344
'[16:23:55.383 02/09/2075]',21.880,-39.463,-16.410,-2.735,-15.238,-11.331,-5.079,-3.126,-21.880,-7.814,0.000,0.391,-18.755,-2.735,-15.238,8.205,-13.284,-2.735,17.192,9.768,-30.476,5.079,-15.238
'[16:23:55.387 02/09/2075]',11.722,-40.635,-16.410,-1.954,-21.099,-14.457,-8.987,-1.563,-21.099,-18.755,-5.470,-0.391,-30.476,-0.391,-17.582,2.735,-14.066,-7.033,17.192,10.549,-25.788,5.079,-17.582
'[16:23:55.391 02/09/2075]',7.424,-38.681,-14.457,-6.252,-23.053,-15.629,-6.642,-6.252,-29.304,-16.020,-5.470,-6.642,-41.026,10.940,-21.880,-5.861,-12.894,-7.033,15.238,10.159,-23.053,15.238,-21.880
'[16:23:55.395 02/09/2075]',22.271,-41.807,-14.457,-4.689,-22.662,-7.033,-5.079,-2.735,-9.768,-20.317,-1.954,1.172,-28.913,30.476,-32.430,-0.781,-11.331,-4.689,15.238,12.894,-21.880,25.006,-32.430
'[16:23:55.398 02/09/2075]',24.615,-34.774,-13.675,-5.470,-8.205,-13.284,-5.470,-0.781,3.516,-17.192,0.391,8.205,-11.722,12.894,-8.205,2.344,-12.503,-1.563,14.457,5.470,-14.457,4.298,-8.205
'[16:23:55.402 02/09/2075]',19.927,-26.569,-21.880,-8.596,-10.159,-16.410,-6.252,-2.344,-3.907,-12.894,-4.689,4.689,-14.847,-3.126,0.781,0.000,-15.238,-3.907,22.662,-3.126,-19.145,-2.344,0.781
'[16:23:55.406 02/09/2075]',21.099,-28.523,-24.615,-11.722,-14.457,-16.020,-7.424,-5.079,-2.344,-10.549,-7.033,-2.344,-8.987,-8.987,-0.781,-3.516,-15.629,-8.987,25.397,0.781,-22.271,-10.940,-0.781
'[16:23:55.410 02/09/2075]',7.814,-21.880,-32.821,-15.629,-24.225,-18.755,-12.112,-5.861,0.781,-13.675,-13.284,-2.344,-13.284,-22.662,11.722,-5.079,-13.284,-14.457,33.602,-5.470,-19.536,-30.867,11.722
'[16:23:55.414 02/09/2075]',-9.377,-8.987,-42.198,-18.364,-31.258,-21.099,-16.801,-9.377,-19.536,-13.284,-19.927,-9.768,-37.509,-22.662,5.861,-10.159,-11.331,-19.145,42.979,-16.410,-23.834,-22.271,5.861
'[16:23:55.418 02/09/2075]',-8.596,-9.768,-37.509,-25.006,-30.867,-15.629,-17.582,-17.192,-27.741,-7.814,-16.020,-23.053,-32.430,-13.675,-6.252,-22.662,-9.768,-20.317,38.291,-14.847,-20.708,-9.377,-6.252
'[16:23:55.422 02/09/2075]',11.331,-14.457,-26.178,-22.271,-8.205,-7.424,-20.317,-14.457,-20.317,-1.563,-10.940,-10.159,-17.973,-10.159,-3.126,-12.503,-3.126,-16.801,26.960,-3.516,-17.582,-10.940,-3.126
'[16:23:55.426 02/09/2075]',24.615,-21.490,-16.801,-19.536,12.112,-13.675,-21.099,-10.940,-37.118,0.391,-11.331,-7.033,-28.913,-7.033,-9.377,-9.377,-0.781,-16.410,17.582,4.298,-14.066,-7.424,-9.377
'[16:23:55.430 02/09/2075]',33.211,-36.337,-8.596,-19.536,15.238,-14.847,-17.973,-12.503,-42.979,1.563,-12.112,-12.503,-30.085,-2.735,-18.755,-12.894,-3.126,-18.755,9.377,13.284,-16.801,4.298,-18.755
'[16:23:55.434 02/09/2075]',47.277,-38.681,-4.689,-15.238,15.238,-1.954,-14.066,-10.159,-31.258,-4.298,-11.722,-7.424,-37.900,18.755,-20.317,-15.629,-2.735,-18.364,5.470,17.973,-14.457,12.503,-20.317
'[16:23:55.438 02/09/2075]',13.675,-30.867,-8.596,-18.755,-23.443,2.344,-14.066,-8.596,0.391,-15.238,-15.238,-5.861,-18.755,30.867,-31.648,-17.582,-5.079,-18.364,9.377,14.847,-15.629,18.364,-31.648
'[16:23:55.441 02/09/2075]',-5.079,-23.834,-14.847,-17.973,-42.589,3.126,-13.675,-8.596,7.424,-13.284,-16.020,-6.642,0.000,18.364,-31.648,-15.629,-8.205,-20.317,15.629,5.470,-19.536,17.973,-31.648
'[16:23:55.445 02/09/2075]',7.424,-5.861,-25.006,-22.662,-18.364,1.563,-14.066,-14.457,24.615,-14.847,-10.159,-11.331,13.284,16.020,-21.880,-20.708,-1.563,-17.973,25.788,-5.079,-26.178,14.847,-21.880
'[16:23:55.449 02/09/2075]',17.582,-8.987,-20.708,-19.536,1.563,-5.470,-17.973,-9.768,26.569,-16.020,-12.894,-1.563,19.536,-7.033,-8.596,-7.814,2.735,-19.927,21.490,4.298,-25.397,-10.549,-8.596
'[16:23:55.453 02/09/2075]',21.099,-13.675,-21.099,-17.192,14.457,-14.457,-21.880,-8.205,14.457,-17.582,-20.708,-1.563,2.344,-24.615,0.781,-5.079,3.907,-23.834,21.880,4.298,-27.350,-22.662,0.781
'[16:23:55.457 02/09/2075]',21.880,-9.768,-23.443,-16.410,35.165,-29.304,-20.317,-12.894,13.675,-23.053,-16.410,-2.344,-16.020,-21.880,12.894,-3.516,6.642,-25.397,24.225,0.781,-30.085,-21.880,12.894
'[16:23:55.461 02/09/2075]',12.503,-12.503,-20.708,-16.020,7.814,-13.675,-19.927,-10.549,-4.689,-22.271,-15.629,0.000,-31.258,-18.364,7.033,-1.954,6.252,-26.569,21.490,3.907,-21.880,-25.006,7.033
'[16:23:55.465 02/09/2075]',1.563,-9.768,-25.006,-12.894,-17.192,-2.344,-18.755,-7.814,-11.722,-14.847,-14.457,2.735,-28.132,-12.894,-1.172,3.126,3.126,-25.397,25.788,-3.907,-19.927,-14.066,-1.172
'[16:23:55.469 02/09/2075]',0.000,1.172,-30.867,-17.973,-29.695,8.596,-15.238,-10.940,-21.880,-0.781,-6.252,-0.781,-21.099,0.781,-5.861,-5.079,1.172,-19.927,31.648,-20.317,-22.271,6.252,-5.861
'[16:23:55.473 02/09/2075]',19.145,-11.331,-24.615,-15.629,-23.053,12.894,-13.675,-8.205,-28.913,5.470,-5.079,-3.516,-17.192,9.768,-16.801,-8.987,0.781,-16.410,25.397,-6.252,-22.271,10.940,-16.801
'[16:23:55.477 02/09/2075]',28.523,-20.708,-14.847,-16.410,-17.973,17.973,-12.503,-9.768,-21.099,7.424,-7.424,-7.424,-7.033,7.814,-19.145,-10.549,-0.391,-15.238,15.629,7.033,-23.053,7.424,-19.145
'[16:23:55.480 02/09/2075]',15.629,-7.814,-19.145,-15.629,-7.424,5.470,-11.722,-12.503,1.563,1.172,-7.814,-8.987,0.781,19.536,-26.569,-8.596,0.000,-12.894,19.927,-2.344,-25.397,23.834,-26.569
'[16:23:55.484 02/09/2075]',11.722,-6.642,-22.662,-14.847,17.582,-19.927,-13.284,-16.020,19.536,-13.675,-12.112,-18.364,-5.470,8.987,-19.927,-9.768,0.000,-17.192,23.443,0.391,-24.225,9.377,-19.927
'[16:23:55.488 02/09/2075]',16.801,-10.159,-16.020,-8.205,27.741,-17.192,-14.847,-12.894,39.853,-24.615,-14.457,-13.284,-3.516,-0.391,-8.205,-1.563,2.735,-19.536,16.801,9.768,-21.490,-3.126,-8.205
'[16:23:55.492 02/09/2075]',26.569,-6.252,-14.847,-1.563,33.993,-7.814,-12.894,-8.596,48.449,-21.099,-9.377,-4.689,2.344,3.126,-1.563,6.642,5.079,-16.410,15.629,1.563,-21.490,5.470,-1.563
'[16:23:55.496 02/09/2075]',16.410,-3.907,-20.708,-0.781,19.927,-9.768,-11.331,-7.033,42.589,-16.020,-7.814,-1.563,2.344,4.298,0.781,7.033,1.563,-13.675,21.490,-5.861,-20.317,7.033,0.781
'[16:23:55.500 02/09/2075]',30.476,-5.861,-21.490,-2.344,17.192,1.954,-11.722,-5.861,3.907,-5.470,-3.907,-4.298,-18.364,2.735,0.391,3.516,0.391,-12.112,22.271,-2.344,-18.755,-0.781,0.391
'[16:23:55.504 02/09/2075]',21.099,-7.424,-16.410,-3.516,1.954,5.861,-8.987,-5.079,-7.424,0.391,-3.907,-0.781,-22.271,19.927,-11.722,0.391,-1.563,-8.987,17.192,-3.126,-16.801,14.457,-11.722
'[16:23:55.508 02/09/2075]',-13.284,4.298,-30.085,-6.252,-17.973,-8.205,-9.768,-8.205,5.861,-3.516,-7.033,-4.689,-11.722,14.066,-11.722,-1.563,-7.424,-10.159,30.867,-17.973,-14.066,8.987,-11.722
'[16:23:55.512 02/09/2075]',-8.205,-0.391,-25.006,-11.331,-9.768,-10.549,-8.596,-15.629,-7.033,-7.033,-12.503,-19.536,-26.960,-9.768,0.391,-10.549,-6.252,-15.238,25.788,-11.722,-11.331,-10.159,0.391
'[16:23:55.516 02/09/2075]',14.066,-13.675,-10.940,-6.252,11.331,-7.814,-7.814,-12.894,1.954,-10.940,-17.582,-14.457,-22.662,-18.755,3.907,-5.079,-5.079,-18.755,11.722,1.954,-8.987,-16.020,3.907
'[16:23:55.520 02/09/2075]',10.549,-3.126,-16.410,-3.907,12.503,-5.861,-10.159,-8.205,11.331,-9.377,-22.662,-8.596,-11.331,-23.053,3.907,0.000,-3.907,-20.708,17.192,-6.642,-8.205,-14.066,3.907
'[16:23:55.523 02/09/2075]',20.317,-8.205,-13.284,-8.987,26.569,-10.940,-12.112,-13.675,7.033,-2.735,-20.708,-21.099,1.172,-27.741,-5.470,-5.861,-3.516,-25.397,14.066,2.735,-6.252,-17.582,-5.470
'[16:23:55.527 02/09/2075]',22.271,-19.927,0.391,-3.907,19.536,-1.172,-11.331,-8.205,18.364,-5.861,-14.457,-10.549,6.642,-13.284,-10.159,1.563,-0.781,-21.099,0.391,17.192,-5.470,-10.549,-10.159
'[16:23:55.531 02/09/2075]',1.172,-14.457,-5.861,1.172,-6.252,2.735,-8.987,-4.298,30.476,-9.768,-10.159,-5.470,16.410,-2.735,-12.112,1.563,-1.563,-14.457,6.642,8.987,-4.298,3.907,-12.112
'[16:23:55.535 02/09/2075]',4.689,-5.470,-14.457,1.172,-3.516,1.954,-5.861,-5.470,47.668,-14.457,-6.642,-9.768,22.271,9.377,-18.755,1.563,-3.516,-9.377,15.238,-4.298,-3.907,14.847,-18.755
'[16:23:55.539 02/09/2075]',12.503,-7.814,-9.768,8.205,1.563,6.252,-1.954,-1.563,39.463,-14.066,-0.781,-0.781,12.112,6.642,-4.689,6.642,-4.298,-4.298,10.549,0.000,-3.516,8.596,-4.689
'[16:23:55.543 02/09/2075]',17.973,-3.907,-12.894,10.940,10.940,3.907,-3.516,1.954,12.894,-6.642,-0.781,1.563,-5.079,15.629,-9.768,6.642,-3.907,-1.172,13.675,-1.172,-4.689,12.112,-9.768
'[16:23:55.547 02/09/2075]',25.788,-2.735,-14.847,11.722,37.900,-13.284,-4.689,0.781,0.391,3.126,0.000,2.344,2.344,4.689,-11.722,10.549,-3.126,-2.344,15.629,-5.079,-5.861,8.205,-11.722
'[16:23:55.551 02/09/2075]',0.000,-12.503,-4.298,4.298,11.331,-10.159,-6.252,-6.642,-6.252,5.470,2.735,-8.987,1.172,-4.689,-5.470,2.735,-3.907,-3.907,5.079,5.861,-4.298,-5.861,-5.470
'[16:23:55.555 02/09/2075]',-18.364,-19.536,1.563,-0.391,-21.880,0.781,-6.642,-8.596,-5.470,1.563,1.954,-12.112,-5.079,-2.735,-4.689,-0.391,0.000,-5.079,-0.781,14.847,-6.252,-12.894,-4.689
'[16:23:55.559 02/09/2075]',-23.443,-17.582,1.172,-0.391,-32.039,2.735,-3.126,-7.814,5.470,-5.079,0.781,-9.377,-0.781,-5.861,-2.735,0.391,-0.391,-3.907,-0.391,6.252,-5.861,-5.470,-2.735
'[16:23:55.563 02/09/2075]',-9.768,-5.861,1.172,-2.344,-14.847,5.079,1.563,-10.159,17.192,-10.159,5.079,-8.987,7.033,-12.112,5.861,0.781,-0.391,-2.344,-0.391,-1.563,-3.516,-6.252,5.861
'[16:23:55.566 02/09/2075]',10.159,-1.563,1.954,0.391,1.563,8.987,4.298,-4.689,16.020,-7.814,9.768,3.516,8.987,1.172,4.689,4.298,1.172,0.391,-1.172,-2.344,-0.781,1.563,4.689
'[16:23:55.570 02/09/2075]',20.317,1.172,5.470,0.781,16.410,8.987,2.344,0.391,0.391,-4.298,9.768,9.768,3.516,11.722,-7.814,6.642,-0.391,4.298,-4.689,-6.642,0.391,16.020,-7.814
'[16:23:55.574 02/09/2075]',19.927,5.079,2.344,1.172,21.490,4.298,3.126,-1.172,-39.463,5.079,16.410,10.159,-16.410,-1.172,-1.563,12.503,-3.126,7.814,-1.563,-11.722,4.298,3.516,-1.563
'[16:23:55.578 02/09/2075]',0.781,-2.344,3.907,-1.563,-4.298,6.252,2.735,-2.735,-66.422,5.470,19.145,5.079,-38.681,-8.205,0.000,11.331,-3.907,8.596,-3.126,-3.126,0.781,-6.642,0.000
'[16:23:55.582 02/09/2075]',-4.298,-7.033,4.298,0.781,-1.172,-5.861,-0.781,1.563,-70.330,5.861,13.675,5.079,-49.621,-16.410,7.424,13.284,-5.470,9.377,-3.516,0.391,-3.907,-20.708,7.424
'[16:23:55.586 02/09/2075]',6.642,-1.172,0.000,-0.391,37.509,-32.430,1.563,-1.954,-52.747,6.642,12.894,-1.563,-35.946,-22.271,18.364,5.079,-5.861,9.768,0.781,-4.298,-5.470,-23.834,18.364
'[16:23:55.590 02/09/2075]',0.391,0.000,-4.298,2.344,13.675,-20.317,5.079,0.391,-21.099,-1.172,12.112,5.470,-16.020,-15.238,16.801,9.768,-1.172,9.377,5.079,-3.126,-10.159,-19.536,16.801
'[16:23:55.594 02/09/2075]',-15.629,1.954,-6.642,0.000,-16.801,-6.642,4.298,-1.563,5.861,0.391,12.112,4.298,7.814,-9.377,19.145,4.298,-0.781,11.331,7.424,-1.172,-12.503,-21.880,19.145
'[16:23:55.598 02/09/2075]',-19.536,-6.252,3.516,0.000,-38.291,9.377,6.642,-0.781,29.695,-7.424,11.331,5.470,25.006,-10.940,23.834,0.781,-1.954,14.066,-2.735,7.033,-13.284,-14.457,23.834
'[16:23:55.602 02/09/2075]',-21.490,-15.238,7.424,2.735,-65.250,30.085,7.033,0.391,8.205,-6.252,12.503,9.377,10.159,-9.768,19.927,3.516,-1.172,15.629,-6.642,11.331,-7.033,-9.377,19.927
'[16:23:55.605 02/09/2075]',-17.973,-12.112,6.642,0.391,-50.794,21.880,3.907,0.781,1.172,-3.516,14.847,0.000,3.516,-1.954,19.145,-8.205,-0.391,14.847,-5.861,16.020,-4.298,-10.549,19.145
'[16:23:55.609 02/09/2075]',26.178,-9.377,13.284,2.344,23.834,0.781,2.344,3.516,-7.033,5.079,13.675,2.735,-0.391,16.020,3.907,-4.298,1.172,15.238,-12.503,16.801,-0.781,8.205,3.907
'[16:23:55.613 02/09/2075]',33.993,1.172,5.079,3.907,46.105,-7.814,2.344,3.516,-28.523,12.503,18.364,2.735,-18.755,16.020,5.470,3.126,4.298,16.020,-4.298,3.516,-1.172,6.642,5.470
'[16:23:55.617 02/09/2075]',6.252,8.596,-0.391,2.344,18.755,-7.033,4.298,0.781,-44.933,23.443,19.927,1.172,-25.006,17.582,0.391,7.033,5.470,16.410,1.172,0.000,-3.126,5.079,0.391
'[16:23:55.621 02/09/2075]',-2.735,10.940,0.391,0.391,0.391,1.563,4.298,1.172,-55.873,23.834,17.192,6.252,-30.085,12.503,-4.689,14.847,4.298,16.801,0.391,0.391,-6.252,0.000,-4.689
'[16:23:55.625 02/09/2075]',-0.391,-3.516,4.689,0.000,-19.145,12.112,7.033,0.000,-49.621,14.457,12.112,0.781,-26.569,-14.457,12.503,7.424,1.172,16.801,-3.907,7.033,-8.987,-19.536,12.503
'[16:23:55.629 02/09/2075]',-12.503,-12.503,3.907,0.000,-48.449,18.755,10.940,-3.126,-41.026,8.987,13.675,-5.079,-20.317,-3.126,8.596,-6.642,1.172,16.801,-3.126,12.503,-9.768,-3.126,8.596
'[16:23:55.633 02/09/2075]',3.907,-17.973,9.768,3.126,-34.774,21.099,11.722,0.781,-44.151,11.331,14.066,0.000,-19.927,3.907,4.689,-7.033,4.689,18.755,-8.987,21.880,-4.298,-1.954,4.689
'[16:23:55.637 02/09/2075]',10.940,-17.973,11.722,7.033,-22.271,16.020,10.549,6.642,-10.549,4.298,12.112,3.907,-5.079,0.391,21.880,-5.079,6.252,17.973,-10.940,15.238,-2.735,-10.159,21.880
'[16:23:55.641 02/09/2075]',-10.940,-4.689,7.033,6.252,-37.118,12.503,13.675,7.424,10.549,2.344,19.927,10.940,6.642,8.205,25.788,3.516,8.596,20.317,-6.252,2.735,-4.298,-3.516,25.788
'[16:23:55.645 02/09/2075]',-9.377,4.689,12.894,2.735,-21.490,10.549,14.457,7.424,21.099,3.516,26.178,10.549,18.755,21.490,15.238,5.470,10.549,20.317,-12.112,5.861,-7.424,6.252,15.238
'[16:23:55.648 02/09/2075]',5.861,3.516,18.755,2.735,12.112,-4.298,12.894,10.159,23.053,-3.126,26.569,13.284,13.284,19.145,18.755,8.205,9.377,20.708,-17.973,8.596,-9.768,4.689,18.755
'[16:23:55.652 02/09/2075]',13.675,6.252,15.629,3.126,13.284,3.126,13.284,9.768,-5.861,12.894,28.523,12.503,0.391,24.225,18.364,4.689,9.377,21.099,-14.847,3.907,-8.987,13.675,18.364
'[16:23:55.656 02/09/2075]',25.788,5.470,14.847,3.126,22.662,7.033,12.112,7.424,-27.741,19.927,29.695,3.126,-12.894,46.105,-0.391,-5.470,10.940,18.755,-14.066,12.112,-6.642,28.913,-0.391
'[16:23:55.660 02/09/2075]',12.112,3.907,12.503,8.987,9.768,6.642,10.940,10.940,-20.317,23.443,26.178,8.596,-10.549,38.681,11.331,-0.781,14.066,17.192,-11.722,11.722,-0.391,9.377,11.331
'[16:23:55.664 02/09/2075]',2.344,2.344,10.940,12.112,-11.331,15.238,12.894,10.549,-8.987,15.629,24.225,7.033,-8.987,15.238,28.523,4.689,14.066,16.410,-10.159,3.126,4.689,-10.159,28.523
'[16:23:55.668 02/09/2075]',-2.344,4.298,12.503,12.894,-17.582,21.099,16.410,7.033,8.987,8.596,28.132,6.252,1.954,6.252,41.026,2.735,15.238,16.020,-11.722,0.391,3.516,-8.987,41.026
'[16:23:55.672 02/09/2075]',-6.642,5.861,11.331,17.973,-20.317,19.536,17.192,11.722,16.410,3.516,26.960,9.768,6.642,8.987,34.383,7.033,15.238,16.020,-10.549,-0.781,4.689,-5.470,34.383
'[16:23:55.676 02/09/2075]',-7.424,5.079,14.066,19.145,-21.099,23.834,15.629,12.503,-3.126,5.470,29.304,8.205,-2.735,5.470,27.350,9.377,13.284,17.582,-13.284,-3.516,10.549,-1.172,27.350
'[16:23:55.680 02/09/2075]',-7.814,15.238,7.424,17.192,-14.457,20.708,16.801,8.987,-12.894,9.377,32.821,2.735,1.954,5.079,16.801,8.596,12.894,16.410,-6.642,-11.722,8.987,10.940,16.801
'[16:23:55.684 02/09/2075]',-4.298,13.284,11.722,17.192,7.033,5.861,14.457,9.377,1.172,13.284,31.258,-0.781,14.847,26.178,-5.470,9.377,16.410,13.675,-10.940,-3.516,7.424,23.834,-5.470
'[16:23:55.688 02/09/2075]',-10.549,20.317,9.377,14.847,-2.344,11.331,12.112,12.112,8.987,7.033,26.178,0.000,12.894,14.066,1.172,13.284,16.410,10.159,-8.596,-7.814,13.675,2.344,1.172
'[16:23:55.691 02/09/2075]',10.549,12.894,16.410,14.066,13.284,15.238,13.284,11.722,17.582,1.172,25.788,2.735,13.284,0.391,15.629,17.582,16.020,8.987,-15.629,-3.907,11.722,-4.689,15.629
'[16:23:55.695 02/09/2075]',5.861,0.391,26.960,18.755,12.894,11.331,14.066,11.722,16.410,5.470,24.615,9.768,6.642,20.317,7.814,21.099,16.410,7.814,-26.178,8.205,7.814,10.940,7.814
'[16:23:55.699 02/09/2075]',-1.563,0.781,23.834,20.317,1.954,11.331,12.503,15.629,-10.940,8.205,20.317,9.768,-15.629,26.960,5.470,10.549,12.503,7.424,-23.053,7.814,11.722,11.722,5.470
'[16:23:55.703 02/09/2075]',3.907,0.000,24.615,19.536,12.894,8.205,9.768,14.847,-12.503,12.503,16.410,8.987,-11.331,24.225,5.079,8.596,10.940,8.987,-23.834,5.861,11.331,12.503,5.079
'[16:23:55.707 02/09/2075]',-2.735,-2.344,26.178,17.582,6.642,11.331,10.159,8.205,-5.861,22.662,17.582,3.126,2.735,29.695,3.126,2.735,11.722,7.814,-25.397,11.331,3.126,20.708,3.126
'[16:23:55.711 02/09/2075]',-8.205,-1.563,26.178,14.457,3.907,7.424,9.377,8.596,-5.861,19.145,15.629,-1.172,1.563,25.397,0.391,0.391,13.284,7.424,-25.397,11.722,3.516,15.629,0.391
'[16:23:55.715 02/09/2075]',0.391,8.205,23.443,14.847,15.238,14.457,8.596,7.814,14.066,15.629,18.364,3.126,19.145,1.954,16.410,14.847,17.973,9.377,-22.662,1.172,6.252,-1.954,16.410
'[16:23:55.719 02/09/2075]',-9.768,17.192,17.192,13.675,-8.596,27.741,12.894,5.079,32.039,10.159,19.927,0.391,24.225,-0.781,24.225,14.457,18.755,10.549,-16.410,-9.377,4.689,-0.781,24.225
'[16:23:55.723 02/09/2075]',-26.178,22.271,17.192,16.410,-17.973,23.053,17.192,6.252,14.457,8.205,21.099,1.563,4.298,8.205,25.006,7.424,19.145,12.503,-16.410,-8.205,11.331,4.689,25.006
'[16:23:55.727 02/09/2075]',-17.192,41.026,3.907,12.894,-5.470,17.582,15.629,9.768,1.172,19.927,15.629,1.954,0.391,19.927,13.675,5.079,19.536,14.066,-3.126,-22.662,15.238,7.033,13.675
'[16:23:55.730 02/09/2075]',-12.112,40.635,6.252,8.987,1.954,17.973,15.238,6.642,19.927,13.675,10.549,2.735,4.298,29.695,9.768,2.735,14.066,14.847,-5.470,-24.225,14.066,16.020,9.768
'[16:23:55.734 02/09/2075]',-10.940,22.662,21.490,10.159,5.079,16.410,13.675,5.861,21.490,10.549,7.814,5.079,-1.954,47.277,-3.516,4.689,10.159,12.112,-20.708,-5.470,8.987,34.774,-3.516
'[16:23:55.738 02/09/2075]',14.457,17.192,25.006,5.079,37.118,7.814,8.205,8.205,27.741,9.377,6.252,12.894,11.331,42.589,-8.596,12.112,7.033,9.377,-24.225,0.000,5.861,27.741,-8.596
'[16:23:55.742 02/09/2075]',28.913,13.675,28.132,7.424,50.012,11.722,7.424,8.205,41.807,1.954,8.987,20.317,19.536,12.894,23.053,17.192,1.563,8.596,-27.350,-1.172,2.735,7.814,23.053
'[16:23:55.746 02/09/2075]',22.662,7.033,30.867,9.768,39.072,12.894,10.940,6.642,39.853,2.735,13.675,16.801,25.788,13.675,20.317,13.675,0.000,7.814,-30.085,1.172,1.172,17.192,20.317
'[16:23:55.750 02/09/2075]',3.907,12.112,24.615,10.549,14.847,11.722,12.112,10.549,18.755,6.642,12.503,14.457,11.722,14.847,17.192,8.987,1.954,8.205,-23.834,-1.563,3.907,12.894,17.192
'[16:23:55.754 02/09/2075]',-17.582,12.112,21.099,10.940,5.470,-2.344,12.112,10.940,-4.689,7.814,8.987,6.252,-14.457,11.331,19.145,2.735,4.298,7.424,-20.317,-1.954,5.861,7.814,19.145
'[16:23:55.758 02/09/2075]',-21.490,7.033,19.145,15.238,-8.987,5.079,13.675,9.768,-1.172,3.516,6.642,-1.954,-17.582,26.569,-1.954,0.391,3.516,5.470,-18.364,-0.781,6.642,28.132,-1.954
'[16:23:55.762 02/09/2075]',-36.337,16.801,11.331,8.596,-28.523,11.331,14.457,3.907,26.960,3.516,4.689,-10.940,11.331,21.880,-4.689,-3.126,4.298,1.563,-10.549,-5.079,6.642,23.443,-4.689
'[16:23:55.766 02/09/2075]',-24.225,24.615,0.781,10.159,-9.768,3.516,12.503,4.689,18.364,7.814,4.298,-7.424,5.470,7.033,14.066,-3.126,1.563,0.391,0.000,-15.629,6.642,8.205,14.066
'[16:23:55.770 02/09/2075]',-0.391,24.225,0.391,10.549,15.238,2.344,10.159,5.470,32.821,6.252,-0.781,-2.344,14.457,2.344,21.099,-1.954,0.391,0.000,0.391,-21.880,9.768,3.907,21.099
'[16:23:55.773 02/09/2075]',0.391,32.039,-1.563,7.424,24.615,-0.391,9.377,2.735,44.542,-2.735,-1.954,-0.391,16.410,0.391,18.364,2.735,0.391,-1.563,2.344,-25.006,7.814,0.391,18.364
'[16:23:55.777 02/09/2075]',2.735,21.880,7.424,5.470,37.900,-10.940,6.252,3.907,33.211,-5.079,-2.735,3.907,3.907,3.126,12.894,8.596,1.172,-1.563,-6.642,-10.549,1.172,0.000,12.894
'[16:23:55.781 02/09/2075]',7.424,6.642,14.457,5.470,48.840,-17.192,0.391,3.126,19.536,-1.172,-8.205,4.298,-0.781,3.126,-1.172,12.894,0.000,-3.907,-13.675,0.781,-2.735,5.079,-1.172
'[16:23:55.785 02/09/2075]',6.642,9.768,12.112,1.172,28.523,7.424,0.391,-4.689,14.457,6.642,-6.252,-3.516,7.814,10.940,-15.238,7.424,0.000,-6.252,-11.331,-1.954,-0.781,20.708,-15.238
'[16:23:55.789 02/09/2075]',-11.331,12.894,8.205,0.391,-6.252,21.880,0.391,-5.079,12.503,0.000,-3.516,-2.735,7.033,12.112,-19.927,5.861,1.563,-8.596,-7.424,-2.344,0.781,23.443,-19.927
'[16:23:55.793 02/09/2075]',-25.006,2.735,9.377,1.172,-18.364,14.457,-2.735,-3.126,-5.861,8.596,-6.252,-3.126,3.126,4.298,-14.066,0.391,2.344,-10.940,-8.596,-1.172,10.159,13.284,-14.066
'[16:23:55.797 02/09/2075]',-26.178,5.861,14.066,0.391,-7.424,11.331,-1.563,-8.205,-3.907,6.252,-2.344,-7.424,1.172,4.689,-11.722,-0.781,4.298,-10.549,-13.284,-5.079,12.894,21.099,-11.722
'[16:23:55.801 02/09/2075]',-22.662,9.377,17.973,4.689,5.861,8.987,0.391,-5.470,30.085,-8.987,-1.563,-1.954,11.722,1.563,-4.298,7.424,5.470,-10.940,-17.192,-5.079,7.033,20.708,-4.298
'[16:23:55.805 02/09/2075]',-7.814,6.252,21.490,6.252,32.821,0.391,-3.516,-2.344,20.317,4.298,-5.079,-0.391,9.768,11.331,-16.801,15.629,5.861,-10.549,-20.708,-1.172,7.033,21.490,-16.801
'[16:23:55.809 02/09/2075]',25.397,18.364,8.596,5.861,74.237,-1.954,-4.298,-6.642,18.755,15.238,-13.675,-1.954,4.689,-3.516,-2.735,21.099,5.861,-11.722,-7.814,-16.020,0.781,4.689,-2.735
'[16:23:55.813 02/09/2075]',20.708,26.178,-1.954,4.689,58.217,5.079,-3.516,-8.987,19.536,5.470,-15.629,-5.079,-4.689,-0.781,-2.344,13.675,5.861,-13.675,2.735,-26.960,0.781,8.205,-2.344
'[16:23:55.816 02/09/2075]',-1.172,17.973,-4.689,3.907,24.225,3.907,-5.470,-5.079,13.284,3.907,-18.364,-3.907,-1.563,2.344,-18.755,13.284,4.298,-16.410,5.470,-18.755,3.516,4.298,-18.755
'[16:23:55.820 02/09/2075]',-12.112,18.364,-10.549,0.000,14.847,-3.516,-8.205,-5.861,-8.205,1.172,-16.020,-3.516,-17.582,-10.549,-6.642,8.596,2.735,-16.410,11.331,-22.662,1.954,-9.377,-6.642
'[16:23:55.824 02/09/2075]',-12.112,17.192,-6.252,-5.470,1.172,6.642,-4.689,-10.159,-2.735,-8.596,-7.424,-8.987,-17.973,-17.192,4.689,1.172,1.172,-15.629,7.033,-22.271,0.391,-10.549,4.689
'[16:23:55.828 02/09/2075]',-10.549,7.424,0.391,-5.079,0.000,5.861,-3.126,-9.377,31.258,-14.847,-3.907,-5.861,10.159,-14.847,4.689,4.689,0.781,-14.847,0.391,-10.159,-0.781,-10.549,4.689
'[16:23:55.832 02/09/2075]',0.781,3.907,6.642,-6.642,15.238,8.205,-7.424,-9.768,38.291,-10.159,-6.252,-6.642,22.271,-17.973,3.126,6.642,1.563,-15.238,-5.861,-5.079,0.391,-15.238,3.126
'[16:23:55.836 02/09/2075]',-3.126,1.563,7.814,-5.470,4.298,14.066,-8.987,-9.377,48.059,-8.596,-8.987,-7.424,29.695,-9.377,0.000,1.954,2.344,-14.847,-7.033,-7.424,2.735,-1.172,0.000
'[16:23:55.840 02/09/2075]',-16.020,-4.689,5.470,-5.470,-1.954,1.172,-11.722,-8.205,39.853,-8.987,-12.894,-13.284,26.178,-2.344,-16.801,-2.735,1.563,-17.973,-4.689,0.781,0.781,6.252,-16.801
'[16:23:55.844 02/09/2075]',14.066,0.391,0.781,-8.596,38.681,-7.814,-15.238,-8.596,1.172,2.344,-12.894,-16.410,-1.172,16.020,-35.556,-4.689,1.954,-19.145,0.000,0.391,0.391,16.410,-35.556
'[16:23:55.848 02/09/2075]',19.145,11.331,-16.020,-8.987,48.840,-18.755,-13.284,-9.768,-27.741,4.298,-12.112,-14.847,-26.569,-0.781,-20.317,-2.735,1.172,-19.145,16.801,-16.801,-4.298,7.814,-20.317
'[16:23:55.852 02/09/2075]',23.443,15.238,-21.490,-10.159,60.171,-29.304,-10.549,-12.112,-12.503,1.563,-15.238,-15.238,-25.397,-8.205,-8.205,0.391,2.344,-17.973,22.271,-21.099,-12.503,-0.781,-8.205
'[16:23:55.855 02/09/2075]',17.582,17.582,-16.801,-4.689,32.430,-2.344,-7.033,-7.814,23.834,-3.907,-11.331,-3.907,0.000,-23.834,13.284,14.066,9.377,-14.066,17.582,-14.457,-12.894,-24.225,13.284
'[16:23:55.859 02/09/2075]',-5.079,5.861,-10.159,-0.391,-20.317,17.582,-5.470,-1.172,21.490,-1.563,-12.112,2.735,1.954,-37.900,27.741,17.582,8.987,-11.331,10.940,-7.033,-20.317,-32.430,27.741
'[16:23:55.863 02/09/2075]',-21.880,-2.344,1.172,2.344,-42.198,22.662,-1.172,0.781,2.735,8.205,-3.516,7.424,0.391,-32.821,27.350,20.317,9.377,-2.735,-0.391,0.391,-22.662,-17.582,27.350
'[16:23:55.867 02/09/2075]',-16.410,2.735,9.768,5.470,-23.053,17.582,1.563,5.470,1.954,15.629,3.907,13.675,1.954,-16.410,25.397,25.788,11.722,0.391,-8.987,3.516,-21.490,-6.252,25.397
'[16:23:55.871 02/09/2075]',6.252,15.238,7.814,4.689,11.722,14.066,0.391,8.987,6.642,21.490,5.079,16.801,9.768,-7.424,26.178,23.053,12.112,0.391,-7.033,-3.126,-15.629,-3.516,26.178
'[16:23:55.875 02/09/2075]',15.238,19.536,-3.907,0.781,30.085,-0.391,0.000,3.516,30.867,17.973,0.781,9.377,33.602,-3.516,15.238,14.066,8.596,0.391,4.689,-12.894,-9.377,1.172,15.238
'[16:23:55.879 02/09/2075]',21.099,5.861,-5.470,-2.735,30.085,-6.642,-1.954,-1.563,39.072,4.298,-3.516,1.172,31.648,5.079,2.344,2.735,8.596,-1.954,6.252,-1.954,-7.033,5.470,2.344
'[16:23:55.883 02/09/2075]',29.304,-8.596,-5.861,-7.814,15.238,-1.172,-4.689,-1.172,20.708,-0.781,-7.424,-4.689,13.675,6.642,-5.861,-7.033,4.689,-3.126,6.642,8.205,-5.861,0.000,-5.861
'[16:23:55.887 02/09/2075]',18.755,-25.397,-4.689,-10.940,-15.238,0.391,-5.470,-1.563,-30.085,7.033,-11.331,-7.814,-17.973,0.781,-15.238,-9.768,0.000,-1.172,5.470,16.410,-9.768,-1.954,-15.238
'[16:23:55.891 02/09/2075]',17.192,-27.350,2.735,-10.159,-0.391,-11.722,-0.391,-3.907,-50.794,12.503,-4.298,-7.814,-32.430,17.192,-28.913,-6.642,-2.344,1.172,-1.954,22.271,-11.331,17.192,-28.913
'[16:23:55.895 02/09/2075]',17.582,3.126,8.205,-8.596,19.536,1.954,3.126,-3.126,0.391,6.252,3.516,-8.596,-1.954,28.913,-18.364,-5.470,5.079,2.344,-7.424,11.331,-2.344,17.582,-18.364
'[16:23:55.898 02/09/2075]',-5.861,25.788,1.954,-4.298,6.642,8.205,1.563,0.781,39.072,4.689,3.907,0.391,32.821,15.238,0.000,0.391,8.987,3.907,-1.172,-1.563,4.298,3.907,0.000
'[16:23:55.902 02/09/2075]',-23.834,29.304,-8.596,-1.172,-8.205,3.907,1.172,-0.391,63.297,-5.861,3.516,0.000,52.747,23.053,-10.940,-3.126,8.596,1.172,9.377,-7.814,7.814,18.364,-10.940
'[16:23:55.906 02/09/2075]',-15.238,44.542,-18.364,-4.298,0.000,5.861,1.954,-1.563,60.562,-12.112,7.033,-1.563,53.919,20.317,-9.768,-9.768,8.987,1.172,19.145,-9.377,8.987,12.503,-9.768
'[16:23:55.910 02/09/2075]',-17.973,40.635,-16.410,-5.079,-14.847,8.987,0.781,4.298,-2.344,6.642,2.735,3.126,25.788,-8.987,4.298,-9.377,6.252,0.781,17.192,-0.781,17.192,-21.099,4.298
'[16:23:55.914 02/09/2075]',-8.987,27.350,0.391,-4.689,-4.298,9.377,4.298,3.516,-28.523,16.801,0.000,-1.563,26.569,-32.821,4.689,-11.331,1.172,0.781,0.391,16.020,25.006,-35.556,4.689
'[16:23:55.918 02/09/2075]',2.344,32.821,8.596,-6.642,20.708,6.642,7.033,1.563,-2.735,14.847,0.000,-1.954,47.668,-35.946,8.205,-9.768,1.954,2.344,-7.814,19.536,26.569,-38.681,8.205
'[16:23:55.922 02/09/2075]',1.563,33.993,12.112,-3.907,26.178,3.126,7.033,6.252,15.238,6.642,0.391,4.689,55.092,-34.383,12.503,-4.689,6.252,1.954,-11.331,19.536,33.993,-46.886,12.503
'[16:23:55.926 02/09/2075]',-6.252,38.681,8.987,-3.907,17.973,4.298,7.424,6.642,44.151,-4.689,1.172,8.205,69.158,-19.145,7.814,-8.205,6.642,3.126,-8.205,14.847,29.304,-30.085,7.814
'[16:23:55.930 02/09/2075]',3.907,53.138,-4.298,-3.907,42.198,-8.205,10.159,4.298,38.681,-10.940,11.331,14.847,58.608,-7.424,7.424,-3.516,6.642,7.424,5.079,-2.344,23.053,-10.549,7.424
'[16:23:55.934 02/09/2075]',3.126,47.668,-2.344,-2.344,16.410,9.377,12.112,6.642,4.298,-3.516,16.801,17.582,38.291,-7.033,12.112,-6.252,8.596,10.159,3.126,3.907,28.523,-17.973,12.112
'[16:23:55.938 02/09/2075]',-12.112,37.900,3.907,0.781,-10.549,17.192,11.331,12.112,-40.244,12.112,18.364,16.020,19.145,-10.940,9.768,-10.159,9.768,13.675,-3.126,8.987,36.337,-20.317,9.768
'[16:23:55.941 02/09/2075]',-34.774,28.132,8.596,1.954,-35.556,17.192,11.722,10.549,-49.231,19.927,14.457,7.424,25.788,-16.410,-4.689,-9.768,7.814,14.066,-7.814,16.020,33.602,-12.503,-4.689
'[16:23:55.945 02/09/2075]',-35.946,22.271,7.033,3.907,-50.403,23.834,14.457,9.377,-19.927,16.410,12.112,-1.563,42.589,-4.689,-16.020,-12.894,12.894,12.894,-6.252,17.973,28.913,-2.735,-16.020
'[16:23:55.949 02/09/2075]',-9.768,14.847,16.020,9.768,-16.020,19.927,14.457,12.894,19.536,-0.391,10.549,0.391,55.482,19.536,-33.211,-10.549,12.503,14.066,-15.238,26.569,26.960,16.410,-33.211
'[16:23:55.953 02/09/2075]',3.907,16.020,17.192,13.675,21.099,3.907,11.722,13.675,42.198,-3.516,9.377,6.642,68.767,18.755,-25.006,-6.642,9.377,14.847,-16.410,26.960,22.662,15.238,-25.006
'[16:23:55.957 02/09/2075]',20.317,23.053,12.503,14.847,42.589,5.470,13.284,9.768,39.853,-1.563,15.629,16.020,63.687,4.298,0.000,1.954,10.159,15.629,-11.722,19.927,26.960,-2.344,0.000
'[16:23:55.961 02/09/2075]',25.788,23.834,11.722,15.629,50.012,5.079,11.331,10.940,10.159,10.940,17.973,21.880,49.231,-0.391,11.722,1.954,6.252,15.238,-10.940,18.364,34.774,-12.112,11.722
'[16:23:55.965 02/09/2075]',-11.331,26.569,8.987,9.377,27.350,-9.377,5.470,10.159,9.768,14.457,13.284,19.145,49.231,-13.675,21.880,0.781,2.735,12.894,-8.205,12.503,35.946,-29.304,21.880
'[16:23:55.969 02/09/2075]',-31.258,29.304,-0.781,2.735,-11.722,2.344,4.298,4.689,-1.172,10.940,3.516,7.814,35.946,-10.549,3.126,-5.079,1.172,7.033,1.563,2.735,34.383,-15.629,3.126
'[16:23:55.973 02/09/2075]',-19.927,19.145,-0.391,0.000,-19.536,8.596,5.079,2.735,-8.987,0.781,1.954,-1.954,20.708,-10.940,-3.126,-14.457,0.781,4.298,1.172,9.377,29.695,-15.629,-3.126
'[16:23:55.977 02/09/2075]',-12.894,10.159,12.112,-6.252,-19.927,12.503,5.861,3.516,-3.516,-10.940,1.954,-7.814,16.410,-22.662,2.735,-17.192,2.735,3.516,-11.331,19.145,23.443,-28.523,2.735
'[16:23:55.980 02/09/2075]',-8.205,14.847,3.907,0.000,-15.629,10.159,7.033,8.205,-20.708,-7.033,1.954,-2.735,9.768,-33.993,3.907,-9.377,3.907,5.470,-3.126,8.987,20.708,-27.350,3.907
'[16:23:55.984 02/09/2075]',1.172,31.648,-4.689,-0.391,2.344,6.252,12.503,4.689,-17.973,2.735,11.331,-3.907,14.457,-32.821,23.053,-12.894,4.689,8.596,5.470,-6.252,21.490,-26.960,23.053
'[16:23:55.988 02/09/2075]',-15.238,23.053,4.298,5.470,-9.768,3.907,12.503,10.549,-13.675,10.549,10.940,3.907,14.066,-23.834,26.178,-2.735,4.689,9.768,-3.516,4.689,25.397,-32.430,26.178
'[16:23:55.992 02/09/2075]',-24.615,21.880,1.954,13.284,-16.801,6.252,10.940,12.112,12.112,8.987,6.252,7.814,31.258,-11.722,16.410,1.172,3.907,8.596,-1.172,5.861,25.397,-17.582,16.410
'[16:23:55.996 02/09/2075]',-12.503,9.377,4.689,13.284,9.377,-10.159,12.112,4.298,15.238,7.424,3.516,-0.781,28.523,3.516,3.516,-8.596,3.126,3.907,-3.907,11.722,26.960,1.563,3.516
'[16:23:56.000 02/09/2075]',-17.973,-0.391,12.503,11.722,-16.410,9.377,9.377,2.735,25.788,0.391,0.391,-1.172,33.211,13.284,-12.112,-9.377,5.470,0.391,-11.722,22.662,29.695,6.252,-12.112
'[16:23:56.004 02/09/2075]',-19.145,-1.172,8.596,6.642,-19.536,7.814,3.516,1.954,30.085,-7.424,-3.907,-3.126,39.072,23.443,-33.993,-12.503,3.516,-3.907,-7.814,19.927,26.569,18.755,-33.993
'[16:23:56.008 02/09/2075]',-19.145,7.033,-2.344,-2.344,-9.768,-3.907,1.172,-4.298,-9.768,-4.689,-7.033,-13.675,12.503,10.159,-36.337,-22.662,0.000,-6.252,3.126,6.642,27.350,12.503,-36.337
'[16:23:56.012 02/09/2075]',-24.225,14.457,-9.768,-11.722,-30.476,8.596,0.391,-9.768,-34.774,3.907,-8.987,-20.317,1.172,1.954,-39.463,-24.615,-5.079,-7.814,10.549,3.516,25.397,2.344,-39.463
'[16:23:56.016 02/09/2075]',-12.503,3.126,-0.781,-11.722,-8.596,-3.907,-2.735,-5.079,-33.993,-4.298,-9.377,-15.629,-3.126,-7.814,-25.006,-26.569,-5.470,-8.205,1.563,16.410,23.443,-9.377,-25.006
'[16:23:56.020 02/09/2075]',-4.689,3.907,1.563,-8.205,6.252,-8.987,-2.735,-1.954,-61.734,4.689,-8.987,-5.861,-23.834,-26.569,0.391,-21.490,-4.689,-5.861,-0.781,11.331,23.834,-19.145,0.391
'[16:23:56.023 02/09/2075]',-2.344,4.689,0.781,-8.596,4.298,-5.470,0.000,-3.516,-35.165,9.768,-1.954,-7.814,3.907,-22.271,6.252,-23.443,-1.954,-5.861,0.000,10.549,25.006,-16.801,6.252
'[16:23:56.027 02/09/2075]',-16.020,7.424,-2.344,-5.861,-6.252,-12.894,0.391,0.781,0.391,2.344,-1.172,-0.781,27.350,-12.894,3.907,-17.582,3.907,-5.861,3.126,5.470,23.443,-10.940,3.907
'[16:23:56.031 02/09/2075]',-26.569,11.722,-7.814,-3.907,-33.993,3.907,1.563,0.000,4.298,0.391,0.000,-3.126,26.178,-14.847,7.424,-17.582,3.907,-3.516,8.596,-3.907,21.880,-10.549,7.424
'[16:23:56.035 02/09/2075]',-31.648,18.364,-15.238,-5.861,-46.496,11.331,3.907,-4.298,18.755,-0.391,0.391,-12.503,31.258,-4.689,3.126,-23.834,2.735,-3.126,16.020,-12.503,21.880,-5.470,3.126
'[16:23:56.039 02/09/2075]',-17.582,12.503,-3.907,-5.861,-34.383,19.145,3.907,-4.298,33.602,-3.907,-0.391,-15.629,35.165,8.205,-6.642,-23.053,5.079,-3.126,4.689,1.563,14.457,2.344,-6.642
'[16:23:56.043 02/09/2075]',-15.238,-1.563,9.768,-3.516,-31.258,21.099,0.391,-1.563,15.238,-7.424,-4.298,-14.066,12.894,4.689,-6.642,-21.490,5.861,-3.907,-8.987,16.801,18.364,-6.642,-6.642
'[16:23:56.047 02/09/2075]',0.391,-1.954,10.940,-3.126,-4.298,15.629,-2.344,-2.735,-3.516,-1.563,-4.689,-13.284,2.735,4.689,-14.457,-16.801,2.735,-5.079,-10.159,15.238,15.629,2.735,-14.457
'[16:23:56.051 02/09/2075]',8.987,-0.391,8.987,-5.861,13.675,8.596,-4.298,-5.079,-12.894,5.470,-3.516,-13.284,5.079,4.689,-14.457,-18.755,1.954,-7.814,-8.205,14.847,16.410,2.735,-14.457
'[16:23:56.055 02/09/2075]',6.642,-2.344,9.377,-4.689,18.755,0.000,-6.642,-3.126,-10.159,1.954,-7.814,-5.079,5.470,15.238,-31.648,-10.940,1.563,-8.596,-8.596,14.066,19.927,12.894,-31.648
'[16:23:56.059 02/09/2075]',0.391,0.391,-0.391,-1.954,10.549,-2.735,-7.424,-1.954,-11.722,0.000,-8.596,-1.172,9.377,-8.987,-17.192,-5.470,-1.954,-7.033,1.172,2.735,17.192,1.954,-17.192
'[16:23:56.063 02/09/2075]',-17.192,6.642,-5.079,-3.126,-7.814,-1.954,-2.735,-5.470,-7.424,3.907,-6.642,-2.735,17.582,-25.397,-3.516,-2.344,-3.516,-3.516,5.861,-7.424,15.238,-5.861,-3.516
'[16:23:56.066 02/09/2075]',-23.053,-1.172,0.391,-0.781,-26.569,7.033,-0.781,-3.907,9.768,-1.172,-7.033,-6.642,28.132,-26.569,-4.689,-1.954,-2.735,-1.563,0.391,1.172,14.457,-11.331,-4.689
'[16:23:56.070 02/09/2075]',-26.178,-4.298,-3.907,7.814,-35.946,8.596,-2.344,2.344,0.000,-10.940,-10.159,-0.781,11.722,-28.523,-14.457,8.205,-3.907,-1.563,4.689,0.000,14.847,-11.331,-14.457
'[16:23:56.074 02/09/2075]',-14.066,1.172,-0.391,8.596,-11.722,8.987,0.391,-2.344,3.516,-3.516,-1.954,-5.470,8.987,-19.927,-3.907,6.642,-2.735,-1.172,1.172,-1.954,12.503,-7.033,-3.907
'[16:23:56.078 02/09/2075]',11.722,0.000,0.000,8.987,10.159,12.112,2.735,-4.298,10.940,-6.642,1.954,-8.596,3.516,-8.205,-1.563,4.689,1.172,-2.735,0.781,-0.391,10.940,-5.861,-1.563
'[16:23:56.082 02/09/2075]',7.033,-1.954,0.781,10.159,7.424,8.596,0.391,-0.391,-10.549,-2.344,-1.172,-1.172,-20.708,-5.470,-4.298,14.066,3.516,-3.126,0.000,0.781,8.596,-9.768,-4.298
'[16:23:56.086 02/09/2075]',-10.940,5.470,-1.172,6.252,-13.284,14.847,0.781,-1.954,-25.788,1.954,-0.781,2.344,-32.039,-11.722,5.861,15.629,2.344,-2.344,1.954,-13.675,7.814,-7.814,5.861
'[16:23:56.090 02/09/2075]',-16.801,3.907,-4.298,2.344,-26.569,12.894,1.954,-2.735,-11.331,7.814,2.735,-2.735,-5.861,-10.940,6.252,6.642,1.563,-2.735,5.079,-15.629,6.252,-7.033,6.252
'[16:23:56.094 02/09/2075]',-9.768,-0.781,0.000,4.298,0.781,-3.516,-2.344,0.391,-2.735,5.861,-2.344,3.126,2.735,-0.781,-7.033,9.377,1.172,-5.470,0.781,-8.205,10.940,0.391,-7.033
'[16:23:56.098 02/09/2075]',-0.391,-1.954,1.563,1.563,14.847,-6.252,-3.907,-1.563,1.172,0.781,-7.424,1.563,1.172,-6.642,-6.252,8.596,-1.954,-8.205,-0.781,-7.424,9.768,2.735,-6.252
'[16:23:56.102 02/09/2075]',-1.563,-8.596,10.549,3.126,21.099,-11.722,-3.126,-1.172,35.165,-3.516,-6.252,5.079,25.788,-10.159,4.298,9.768,-2.735,-7.424,-9.768,-0.781,7.033,6.252,4.298
'[16:23:56.105 02/09/2075]',6.252,-10.940,12.112,1.563,21.490,-4.689,-5.861,-1.172,50.012,-16.801,-9.768,0.391,28.132,-14.457,-3.516,12.503,-1.172,-10.159,-11.331,8.205,6.252,-3.126,-3.516
'[16:23:56.109 02/09/2075]',-6.252,-11.722,13.675,-3.516,-6.642,8.205,-5.861,-3.126,20.317,-14.847,-10.549,-8.987,6.252,-7.814,-16.020,2.344,-2.735,-10.549,-12.894,10.940,5.861,2.735,-16.020
'[16:23:56.113 02/09/2075]',-46.886,-14.066,12.894,3.126,-41.026,-1.954,-2.344,1.563,-5.470,-8.596,1.172,-5.079,-1.563,10.159,-29.304,2.735,-3.516,-5.861,-12.112,5.079,3.907,33.602,-29.304
'[16:23:56.117 02/09/2075]',-35.165,-12.112,8.987,1.172,-19.145,-10.940,-3.126,-1.172,-28.523,1.172,5.861,-16.410,-13.675,0.000,-17.192,-5.470,-3.126,-7.424,-8.205,5.861,3.907,15.238,-17.192
'[16:23:56.121 02/09/2075]',-28.523,-12.503,3.126,2.344,-10.159,-18.364,-3.907,-1.954,-51.575,14.066,3.516,-17.192,-32.039,13.284,-18.755,-11.722,-4.298,-8.205,-2.344,5.470,5.861,16.020,-18.755
'[16:23:56.125 02/09/2075]',-17.973,-10.549,2.344,5.470,13.675,-30.476,-0.391,-1.954,-41.416,9.377,5.079,-8.987,-37.118,-12.503,14.457,-0.781,-3.907,-4.689,-1.563,0.391,-0.391,-6.252,14.457
'[16:23:56.129 02/09/2075]',5.079,-8.987,-0.391,5.470,10.549,-6.252,0.391,-2.735,-5.079,-0.391,3.516,-5.861,-16.801,-24.225,26.960,5.470,-1.172,-3.516,1.172,-1.563,-6.252,-19.536,26.960
'[16:23:56.133 02/09/2075]',14.847,-12.894,0.000,7.424,5.079,2.344,1.172,0.391,8.205,-4.298,0.000,-3.126,-6.642,-16.020,17.192,4.689,0.000,-2.344,0.781,5.861,-6.252,-17.973,17.192
'[16:23:56.137 02/09/2075]',-8.987,-13.675,3.907,7.814,-16.410,-0.781,2.344,3.907,4.689,-9.377,-2.735,2.344,-8.596,-11.331,10.940,3.907,0.391,0.391,-3.126,4.689,-3.126,-8.205,10.940
'[16:23:56.141 02/09/2075]',-14.066,-5.861,-1.954,10.159,-25.788,3.907,3.126,6.252,-0.781,-2.344,-1.563,7.033,4.298,-15.238,8.596,3.907,0.000,0.391,2.735,-0.781,-0.391,-3.126,8.596
'[16:23:56.145 02/09/2075]',-7.424,2.344,-7.424,3.126,-16.801,1.172,4.298,1.563,0.000,-2.735,-2.344,-2.344,7.814,-3.516,-4.689,-7.033,0.000,-0.781,8.205,-3.907,2.735,1.954,-4.689
'[16:23:56.148 02/09/2075]',-17.192,7.814,-9.768,1.563,-12.894,-9.768,2.344,1.954,0.000,-8.596,-3.126,1.172,7.424,1.954,-15.238,-3.907,-2.344,0.781,10.549,-11.331,2.735,13.284,-15.238
'[16:23:56.152 02/09/2075]',-6.252,-0.391,-3.126,0.781,-9.768,-1.172,2.344,0.000,-11.331,-7.814,0.391,3.516,-5.079,3.907,-13.284,0.000,-3.126,3.126,3.907,-6.252,-4.298,19.927,-13.284
'[16:23:56.156 02/09/2075]',3.516,-10.159,5.470,0.391,-3.126,1.954,3.516,-2.344,-26.178,-3.907,7.814,3.126,-18.755,20.317,-26.960,6.252,-0.781,6.252,-4.689,5.470,-9.768,28.913,-26.960
'[16:23:56.160 02/09/2075]',-7.814,-17.582,10.159,3.516,7.424,-19.927,1.172,0.000,-38.291,3.907,7.424,5.079,-27.741,27.350,-27.741,7.424,-0.391,8.987,-9.377,12.503,-10.940,29.695,-27.741
'[16:23:56.164 02/09/2075]',1.954,-11.331,6.642,5.079,-1.563,3.516,1.954,-0.781,-42.979,15.238,9.377,7.814,-26.960,2.735,3.907,10.940,-2.735,12.112,-5.861,3.516,-10.549,2.735,3.907
'[16:23:56.168 02/09/2075]',10.159,-1.172,-1.172,2.344,3.126,5.470,4.689,-4.298,-32.430,17.973,11.722,3.516,-16.020,-16.801,26.178,8.596,-1.954,12.503,1.954,-7.033,-11.331,-16.020,26.178
'[16:23:56.172 02/09/2075]',-11.331,-1.954,0.781,1.172,-23.443,10.159,1.954,-0.391,-9.377,11.331,5.861,6.252,-3.907,-21.099,26.569,13.675,-3.126,12.503,0.000,-5.079,-9.377,-25.397,26.569
'[16:23:56.176 02/09/2075]',-15.238,-5.861,3.516,0.781,-37.118,19.536,0.391,0.391,4.689,3.516,4.298,8.987,5.861,-28.913,28.523,17.192,-1.954,13.675,-2.735,-5.470,-7.814,-30.867,28.523
'[16:23:56.180 02/09/2075]',-14.066,-4.298,1.954,-2.344,-31.258,12.503,2.344,-2.344,-3.907,1.954,3.516,7.033,-1.954,-17.192,15.629,12.112,-2.344,12.894,-1.172,-5.470,-15.629,-9.377,15.629
'[16:23:56.184 02/09/2075]',-11.331,-10.159,9.377,-4.689,-9.768,-3.907,-1.172,-1.172,-1.172,-2.344,1.563,5.470,-0.391,-3.516,0.000,7.424,-3.516,10.940,-8.596,4.689,-13.284,0.391,0.000
'[16:23:56.188 02/09/2075]',14.457,-10.940,11.722,-1.563,39.463,-23.443,-0.781,0.000,-19.145,0.000,2.735,12.894,-15.629,21.099,-12.894,3.907,-3.126,10.549,-10.940,7.814,-8.987,19.927,-12.894
'[16:23:56.191 02/09/2075]',14.066,-4.689,10.159,-2.344,28.523,-9.377,0.781,-1.954,-28.913,2.735,3.126,14.457,-21.490,7.424,3.126,1.954,-6.642,10.940,-9.377,1.954,-10.549,14.066,3.126
'[16:23:56.195 02/09/2075]',-3.907,0.781,7.424,-2.735,8.596,-6.252,1.563,-2.735,-24.225,0.391,4.298,14.457,-19.536,-5.079,13.675,6.642,-7.814,11.722,-6.642,-2.735,-7.814,1.563,13.675
'[16:23:56.199 02/09/2075]',-13.675,0.391,1.172,-2.344,-12.112,-1.172,0.391,-0.781,-7.033,-10.159,0.000,12.503,-11.331,-13.284,12.112,6.642,-8.596,10.159,-0.391,-4.689,2.344,-17.582,12.112
'[16:23:56.203 02/09/2075]',-29.304,7.033,-7.033,-4.689,-44.542,8.987,0.391,0.391,-16.020,-9.377,-3.126,10.159,-19.145,-14.066,7.814,6.252,-8.987,10.549,7.814,-14.847,0.391,-18.364,7.814
'[16:23:56.207 02/09/2075]',-38.681,-2.735,-3.907,-8.205,-63.687,11.331,1.172,-3.126,-32.821,-2.735,0.781,2.344,-27.350,-4.298,0.781,-0.391,-10.549,8.596,4.689,-4.689,-11.331,-7.424,0.781
'[16:23:56.211 02/09/2075]',-7.033,-20.317,8.987,-4.689,-18.755,-4.298,0.391,0.781,-29.304,0.391,5.861,7.814,-16.410,7.814,-7.814,0.781,-7.033,8.596,-8.205,14.066,-15.238,-1.172,-7.814
'[16:23:56.215 02/09/2075]',4.689,-26.178,8.987,-3.126,-6.642,-7.424,-1.172,1.563,-46.496,0.391,3.907,9.768,-27.350,0.391,-6.642,1.563,-10.549,9.377,-8.205,17.973,-23.443,-0.781,-6.642
'[16:23:56.219 02/09/2075]',1.563,-20.317,3.516,-3.907,-19.145,0.781,0.391,-1.172,-38.291,-0.391,3.516,11.331,-9.768,-10.159,-5.079,2.344,-17.192,8.596,-2.735,10.549,-24.615,5.470,-5.079
'[16:23:56.223 02/09/2075]',-12.894,-14.457,-1.172,-3.126,-21.490,-11.331,0.000,0.781,-10.940,-7.033,3.907,13.675,15.238,-26.569,4.689,5.079,-18.364,7.814,1.954,8.205,-12.503,-17.973,4.689
'[16:23:56.227 02/09/2075]',4.298,-16.801,-7.033,-5.470,-22.271,-1.954,-1.563,1.172,-6.252,-18.364,-3.126,12.112,10.159,-30.867,-1.563,5.861,-19.145,6.642,7.814,6.642,-6.252,-25.397,-1.563
'[16:23:56.230 02/09/2075]',6.642,0.391,-14.457,-8.987,-21.099,5.861,-0.391,-1.172,-19.145,-16.801,-4.298,9.377,-15.238,-1.563,-19.536,5.079,-17.973,6.252,15.238,-8.205,-9.768,3.516,-19.536
'[16:23:56.234 02/09/2075]',16.801,-5.470,-3.126,-8.596,-3.126,5.861,-0.781,-1.172,-16.801,-1.954,1.172,3.126,-22.662,9.768,-1.563,0.391,-12.503,7.814,3.907,2.344,-24.615,1.563,-1.563
'[16:23:56.238 02/09/2075]',23.053,-24.225,7.424,-6.642,-1.172,3.907,-3.516,1.954,-42.198,1.563,0.391,9.768,-54.701,9.768,10.940,3.126,-10.549,10.549,-6.642,17.973,-30.476,-7.424,10.940
'[16:23:56.242 02/09/2075]',10.159,-20.317,0.000,-10.549,-10.940,-1.954,-5.861,-0.391,-51.575,3.516,-0.391,7.814,-62.515,8.596,12.503,1.172,-14.066,11.722,0.781,10.159,-36.337,-5.079,12.503
'[16:23:56.246 02/09/2075]',0.000,-19.927,-5.079,-10.940,-19.145,-11.722,-2.344,-2.344,-45.714,7.424,6.252,9.768,-49.621,3.907,19.536,4.689,-16.020,15.238,5.861,3.126,-38.681,-5.470,19.536
'[16:23:56.250 02/09/2075]',7.033,-28.913,-3.907,-8.987,-32.039,-2.344,-1.563,1.172,-40.635,0.391,6.642,14.066,-46.886,-5.470,25.397,7.814,-17.582,15.629,4.689,7.814,-33.602,-19.145,25.397
'[16:23:56.254 02/09/2075]',19.927,-20.317,-8.205,-7.033,-25.006,5.470,-1.954,4.689,-23.443,-3.126,4.298,16.801,-32.821,-4.298,19.536,11.331,-17.582,15.238,8.987,-0.391,-26.569,-18.755,19.536
'[16:23:56.258 02/09/2075]',31.648,-17.582,-5.470,-9.377,-2.735,0.391,0.000,0.391,23.443,-4.689,5.079,6.642,8.596,5.079,12.503,3.516,-16.410,14.066,6.252,-1.954,-26.960,-5.861,12.503
'[16:23:56.262 02/09/2075]',25.788,-26.178,0.000,-5.079,-5.861,-2.344,-0.781,3.126,34.774,-12.894,4.298,8.987,15.238,9.768,8.596,1.954,-16.410,10.940,0.781,4.298,-27.741,5.470,8.596
'[16:23:56.266 02/09/2075]',14.847,-26.569,-2.735,-9.377,-17.582,-3.516,-3.907,1.954,10.159,0.391,0.391,3.907,6.642,27.350,-12.894,-6.642,-16.410,8.596,3.516,3.126,-23.053,21.490,-12.894
'[16:23:56.270 02/09/2075]',5.079,-16.801,-16.801,-10.940,-16.020,-19.536,-5.079,1.172,-21.880,2.344,0.000,5.079,-19.927,43.761,-33.602,-3.126,-16.801,7.033,17.582,-12.894,-25.397,42.979,-33.602
'[16:23:56.273 02/09/2075]',10.549,-18.364,-17.973,-9.768,-33.993,-0.781,-3.126,2.344,-77.363,9.768,4.689,9.377,-62.515,31.258,-24.225,3.126,-16.410,5.861,18.755,-10.549,-29.695,31.258,-24.225
'[16:23:56.277 02/09/2075]',9.377,-25.006,-12.503,-10.159,-42.589,9.377,-7.033,1.563,-93.382,19.927,1.563,3.516,-74.628,4.689,2.344,0.781,-12.894,5.079,13.284,3.907,-31.648,-5.470,2.344
'[16:23:56.281 02/09/2075]',1.954,-29.695,-2.735,-8.596,-37.118,5.470,-9.377,1.563,-69.939,12.503,-1.954,4.298,-64.860,-15.238,16.020,9.377,-12.894,3.907,3.516,9.768,-32.039,-26.178,16.020
'[16:23:56.285 02/09/2075]',-6.252,-32.039,2.735,-8.987,-32.821,0.391,-8.596,-1.954,-32.430,4.298,-1.563,0.000,-42.198,-19.145,24.225,7.814,-10.549,1.954,-1.954,12.112,-33.602,-26.960,24.225
'[16:23:56.289 02/09/2075]',17.973,-25.788,1.563,-8.596,-1.172,-3.126,-8.205,-1.954,-2.735,-1.172,0.781,2.344,-20.708,-7.033,21.880,5.470,-6.252,1.563,-0.781,12.894,-33.602,-16.801,21.880
'[16:23:56.293 02/09/2075]',31.648,-20.708,-1.954,-8.596,17.973,-10.159,-7.033,0.000,9.377,-5.079,-0.781,7.424,-9.377,8.596,3.126,9.377,-4.689,1.954,2.735,5.861,-25.788,-1.954,3.126
'[16:23:56.297 02/09/2075]',47.277,-13.284,-11.722,-7.814,38.681,-18.364,-5.079,-0.781,21.490,-12.112,-2.344,8.205,1.172,3.126,2.735,8.596,-7.424,1.172,12.503,-3.516,-25.788,0.391,2.735
'[16:23:56.301 02/09/2075]',51.184,-5.861,-11.722,-11.331,30.867,-5.861,0.391,-3.516,27.350,-13.284,4.689,8.987,7.814,1.563,11.722,5.861,-8.596,2.344,12.503,-7.424,-26.178,1.563,11.722
'[16:23:56.305 02/09/2075]',35.946,-11.331,-3.516,-7.424,18.755,-4.689,-1.954,0.391,23.834,-10.940,-0.781,7.814,3.907,3.126,6.642,4.689,-7.033,2.344,4.298,2.735,-24.225,-1.954,6.642
'[16:23:56.309 02/09/2075]',6.642,-18.364,-3.126,-7.033,-11.722,-7.424,0.000,-2.344,-3.126,0.391,0.781,0.391,-10.159,2.344,8.596,-3.516,-7.814,2.735,3.907,1.172,-25.397,2.735,8.596
'[16:23:56.313 02/09/2075]',-10.159,-18.364,-1.563,-3.126,-33.602,-3.126,4.689,-1.954,-41.807,3.126,10.159,2.735,-48.449,30.867,-11.722,3.516,-5.470,4.689,2.344,-4.298,-26.569,34.774,-11.722
'[16:23:56.316 02/09/2075]',-23.053,-22.271,-1.172,-2.344,-59.389,4.689,3.516,0.781,-64.078,13.675,12.503,7.033,-64.469,25.788,2.735,4.298,-1.172,6.252,1.954,-1.563,-25.788,18.364,2.735
'[16:23:56.320 02/09/2075]',-3.907,-19.536,-9.768,-5.079,-33.602,-6.642,1.563,0.000,-50.012,8.987,5.079,3.516,-55.092,12.894,7.814,1.954,-2.344,4.298,10.549,-9.768,-21.099,4.689,7.814
'[16:23:56.324 02/09/2075]',7.424,-16.801,-2.344,-7.814,-18.364,-3.516,3.516,-1.563,-37.118,3.126,4.298,6.642,-50.012,-2.735,20.708,9.768,-6.252,2.344,3.126,-10.549,-22.271,-8.596,20.708
'[16:23:56.328 02/09/2075]',20.708,-12.503,5.470,-8.205,4.689,0.391,3.907,-4.298,9.377,0.000,1.563,1.563,-11.331,-8.596,27.741,3.907,-3.516,0.391,-4.689,-1.954,-21.490,-14.457,27.741
'[16:23:56.332 02/09/2075]',33.602,-10.159,5.470,-7.033,43.370,-18.364,1.563,-4.689,42.979,-1.954,-8.596,-2.344,17.192,-7.814,18.755,1.172,-1.563,-0.391,-4.689,-1.172,-18.755,-13.675,18.755
'[16:23:56.336 02/09/2075]',39.463,-16.020,5.861,-1.172,39.853,-9.377,0.391,-2.735,26.960,-9.377,-11.331,-0.391,1.954,-6.642,5.079,3.907,-5.861,-1.172,-5.079,0.000,-18.364,-2.735,5.079
'[16:23:56.340 02/09/2075]',38.291,-15.629,0.000,-3.516,22.271,3.516,-1.563,-5.861,31.648,-14.066,-8.596,-8.205,6.252,12.503,-13.284,-4.689,-4.298,-1.563,0.781,1.954,-17.582,12.503,-13.284
'[16:23:56.344 02/09/2075]',26.178,-8.987,-14.457,-5.470,8.205,0.391,-6.252,-5.470,22.271,-18.364,-8.987,-4.298,-0.391,10.940,-13.675,-7.033,-3.126,-2.344,15.238,-5.470,-15.629,8.987,-13.675
'[16:23:56.348 02/09/2075]',1.954,-9.377,-18.755,-10.159,-11.331,-7.424,-9.377,-7.424,-27.741,-14.847,-6.642,-7.814,-45.324,-2.735,-2.735,-6.252,-5.470,-3.907,19.536,-11.331,-17.973,-3.516,-2.735
'[16:23:56.352 02/09/2075]',-21.490,-0.781,-25.397,-13.675,-33.602,-8.987,-8.596,-9.377,-23.834,-1.563,-3.126,-8.987,-33.211,5.861,-1.563,-9.377,-6.252,-4.689,26.178,-20.317,-18.364,5.470,-1.563
'[16:23:56.355 02/09/2075]',-16.410,4.689,-27.741,-15.238,-23.834,-14.066,-7.814,-7.814,-5.079,6.252,0.000,-7.814,-16.410,7.814,9.377,-9.377,-4.689,-3.907,28.523,-21.880,-18.364,-4.298,9.377
'[16:23:56.359 02/09/2075]',-2.344,-13.675,-12.894,-9.377,3.907,-33.211,-6.642,-3.126,-13.284,3.516,0.000,0.391,-26.569,4.298,16.801,-4.298,-7.424,-3.126,13.675,-7.033,-21.099,-4.298,16.801
'[16:23:56.363 02/09/2075]',12.503,-26.178,-7.814,0.000,0.391,-17.973,-4.298,0.391,-1.563,-1.954,0.000,5.079,-21.099,11.722,9.377,0.391,-12.894,-1.563,8.596,-1.172,-17.582,8.205,9.377
'[16:23:56.367 02/09/2075]',33.602,-19.145,-8.987,-1.563,15.629,-9.768,-0.781,-1.563,0.391,0.781,0.000,2.735,-16.020,31.258,-7.814,-2.344,-13.284,-1.954,9.768,-2.735,-14.066,24.225,-7.814
'[16:23:56.371 02/09/2075]',28.523,-19.536,-5.470,-1.954,14.457,-9.377,-4.298,0.781,-19.145,-5.079,-5.861,8.205,-40.635,22.271,-8.205,3.516,-13.284,-5.079,6.252,1.563,-19.145,18.364,-8.205
'[16:23:56.375 02/09/2075]',19.927,-14.847,-6.642,-5.079,6.252,-4.689,-4.689,-2.735,-17.973,-12.112,-9.377,5.470,-42.198,6.642,-3.516,3.516,-16.410,-7.033,7.424,-1.563,-16.801,8.596,-3.516
'[16:23:56.379 02/09/2075]',21.099,-0.781,-12.894,-11.331,22.662,-12.503,-4.298,-8.205,8.987,-7.424,-9.768,2.344,-7.033,4.689,-4.689,0.781,-15.629,-7.424,13.675,-10.159,-17.192,8.205,-4.689
'[16:23:56.383 02/09/2075]',12.503,-7.814,-4.689,-12.894,23.443,-20.317,-8.596,-7.424,27.741,-21.880,-15.629,2.344,-3.126,-11.722,5.861,0.391,-14.847,-12.112,5.470,1.563,-21.490,-8.596,5.861
'[16:23:56.387 02/09/2075]',-2.735,-15.629,-3.516,-7.814,4.689,-21.880,-10.549,-2.735,23.443,-27.741,-19.536,7.033,-16.020,-24.615,17.973,4.689,-17.973,-12.112,4.298,2.344,-17.973,-22.662,17.973
'[16:23:56.391 02/09/2075]',-11.331,-12.503,-8.205,-10.159,-1.563,-26.960,-8.205,-5.861,24.225,-17.192,-17.582,-0.781,-5.861,-11.722,7.424,-1.954,-17.582,-16.020,8.987,-2.735,-14.066,-11.722,7.424
'[16:23:56.395 02/09/2075]',0.000,-7.033,-14.457,-12.112,-6.252,-12.112,-9.377,-5.470,-9.768,-6.642,-14.847,-9.768,-32.430,-5.079,0.000,-4.298,-15.629,-18.364,15.238,-3.907,-21.099,-8.596,0.000
'[16:23:56.398 02/09/2075]',6.642,-4.689,-22.662,-7.424,-3.907,-13.675,-9.768,0.391,-30.085,-3.126,-11.722,-1.172,-42.979,-4.689,-5.470,6.252,-17.192,-16.410,23.443,-10.549,-23.053,-6.642,-5.470
'[16:23:56.402 02/09/2075]',19.145,-1.172,-20.317,-7.424,12.112,-12.503,-8.205,-0.391,-30.476,2.344,-4.689,2.344,-29.695,0.781,-10.940,8.596,-18.755,-13.284,21.099,-13.284,-25.788,10.549,-10.940
'[16:23:56.406 02/09/2075]',40.244,0.391,-16.020,-4.689,44.542,-18.364,-7.424,0.391,-17.582,2.735,-1.172,2.735,-22.662,1.172,-5.470,13.675,-15.629,-8.205,16.801,-8.205,-27.350,3.516,-5.470
'[16:23:56.410 02/09/2075]',29.695,-1.563,-12.503,1.954,36.728,-17.582,-7.033,5.861,10.159,-14.066,-1.172,13.284,-17.582,16.410,-5.079,13.675,-16.020,-5.079,13.284,-5.470,-22.271,12.894,-5.079
'[16:23:56.414 02/09/2075]',1.172,-10.940,-0.781,3.516,4.298,-11.331,-6.642,6.252,44.542,-16.410,-1.563,12.112,10.940,19.927,-2.735,8.596,-16.410,-2.735,1.563,0.391,-15.238,17.582,-2.735
'[16:23:56.418 02/09/2075]',-0.781,-8.205,0.391,1.563,6.642,-11.722,-3.126,1.172,46.496,-15.629,1.172,4.689,5.470,29.304,1.172,0.000,-12.894,-0.781,0.391,0.000,-10.159,24.615,1.172
'[16:23:56.422 02/09/2075]',9.377,-5.079,-4.298,7.814,12.894,-7.814,-4.689,8.205,23.443,-15.238,1.563,14.457,-12.112,23.834,1.563,10.159,-11.722,-0.391,5.079,-0.391,-12.503,17.973,1.563
'[16:23:56.426 02/09/2075]',7.033,-3.907,-4.298,4.689,12.503,-8.987,-5.470,6.642,-2.735,-1.172,0.391,11.722,-14.457,-2.735,11.331,12.503,-9.377,0.000,5.079,-0.391,-11.722,-1.954,11.331
'[16:23:56.430 02/09/2075]',21.099,3.126,-9.768,1.954,47.668,-28.913,-3.126,2.344,-12.112,8.205,0.391,2.344,-14.847,-21.490,22.662,11.331,-8.987,0.391,10.549,-9.377,-20.317,-13.284,22.662
'[16:23:56.434 02/09/2075]',33.211,17.582,-15.629,1.172,47.668,-11.331,-2.344,3.907,-8.987,7.814,0.391,0.391,-12.112,-17.973,17.192,11.722,-11.331,0.391,16.410,-19.927,-15.238,-17.192,17.192
'[16:23:56.438 02/09/2075]',1.954,5.470,-11.331,2.344,-1.563,0.391,-2.735,3.126,-8.987,8.205,-2.344,-0.781,-9.768,-2.344,3.126,3.907,-12.894,1.563,12.112,-12.112,-8.987,-6.642,3.126
'[16:23:56.441 02/09/2075]',-14.066,3.126,-16.801,0.391,-34.774,9.768,-0.781,-1.954,4.689,4.298,-4.689,-8.205,-4.689,-1.172,1.954,-0.781,-15.238,1.172,17.582,-15.629,-9.377,-5.861,1.954
'[16:23:56.445 02/09/2075]',-1.954,4.298,-16.801,1.563,-18.755,7.033,1.563,-3.126,-0.391,1.954,-2.735,-7.033,-5.470,-19.927,18.755,-1.563,-11.331,1.563,17.582,-14.457,-6.252,-16.410,18.755
'[16:23:56.449 02/09/2075]',-5.470,1.954,-10.549,5.079,-17.192,6.642,0.781,0.391,-6.642,-6.642,-1.172,0.781,-23.443,-12.503,16.801,4.298,-4.298,3.126,11.331,-6.252,-5.861,-12.112,16.801
'[16:23:56.453 02/09/2075]',8.596,-6.642,-2.735,6.252,12.112,-6.252,-3.516,2.735,28.913,-16.801,-6.252,2.735,2.344,-1.172,-1.563,8.596,-2.735,0.781,3.516,1.954,-10.159,1.172,-1.563
'[16:23:56.457 02/09/2075]',44.933,-10.549,8.987,5.079,76.972,-24.615,-3.516,0.781,25.788,-13.675,-0.781,3.516,9.768,1.563,-2.735,5.861,-3.907,0.391,-8.205,8.596,-8.596,12.503,-2.735
'[16:23:56.461 02/09/2075]',43.370,-11.722,11.331,7.033,59.780,-7.814,-4.298,3.516,4.298,-8.596,3.907,5.861,-8.596,44.542,-36.728,7.033,-3.516,0.781,-10.549,8.596,-3.516,44.933,-36.728
'[16:23:56.465 02/09/2075]',6.642,-12.503,2.735,8.205,9.768,-3.516,-5.861,5.079,-18.755,6.642,-1.563,7.424,-10.549,46.496,-50.403,8.596,-7.424,-0.391,-1.954,5.861,-1.954,44.151,-50.403
'[16:23:56.469 02/09/2075]',-10.159,-6.642,-6.642,6.252,-17.582,0.391,-2.735,1.954,-34.774,11.722,-1.563,0.391,-22.662,-6.252,7.033,-2.735,-7.033,-0.391,7.424,-5.079,-0.781,-2.735,7.033
'[16:23:56.473 02/09/2075]',-19.927,-5.861,-6.642,7.424,-34.383,4.689,-0.391,4.298,-0.781,1.563,-3.126,2.344,-6.252,-19.927,25.788,0.781,-3.907,0.000,7.424,0.000,-1.172,-23.443,25.788
'[16:23:56.477 02/09/2075]',-27.741,-14.066,-3.516,8.987,-44.542,3.907,-2.344,5.470,25.788,-12.112,-2.735,3.126,5.079,-20.317,29.695,-0.781,-3.516,-2.735,4.298,12.112,0.391,-31.648,29.695
'[16:23:56.480 02/09/2075]',-3.907,-14.457,-4.689,9.377,-9.377,-5.861,-2.344,4.298,36.728,-21.099,-3.126,4.689,7.424,-26.569,35.556,0.000,-3.126,-2.344,5.470,9.377,1.954,-30.867,35.556
'[16:23:56.484 02/09/2075]',17.973,-8.987,-8.205,7.033,17.973,-10.549,0.000,0.391,7.814,-12.894,2.735,0.781,-5.079,-18.755,24.615,-3.126,-2.735,-1.563,8.987,4.298,2.735,-16.020,24.615
'[16:23:56.488 02/09/2075]',0.391,0.391,-18.364,11.722,-4.298,-7.424,-0.781,7.814,-29.304,-1.563,3.907,7.814,-25.397,-3.907,5.861,4.298,-1.954,0.000,19.145,-1.954,3.516,-7.814,5.861
'[16:23:56.492 02/09/2075]',3.126,7.814,-26.960,9.768,-9.377,-3.126,0.781,6.252,-44.151,7.424,1.172,8.205,-29.304,-9.377,8.596,3.516,-0.781,2.735,27.741,-13.284,1.954,-7.814,8.596
'[16:23:56.496 02/09/2075]',1.172,7.033,-25.788,10.549,-11.331,-3.907,3.516,5.079,-30.476,10.549,2.344,5.079,-11.331,-22.271,15.238,7.033,3.126,5.079,26.569,-14.457,-1.954,-11.722,15.238
