'Time and date','FP1-F7','F7-T7','T7-P7','P7-O1','FP1-F3','F3-C3','C3-P3','P3-O1','FP2-F4','F4-C4','C4-P4','P4-O2','FP2-F8','F8-T8','T8-P8','P8-O2','FZ-CZ','CZ-PZ','P7-T7','T7-FT9','FT9-FT10','FT10-T8','T8-P8'
'hh:mm:ss.mmm dd/mm/yyyy','uV','uV','uV','uV','uV','uV','uV','uV','uV','uV','uV','uV','uV','uV','uV','uV','uV','uV','uV','uV','uV','uV','uV'
'[16:43:26.000 06/11/2076]',54.310,-16.801,10.549,2.344,57.436,19.145,39.463,-65.641,44.542,5.861,2.344,92.991,65.250,-19.145,-33.993,133.626,-11.331,28.523,-9.768,25.006,-51.184,33.211,-33.993
'[16:43:26.004 06/11/2076]',0.391,0.391,0.391,0.391,0.391,0.391,0.391,0.391,0.391,0.391,0.391,0.391,0.391,0.391,0.391,0.391,0.391,0.391,0.391,0.391,0.391,0.391,0.391
'[16:43:26.008 06/11/2076]',0.391,0.391,0.391,0.391,0.391,0.391,0.391,0.391,0.391,0.391,0.391,0.391,0.391,0.391,0.391,0.781,0.391,0.391,0.391,0.391,0.391,0.391,0.391
'[16:43:26.012 06/11/2076]',0.391,0.000,0.391,0.391,0.391,0.391,0.781,0.000,0.391,0.391,0.391,2.344,1.954,-1.172,0.391,2.735,0.391,0.781,0.391,1.563,0.391,0.000,0.391
'[16:43:26.016 06/11/2076]',1.563,0.391,0.391,0.391,1.563,0.391,0.000,0.391,0.391,0.391,0.391,0.391,0.000,0.781,0.391,0.000,0.391,0.000,0.391,0.000,0.391,0.391,0.391
'[16:43:26.020 06/11/2076]',1.563,1.954,0.391,-0.391,1.563,0.391,-2.344,3.126,-1.172,-0.391,0.000,-8.205,-7.033,7.424,0.391,-11.331,0.391,-2.344,0.391,-4.689,0.391,3.516,0.391
'[16:43:26.023 06/11/2076]',-0.781,1.172,0.391,0.391,-0.781,0.391,-0.391,1.954,0.000,-1.172,0.391,-7.814,-5.079,5.861,0.391,-9.768,0.781,0.000,0.391,-2.344,0.391,2.344,0.391
'[16:43:26.027 06/11/2076]',-1.563,-1.172,0.391,0.781,-1.954,0.391,4.689,-4.689,2.344,0.781,1.172,7.424,7.814,-6.642,0.391,11.331,0.391,5.079,0.391,5.861,0.000,-3.516,0.391
'[16:43:26.031 06/11/2076]',-0.391,-0.781,0.391,0.391,-1.563,1.954,3.126,-4.689,0.781,2.344,0.391,12.112,7.424,-8.205,0.391,16.020,0.391,1.954,0.391,3.516,0.781,-3.126,0.391
'[16:43:26.035 06/11/2076]',0.000,2.735,0.391,-1.172,0.000,1.563,-5.470,5.861,-1.172,-0.391,-1.172,-8.205,-7.814,7.424,1.954,-12.503,0.781,-5.861,0.391,-7.033,1.172,4.298,1.954
'[16:43:26.039 06/11/2076]',7.033,4.689,0.391,-2.344,8.596,0.000,-8.205,9.768,-3.907,-2.735,-1.563,-31.648,-23.443,21.099,1.954,-41.416,1.954,-7.814,0.391,-14.066,0.000,8.205,1.954
'[16:43:26.043 06/11/2076]',21.099,11.722,-2.735,-8.987,19.536,4.298,-14.457,10.159,-16.020,-7.033,-2.735,-66.813,-57.436,49.621,-2.735,-82.833,3.516,-16.020,3.516,-34.774,-1.563,22.662,-2.735
'[16:43:26.047 06/11/2076]',-2.735,18.755,-3.516,-11.722,-8.205,12.112,-16.020,11.722,-13.284,-12.894,-2.735,-89.866,-75.018,69.939,-3.907,-111.746,5.079,-14.847,4.298,-46.886,-0.781,30.476,-3.907
'[16:43:26.051 06/11/2076]',-16.020,10.549,-0.391,-12.112,-25.397,17.973,-4.689,-5.861,3.126,-12.894,-1.954,-74.628,-48.059,42.589,2.735,-85.568,7.424,-3.126,1.172,-35.165,-1.563,11.331,2.735
'[16:43:26.055 06/11/2076]',-20.317,12.112,-4.689,-19.536,-28.913,21.099,0.391,-25.397,-3.126,-3.126,-2.735,-64.860,-39.853,20.708,9.377,-65.641,10.159,-1.954,5.470,-35.165,0.000,0.391,9.377
'[16:43:26.059 06/11/2076]',-30.867,13.675,0.781,-16.410,-35.946,25.006,-7.424,-13.284,-25.397,-1.954,-5.861,-67.985,-63.687,20.708,10.159,-71.111,17.582,-9.768,0.000,-39.463,2.735,1.954,10.159
'[16:43:26.063 06/11/2076]',8.205,9.768,2.735,-21.880,7.424,16.801,-12.503,-12.503,-17.973,1.954,-8.205,-80.488,-52.357,19.927,10.940,-85.177,20.317,-14.847,-1.954,-38.291,-2.344,2.344,10.940
'[16:43:26.066 06/11/2076]',43.370,9.377,0.781,-21.099,46.496,14.457,-10.940,-16.801,-39.463,6.642,-6.642,-92.210,-67.985,25.788,0.391,-91.429,20.708,-17.192,0.000,-34.383,0.391,6.252,0.391
'[16:43:26.070 06/11/2076]',44.933,11.331,-3.126,-18.755,47.277,19.145,-15.238,-17.192,-39.463,8.987,-7.033,-93.382,-70.720,47.668,-15.629,-93.773,18.755,-19.536,3.907,-32.430,1.954,22.271,-15.629
'[16:43:26.074 06/11/2076]',18.364,10.549,-7.424,-17.192,11.722,23.834,-14.457,-16.410,6.642,5.470,-8.987,-88.694,-26.569,36.728,-1.172,-94.554,14.066,-17.973,8.205,-31.258,7.033,10.159,-1.172
'[16:43:26.078 06/11/2076]',-3.126,9.377,-8.205,-22.662,0.000,15.629,-15.629,-25.397,20.708,8.205,-8.596,-95.336,-8.987,30.476,5.079,-101.978,13.284,-15.629,8.987,-23.834,8.596,4.298,5.079
'[16:43:26.082 06/11/2076]',-34.774,10.940,-10.159,-16.020,-27.741,8.596,-17.582,-13.675,-12.112,16.410,-8.205,-98.852,-33.602,24.615,9.768,-105.104,17.973,-13.284,10.940,-22.271,7.033,1.172,9.768
'[16:43:26.086 06/11/2076]',-32.039,13.284,-7.424,-24.225,-34.774,5.079,-15.629,-5.470,-39.463,20.708,-8.596,-89.475,-53.138,16.410,15.629,-96.899,19.145,-14.066,8.205,-24.615,1.172,0.000,15.629
'[16:43:26.090 06/11/2076]',2.344,10.159,-1.563,-25.006,3.907,-4.298,-16.801,3.907,-31.648,28.132,-7.424,-81.270,-32.430,15.629,11.331,-88.303,20.317,-15.238,2.344,-21.490,4.689,4.298,11.331
'[16:43:26.094 06/11/2076]',14.457,11.722,0.391,-20.708,12.112,-4.298,-21.880,19.927,-54.310,32.039,-4.689,-94.945,-55.873,24.615,6.642,-99.634,17.582,-21.099,0.391,-21.099,-1.172,11.722,6.642
'[16:43:26.098 06/11/2076]',30.867,16.801,-7.033,-25.397,18.755,0.781,-25.788,21.490,-39.072,22.271,-3.907,-100.806,-50.794,27.741,5.861,-105.885,7.033,-23.834,7.814,-23.053,-10.940,14.457,5.861
'[16:43:26.102 06/11/2076]',47.277,17.973,-9.377,-25.006,33.993,-0.781,-21.880,19.927,21.490,10.940,-4.298,-80.879,13.284,19.536,-4.689,-80.879,-1.172,-18.755,10.159,-17.582,-18.364,16.410,-4.689
'[16:43:26.105 06/11/2076]',17.582,8.205,-7.033,-19.536,-1.954,-1.563,-18.755,20.708,4.298,3.516,-6.252,-68.376,-4.298,26.960,-19.145,-71.111,-7.033,-16.020,7.814,-10.159,-14.066,19.927,-19.145
'[16:43:26.109 06/11/2076]',10.159,5.079,-5.470,-18.364,-13.675,-2.735,-19.145,27.350,-7.814,-3.126,-12.503,-72.283,-33.993,29.695,-9.377,-84.005,-14.847,-21.490,6.252,-16.801,-3.516,9.768,-9.377
'[16:43:26.113 06/11/2076]',0.781,18.755,-9.377,-15.238,-17.582,-11.722,-12.503,37.118,5.470,-8.205,-18.364,-71.502,-25.788,40.635,-10.940,-96.899,-13.675,-19.536,10.159,-37.900,23.834,12.112,-10.940
'[16:43:26.117 06/11/2076]',-8.987,14.066,-11.722,-2.735,-14.066,-28.913,-7.814,40.635,-7.814,-10.159,-23.443,-51.575,-28.913,32.821,-13.675,-84.786,-13.675,-14.847,12.503,-34.774,44.151,7.814,-13.675
'[16:43:26.121 06/11/2076]',13.284,23.834,-21.099,-3.907,9.377,-21.099,-10.940,34.383,-8.987,-16.410,-18.755,-62.125,-28.913,18.755,-10.549,-86.740,-20.317,-17.192,21.880,-28.913,30.867,0.391,-10.549
'[16:43:26.125 06/11/2076]',10.159,36.337,-44.933,-4.298,4.298,-25.397,-17.973,36.337,-10.549,-21.490,-21.099,-56.654,-19.536,16.410,-26.178,-81.661,-26.178,-18.364,45.714,-39.853,28.132,3.126,-26.178
'[16:43:26.129 06/11/2076]',0.000,24.225,-39.072,-5.470,-10.940,-24.615,-17.582,32.821,-17.192,-25.397,-22.271,-48.059,-20.317,20.708,-46.886,-67.595,-30.476,-13.675,39.853,-19.145,15.238,10.940,-46.886
'[16:43:26.133 06/11/2076]',-7.424,0.781,-23.053,-2.344,-32.039,-15.238,-17.582,32.430,-16.801,-22.271,-21.880,-51.184,-20.708,5.861,-34.774,-64.469,-35.946,-11.722,23.834,10.940,2.735,-10.159,-34.774
'[16:43:26.137 06/11/2076]',-8.987,-10.159,-21.099,-0.781,-30.476,-21.099,-20.317,31.258,-20.317,-24.225,-26.569,-44.933,-28.132,-0.781,-28.132,-61.343,-37.900,-13.284,21.880,18.755,4.689,-17.582,-28.132
'[16:43:26.141 06/11/2076]',2.735,-6.252,-19.536,-0.391,-9.768,-29.304,-19.927,35.165,-26.960,-19.145,-28.523,-33.602,-30.476,-1.954,-23.053,-54.310,-35.946,-13.284,20.317,14.066,3.516,-12.503,-23.053
'[16:43:26.145 06/11/2076]',19.927,-5.470,-24.615,-1.563,1.172,-24.615,-21.099,32.821,-23.834,-21.490,-25.397,-44.151,-38.291,2.344,-15.629,-65.250,-33.211,-17.973,25.397,12.894,-1.172,-11.331,-15.629
'[16:43:26.148 06/11/2076]',19.927,5.079,-36.337,-3.907,6.252,-23.443,-25.006,28.132,-44.151,-17.973,-18.755,-54.701,-53.138,7.033,-13.675,-77.363,-28.523,-20.317,37.118,3.907,-4.298,-3.126,-13.675
'[16:43:26.152 06/11/2076]',10.159,8.596,-30.476,-5.470,-10.549,-14.457,-21.099,30.085,-35.946,-13.284,-13.675,-38.681,-35.556,16.020,-21.880,-61.343,-23.053,-15.629,31.258,-1.563,1.172,8.205,-21.880
'[16:43:26.156 06/11/2076]',4.298,1.563,-19.536,1.172,-17.582,-15.629,-16.020,37.900,-24.225,-6.252,-10.159,-28.913,-18.364,17.192,-19.536,-50.794,-16.020,-11.722,20.317,2.344,6.252,8.987,-19.536
'[16:43:26.160 06/11/2076]',-9.377,-7.814,-1.954,7.033,-23.443,-20.317,-15.629,48.840,-22.271,-1.954,-6.642,-42.979,-17.582,20.317,-10.940,-68.376,-11.331,-14.457,2.735,4.298,22.271,4.689,-10.940
'[16:43:26.164 06/11/2076]',-36.337,-9.768,3.516,18.364,-48.449,-29.695,-10.549,65.250,-12.112,0.391,-10.940,-40.635,-12.112,30.867,-10.159,-74.628,-5.861,-17.973,-2.735,-3.907,37.900,6.252,-10.159
'[16:43:26.168 06/11/2076]',-35.165,-8.987,4.689,15.629,-49.621,-31.258,-5.861,63.687,7.033,-3.516,-8.987,-30.476,0.781,33.602,-10.549,-61.343,-5.861,-17.973,-3.907,-1.563,33.993,7.814,-10.549
'[16:43:26.172 06/11/2076]',-29.304,-8.987,2.735,8.987,-44.151,-29.304,-2.735,51.184,8.596,-7.033,-4.689,-40.244,-4.689,33.993,-10.940,-63.297,-6.642,-16.020,-1.954,6.252,30.085,4.689,-10.940
'[16:43:26.176 06/11/2076]',-1.172,-7.814,-3.126,4.689,-16.410,-23.834,-14.847,48.059,-13.675,-5.079,-1.954,-46.496,-31.648,37.118,-7.424,-66.813,-12.503,-20.317,3.907,8.987,14.457,7.424,-7.424
'[16:43:26.180 06/11/2076]',12.503,-8.987,0.000,0.391,-6.252,-18.755,-17.973,48.059,-33.211,-4.298,0.391,-45.324,-49.231,34.383,-9.377,-59.389,-12.894,-12.112,0.781,10.159,3.126,12.112,-9.377
'[16:43:26.184 06/11/2076]',8.596,-14.457,-1.954,3.516,-1.954,-25.788,-14.847,39.072,-62.906,-2.735,3.126,-46.496,-64.860,18.755,-13.284,-50.012,-8.987,-4.298,2.735,19.145,0.781,6.642,-13.284
'[16:43:26.188 06/11/2076]',-5.861,-11.722,-0.781,4.689,-10.159,-24.615,-14.847,35.946,-58.999,-4.298,4.298,-40.244,-62.906,7.424,-1.563,-42.589,-5.861,-1.954,1.563,14.457,0.000,0.391,-1.563
'[16:43:26.191 06/11/2076]',-30.085,-9.377,1.563,9.768,-29.695,-25.006,-16.410,43.761,-30.476,-5.470,0.781,-28.523,-37.509,9.377,-3.126,-33.993,-3.907,-3.126,-0.781,8.205,1.172,4.689,-3.126
'[16:43:26.195 06/11/2076]',-31.258,-4.689,-1.563,9.768,-25.397,-24.615,-18.364,42.198,15.629,-9.377,0.391,-26.569,0.391,-3.907,14.847,-32.039,-4.689,-3.516,2.344,4.689,3.516,-14.066,14.847
'[16:43:26.199 06/11/2076]',-32.821,-3.907,-3.516,10.159,-28.523,-18.364,-23.053,41.416,47.668,-4.689,-1.172,-27.741,22.271,2.735,19.145,-32.430,-9.377,-8.596,4.298,3.126,0.391,-16.801,19.145
'[16:43:26.203 06/11/2076]',-15.629,-15.238,0.391,10.940,-14.457,-17.973,-28.523,43.370,31.258,2.735,-4.298,-22.271,12.112,7.033,14.457,-27.741,-13.675,-14.066,0.391,5.470,2.735,-14.066,14.457
'[16:43:26.207 06/11/2076]',-5.470,-25.788,0.391,7.814,-11.722,-17.973,-29.304,37.509,0.781,0.781,-6.252,-17.973,-12.503,-1.954,12.112,-21.490,-16.801,-16.801,0.391,14.066,3.126,-20.708,12.112
'[16:43:26.211 06/11/2076]',-26.960,-29.695,1.172,2.344,-39.463,-17.192,-27.741,32.039,-33.211,-3.126,-8.987,-28.913,-47.668,-5.470,8.987,-32.039,-15.629,-20.708,-0.391,17.582,0.391,-18.364,8.987
'[16:43:26.215 06/11/2076]',-28.132,-27.741,1.563,0.391,-34.383,-25.397,-26.960,32.821,-64.860,-3.516,-12.894,-36.337,-77.753,-5.470,6.642,-43.370,-15.629,-20.708,-0.781,16.410,-2.344,-12.894,6.642
'[16:43:26.219 06/11/2076]',-14.457,-21.490,0.000,-3.516,-9.768,-38.681,-22.662,32.039,-62.125,-4.298,-16.801,-23.053,-71.111,-8.596,3.126,-31.258,-19.536,-16.020,0.781,16.020,-0.391,-11.722,3.126
'[16:43:26.223 06/11/2076]',-51.966,-14.066,-3.516,-7.814,-42.198,-42.198,-22.662,28.913,-44.542,1.954,-21.099,-19.536,-43.761,-9.768,0.781,-31.648,-22.662,-13.675,4.298,9.768,7.033,-11.331,0.781
'[16:43:26.227 06/11/2076]',-66.422,-12.503,-8.596,-5.470,-56.264,-47.277,-28.913,39.072,-14.847,1.954,-29.304,-36.728,-27.350,12.503,-5.470,-59.780,-23.443,-21.880,9.377,-3.516,20.708,-2.344,-5.470
'[16:43:26.230 06/11/2076]',-56.654,-12.503,-11.331,-13.675,-44.542,-49.231,-31.258,30.476,1.954,1.954,-30.476,-50.403,-12.503,17.973,-11.722,-71.502,-22.662,-28.523,12.112,-8.596,32.039,-1.954,-11.722
'[16:43:26.234 06/11/2076]',-37.509,-21.490,-12.894,-14.066,-32.430,-41.807,-30.085,17.973,12.894,0.391,-33.211,-42.979,6.252,4.298,-17.973,-56.654,-22.271,-28.913,13.675,3.516,30.085,-8.205,-17.973
'[16:43:26.238 06/11/2076]',-5.079,-26.178,-20.317,-10.549,3.126,-41.416,-37.509,11.722,2.344,-10.940,-35.165,-42.589,-15.238,-7.033,-19.145,-45.714,-25.397,-33.993,21.099,13.675,17.973,-13.284,-19.145
'[16:43:26.242 06/11/2076]',14.847,-31.258,-23.053,-9.377,30.085,-43.370,-47.277,11.722,-12.894,-15.238,-39.853,-44.151,-34.383,-13.284,-19.145,-46.105,-30.867,-44.933,23.834,14.457,17.973,-12.503,-19.145
'[16:43:26.246 06/11/2076]',19.536,-28.132,-26.569,-7.033,37.509,-44.933,-50.012,14.066,-17.582,-20.708,-41.416,-37.509,-42.198,-11.331,-23.834,-41.416,-36.337,-46.886,27.350,10.549,18.755,-6.642,-23.834
'[16:43:26.250 06/11/2076]',-14.066,-21.880,-34.774,-5.079,3.516,-44.542,-45.714,9.377,-31.648,-16.020,-40.635,-34.383,-48.840,-10.940,-28.913,-35.556,-35.165,-45.714,35.556,7.033,21.490,-5.470,-28.913
'[16:43:26.254 06/11/2076]',-60.171,-30.476,-19.536,-4.689,-45.714,-35.556,-42.589,8.205,-15.629,-11.722,-39.463,-32.821,-25.788,-9.768,-33.993,-31.648,-30.476,-47.277,20.317,17.582,28.132,-3.907,-33.993
'[16:43:26.258 06/11/2076]',-47.277,-32.039,-10.940,-8.987,-33.211,-33.602,-41.416,7.424,-9.377,-8.596,-36.337,-26.569,-10.549,-4.689,-41.807,-25.006,-27.350,-46.105,11.722,16.410,32.821,2.735,-41.807
'[16:43:26.262 06/11/2076]',-37.509,-25.397,-14.066,-5.470,-10.549,-42.589,-40.635,9.377,-23.834,-4.298,-35.165,-25.788,-16.410,-16.020,-38.291,-19.536,-25.397,-38.681,14.847,13.284,31.258,-6.252,-38.291
'[16:43:26.266 06/11/2076]',-64.078,-24.615,-21.099,-2.344,-41.416,-41.026,-39.853,8.987,-25.788,-6.642,-32.821,-32.430,-25.788,-17.973,-32.821,-21.880,-23.053,-35.556,21.880,5.470,30.085,-10.940,-32.821
'[16:43:26.270 06/11/2076]',-55.092,-14.066,-25.788,-2.344,-36.337,-35.946,-33.602,8.596,-13.675,-22.271,-26.960,-27.350,-28.132,-19.145,-31.648,-13.284,-22.662,-30.867,26.569,-6.252,30.867,-8.596,-31.648
'[16:43:26.273 06/11/2076]',-44.933,8.205,-52.747,-0.391,-33.993,-30.085,-28.523,1.954,-19.927,-33.211,-21.099,-18.755,-37.900,-17.973,-37.509,0.000,-25.006,-25.397,53.529,-25.788,25.006,0.000,-37.509
'[16:43:26.277 06/11/2076]',-48.059,-5.079,-34.774,1.563,-51.575,-12.894,-25.397,3.907,-19.927,-38.681,-15.629,-24.225,-44.542,-25.006,-25.788,-3.907,-26.960,-25.006,35.556,-12.112,21.880,-5.861,-25.788
'[16:43:26.281 06/11/2076]',-37.509,-17.582,-11.722,9.768,-41.807,-12.503,-21.099,17.973,-27.741,-35.946,-12.112,-23.443,-48.840,-22.271,-23.053,-7.033,-26.178,-22.271,12.503,-0.391,26.960,-4.689,-23.053
'[16:43:26.285 06/11/2076]',-33.993,-21.490,-5.079,11.722,-24.615,-24.615,-19.536,19.927,-28.913,-30.476,-13.284,-5.470,-34.774,-32.430,-19.536,7.814,-25.397,-19.145,5.861,0.781,32.821,-8.205,-19.536
'[16:43:26.289 06/11/2076]',-22.271,-35.165,7.033,19.145,11.722,-51.966,-23.053,32.430,-40.635,-17.192,-19.927,3.907,-48.449,-20.317,-15.238,9.377,-17.582,-24.225,-6.252,2.344,44.542,-7.814,-15.238
'[16:43:26.293 06/11/2076]',-29.695,-27.350,3.126,14.066,10.549,-63.297,-21.880,34.383,-25.006,-9.768,-18.364,-19.927,-44.151,-3.126,-10.549,-17.192,-4.689,-32.430,-2.344,-9.377,48.059,-4.689,-10.549
'[16:43:26.297 06/11/2076]',-41.807,-18.364,-6.642,8.987,-5.861,-53.529,-25.397,27.350,3.516,-13.284,-12.112,-30.085,-26.178,8.596,-12.112,-23.443,0.781,-33.993,7.424,-13.675,37.118,1.954,-12.112
'[16:43:26.301 06/11/2076]',-6.642,-19.536,-15.629,14.457,12.894,-37.900,-22.271,19.536,12.894,-21.099,-3.907,-15.238,-16.410,1.172,-12.894,0.391,-1.172,-23.834,16.410,1.172,16.020,0.000,-12.894
'[16:43:26.305 06/11/2076]',-4.298,-19.536,-9.768,15.629,2.344,-21.880,-16.410,17.973,21.880,-21.880,3.516,-7.814,-2.735,-5.079,-9.377,12.112,-2.735,-12.503,10.549,11.722,5.470,-4.298,-9.377
'[16:43:26.309 06/11/2076]',-16.410,-14.847,-9.377,16.801,-19.927,-11.331,-18.364,26.178,-6.252,-23.053,7.424,0.781,-21.880,-8.205,-8.596,17.582,-5.861,-6.642,10.159,7.424,0.000,-4.689,-8.596
'[16:43:26.313 06/11/2076]',-33.602,-14.847,-5.470,17.192,-42.198,-5.470,-17.582,28.523,-32.430,-23.443,8.987,11.331,-44.933,-11.331,-0.781,21.490,-3.126,-0.391,6.252,3.907,1.954,-8.205,-0.781
'[16:43:26.316 06/11/2076]',-51.575,-10.549,-1.954,13.284,-46.496,-13.284,-14.457,24.225,-59.780,-12.112,11.722,3.126,-64.469,-15.238,7.814,14.066,1.172,-1.563,2.735,5.079,-0.391,-13.284,7.814
'[16:43:26.320 06/11/2076]',-71.893,-5.470,-0.781,7.033,-68.767,-7.424,-14.457,20.708,-74.628,-6.642,15.238,-1.954,-82.833,-8.987,11.331,11.331,0.781,-3.516,1.563,5.861,-8.596,-11.331,11.331
'[16:43:26.324 06/11/2076]',-52.747,0.391,-5.470,8.596,-50.403,-4.689,-14.457,21.099,-50.012,-10.549,16.020,3.907,-67.595,-5.470,14.457,17.582,-5.470,-1.954,6.252,0.391,-9.377,-7.814,14.457
'[16:43:26.328 06/11/2076]',-30.085,8.205,-5.079,8.205,-9.768,-19.536,-10.159,22.271,-19.927,-8.205,18.364,1.954,-38.291,-6.642,18.364,17.582,-10.159,1.563,5.861,0.391,-14.066,-7.424,18.364
'[16:43:26.332 06/11/2076]',12.112,6.252,1.954,11.722,39.463,-24.225,-8.596,27.741,-8.596,0.000,17.582,-5.470,-28.523,0.781,16.020,13.284,-12.112,3.126,-1.172,0.391,-15.629,-2.735,16.020
'[16:43:26.336 06/11/2076]',14.847,1.954,1.954,12.894,34.383,-19.927,-9.768,28.523,8.205,-0.391,16.020,2.735,-11.722,-7.424,19.145,26.960,-8.596,-2.344,-1.172,1.172,-16.801,-8.987,19.145
'[16:43:26.340 06/11/2076]',-1.172,-7.424,7.814,14.457,15.238,-16.801,-10.549,26.178,30.867,1.563,12.894,14.847,10.159,-16.801,24.225,42.198,-4.689,-6.642,-7.033,12.112,-21.490,-17.192,24.225
'[16:43:26.344 06/11/2076]',-39.853,-15.629,12.894,17.192,-35.165,-8.596,-14.457,33.211,13.675,5.861,7.033,3.126,-10.940,-10.549,26.178,26.178,-2.344,-15.629,-12.112,14.066,-19.536,-17.582,26.178
'[16:43:26.348 06/11/2076]',-87.912,-14.066,10.549,17.973,-98.462,0.391,-16.020,41.026,-27.741,7.814,1.172,0.781,-59.389,3.907,23.443,13.675,-0.781,-20.708,-9.768,7.814,-11.331,-12.503,23.443
'[16:43:26.352 06/11/2076]',-67.985,-20.317,8.987,24.225,-79.316,-7.424,-11.722,44.542,-17.192,5.861,-5.470,29.304,-41.026,6.642,19.145,26.569,-5.079,-13.675,-8.205,10.159,0.391,-6.642,19.145
'[16:43:26.355 06/11/2076]',-43.370,-17.582,8.596,19.927,-46.886,-19.536,-6.642,41.416,-30.476,13.284,-1.954,24.225,-37.900,3.126,23.834,14.847,-8.205,-8.205,-7.814,7.033,4.298,-6.642,23.834
'[16:43:26.359 06/11/2076]',3.516,-10.159,-0.781,14.066,3.907,-23.834,-13.675,42.198,-32.821,10.549,1.563,3.516,-49.621,15.238,22.271,-5.470,-9.768,-10.159,1.563,-3.907,1.172,-1.563,22.271
'[16:43:26.363 06/11/2076]',45.714,-8.987,-7.033,9.768,44.542,-20.708,-21.490,37.509,22.271,0.391,4.298,5.079,-3.126,14.847,19.145,0.781,-13.284,-8.596,7.814,1.954,-16.410,-1.563,19.145
'[16:43:26.367 06/11/2076]',20.708,-12.503,-5.470,4.689,17.192,-16.020,-18.364,24.615,26.178,2.735,6.252,3.516,12.503,4.689,13.675,8.205,-15.238,-4.689,6.252,15.238,-28.132,-5.470,13.675
'[16:43:26.371 06/11/2076]',-8.596,-10.549,-10.940,6.252,-20.708,-4.298,-21.880,23.053,12.503,-1.172,3.907,2.344,3.126,5.861,-2.344,11.722,-17.192,-6.252,11.722,16.020,-29.304,-1.172,-2.344
'[16:43:26.375 06/11/2076]',-32.821,-6.252,-11.722,5.861,-45.324,3.516,-27.350,23.053,21.099,-3.516,-2.735,10.159,4.298,12.894,-4.689,11.331,-16.801,-10.549,12.503,14.847,-30.085,2.344,-4.689
'[16:43:26.379 06/11/2076]',-30.867,1.954,-17.192,3.907,-32.821,-4.298,-23.443,19.927,3.907,-1.172,-7.033,12.112,-5.861,-3.516,4.298,10.940,-16.410,-11.331,17.973,11.331,-31.258,-8.596,4.298
'[16:43:26.383 06/11/2076]',-9.377,14.066,-25.397,5.861,-1.563,-10.940,-20.317,17.973,1.563,0.391,-5.470,4.298,-7.814,-10.940,11.331,7.424,-8.596,-15.238,26.178,1.172,-31.258,-15.238,11.331
'[16:43:26.387 06/11/2076]',18.755,21.880,-32.039,4.298,26.569,-10.940,-18.755,18.364,-8.205,3.126,-3.516,9.377,-21.880,-8.596,16.801,14.066,-3.126,-19.536,32.821,-7.814,-35.946,-14.457,16.801
'[16:43:26.391 06/11/2076]',0.391,-0.781,-8.596,5.079,-2.735,-5.470,-12.503,17.973,-16.801,11.331,0.391,19.536,-20.317,-3.126,15.629,21.880,1.563,-17.973,9.377,9.768,-33.993,-10.940,15.629
'[16:43:26.395 06/11/2076]',0.000,-10.940,-1.563,3.907,-16.801,4.298,-10.159,14.457,-3.516,10.549,7.424,11.722,-0.391,2.735,12.112,12.112,2.344,-16.410,2.344,18.364,-29.304,-8.596,12.112
'[16:43:26.398 06/11/2076]',-1.954,-19.927,3.516,3.907,-30.867,15.629,-12.503,14.066,-7.424,14.457,12.894,6.642,1.172,8.205,13.284,4.298,3.516,-15.238,-2.735,26.569,-31.648,-7.814,13.284
'[16:43:26.402 06/11/2076]',0.391,-25.006,8.987,2.735,-20.708,9.768,-11.331,11.331,-16.801,15.629,9.768,20.708,-5.861,13.675,3.907,16.801,1.172,-12.894,-8.205,33.993,-30.476,-1.563,3.907
'[16:43:26.406 06/11/2076]',1.172,-17.582,5.079,1.172,-0.781,-5.079,-10.549,7.424,0.000,11.722,5.470,25.006,8.596,-5.470,18.364,21.099,-1.563,-13.284,-4.298,27.741,-26.178,-17.973,18.364
'[16:43:26.410 06/11/2076]',18.364,-1.563,-1.954,1.563,27.350,-14.066,-9.377,13.675,-10.159,7.424,-1.172,5.079,-14.066,3.126,13.284,-1.563,-0.781,-21.490,2.735,8.596,-18.364,-11.722,13.284
'[16:43:26.414 06/11/2076]',-4.298,6.642,-1.563,5.470,12.112,-24.225,-6.642,26.569,-13.675,4.689,-14.457,0.781,-32.039,24.615,3.516,-19.536,-1.172,-26.178,2.344,-13.675,3.907,0.391,3.516
'[16:43:26.418 06/11/2076]',-15.629,6.642,3.126,-2.344,-5.470,-14.066,-0.391,13.284,21.490,0.781,-12.503,0.781,7.033,22.271,-1.563,-18.364,1.172,-21.880,-2.344,-9.377,11.331,1.172,-1.563
'[16:43:26.422 06/11/2076]',-4.298,5.861,5.861,-8.987,1.563,-5.861,-0.781,4.298,22.271,0.391,-9.377,-6.642,19.927,21.880,-12.112,-24.225,4.689,-24.225,-5.079,-4.298,15.238,6.252,-12.112
'[16:43:26.426 06/11/2076]',5.470,6.252,1.954,-10.159,4.689,4.689,-13.284,8.205,-1.954,6.252,-12.503,-13.284,-1.954,22.271,-12.112,-29.304,3.907,-32.039,-1.172,-5.470,7.033,10.159,-12.112
'[16:43:26.430 06/11/2076]',2.344,3.907,4.298,-15.238,-2.735,12.112,-15.629,1.563,-8.596,9.768,-13.675,-17.582,-9.377,13.675,-4.298,-30.476,5.079,-32.821,-3.516,-1.172,3.126,2.344,-4.298
'[16:43:26.434 06/11/2076]',7.814,5.079,5.079,-15.238,1.563,14.457,-9.377,-1.954,-6.642,10.549,-13.675,-20.708,-5.079,7.814,-10.159,-23.053,8.205,-29.304,-4.298,1.563,1.172,1.563,-10.159
'[16:43:26.438 06/11/2076]',-1.172,11.331,6.642,-12.112,-9.377,17.192,-5.079,2.344,18.364,3.516,-17.192,-20.317,7.424,8.596,-14.457,-17.582,4.689,-25.397,-5.861,-4.298,0.781,3.126,-14.457
'[16:43:26.441 06/11/2076]',-15.629,23.834,9.377,-16.801,-17.192,14.847,-2.344,5.861,53.529,-1.954,-15.629,-16.801,37.118,8.205,-9.377,-18.364,1.172,-18.364,-8.596,-16.020,3.126,3.907,-9.377
'[16:43:26.445 06/11/2076]',-33.993,26.178,12.503,-20.317,-33.211,13.284,1.954,2.344,51.575,-4.298,-8.596,-17.192,44.151,0.391,-6.642,-17.582,0.391,-10.940,-11.722,-14.066,4.689,1.172,-6.642
'[16:43:26.449 06/11/2076]',-17.973,20.317,17.192,-20.317,-21.099,12.503,3.907,3.126,31.258,-5.861,-3.907,-18.364,19.927,6.252,-5.470,-19.145,-2.735,-6.642,-16.410,-7.814,-1.563,5.470,-5.470
'[16:43:26.453 06/11/2076]',22.271,21.099,14.066,-23.053,17.973,12.112,2.344,2.735,-12.112,-3.126,-1.172,-13.675,-26.178,17.192,-5.861,-16.020,-5.079,-5.079,-13.284,-12.112,-4.298,11.331,-5.861
'[16:43:26.457 06/11/2076]',7.814,23.443,8.987,-24.225,0.781,11.722,5.079,-0.781,-37.900,0.781,2.735,-11.331,-42.979,19.927,-13.284,-8.987,-4.689,-3.126,-8.205,-15.238,-1.954,14.066,-13.284
'[16:43:26.461 06/11/2076]',1.954,26.178,2.735,-21.099,0.391,10.549,1.172,-1.563,-37.118,-1.172,6.642,-22.271,-43.370,28.132,-23.053,-15.629,-4.298,-0.781,-1.954,-14.847,-6.252,21.880,-23.053
'[16:43:26.465 06/11/2076]',3.516,27.350,2.344,-16.020,8.596,6.642,-0.781,2.344,-2.344,-5.079,5.470,-26.569,-15.629,26.960,-16.410,-23.053,-6.252,0.391,-1.563,-17.192,-3.907,17.582,-16.410
'[16:43:26.469 06/11/2076]',16.020,41.416,-12.894,-10.940,19.536,8.205,3.516,1.954,42.589,-11.331,4.689,-9.768,32.039,9.377,-7.424,-7.814,-6.642,4.298,13.675,-30.085,3.126,7.814,-7.424
'[16:43:26.473 06/11/2076]',-5.470,19.145,7.033,-8.596,-11.722,16.020,8.596,0.000,54.701,-14.847,4.689,-0.391,35.556,15.629,-5.861,-0.781,-5.470,10.159,-6.252,-8.205,8.205,7.814,-5.861
'[16:43:26.477 06/11/2076]',7.033,11.722,25.006,-4.298,0.391,12.112,11.722,15.629,39.072,-11.722,1.563,-7.814,7.424,32.039,1.954,-22.662,-2.735,8.596,-24.225,-12.503,21.490,12.112,1.954
'[16:43:26.480 06/11/2076]',15.238,20.708,24.615,-6.642,3.126,19.536,14.847,17.582,2.344,-5.079,9.768,-14.066,-20.708,33.993,8.205,-29.695,3.516,14.457,-23.834,-26.960,29.695,8.205,8.205
'[16:43:26.484 06/11/2076]',-24.225,13.284,37.900,-7.814,-26.960,19.927,18.364,8.596,-46.886,8.987,23.834,-4.298,-37.900,22.662,5.861,-8.987,8.205,28.132,-37.118,-6.252,18.755,7.424,5.861
'[16:43:26.488 06/11/2076]',-30.476,8.987,37.900,0.391,-25.006,16.801,16.020,9.377,-35.556,11.331,32.039,4.689,-14.066,-2.735,19.145,9.768,6.642,34.383,-37.118,1.172,8.205,-6.642,19.145
'[16:43:26.492 06/11/2076]',16.410,15.238,28.523,3.907,17.973,19.927,10.940,15.238,-4.298,3.516,35.165,6.642,3.126,3.907,22.662,12.503,2.735,33.602,-27.741,-8.596,4.298,-5.079,22.662
'[16:43:26.496 06/11/2076]',-0.391,11.331,24.615,8.205,-4.689,25.788,8.596,15.238,19.145,-4.298,35.946,12.112,9.768,10.159,23.443,20.317,-1.172,38.681,-23.834,-3.516,-0.781,-3.907,23.443
'[16:43:26.500 06/11/2076]',1.172,8.205,21.099,15.238,-8.596,28.523,12.894,13.675,37.900,-8.596,36.728,11.331,19.145,13.675,23.443,20.317,-1.563,44.542,-20.317,2.344,0.391,-5.861,23.443
'[16:43:26.504 06/11/2076]',23.834,17.192,16.020,18.755,23.053,23.053,16.410,14.847,39.072,-14.847,37.900,8.987,3.907,24.225,22.662,19.145,1.172,45.324,-15.238,-1.563,0.391,-1.563,22.662
'[16:43:26.508 06/11/2076]',17.192,23.443,14.457,17.973,16.801,25.397,18.364,13.284,18.755,-7.814,39.853,14.847,-10.159,21.099,26.178,28.132,7.424,47.668,-13.675,-5.861,-4.298,-0.391,26.178
'[16:43:26.512 06/11/2076]',-6.252,22.662,17.192,21.880,-1.563,23.053,23.053,10.940,0.391,3.907,41.026,16.801,-14.847,12.112,30.085,33.993,14.457,52.747,-16.410,-3.126,-5.861,-5.079,30.085
'[16:43:26.516 06/11/2076]',-14.457,26.960,19.927,26.960,-10.159,25.397,30.085,14.066,-12.112,10.940,39.463,14.457,-31.648,15.629,34.383,33.602,22.662,51.575,-19.145,-9.768,-7.033,-3.126,34.383
'[16:43:26.520 06/11/2076]',-31.648,27.350,23.834,26.569,-27.741,28.523,34.774,11.331,-34.774,20.317,36.728,20.317,-53.529,16.020,37.509,42.979,33.211,50.012,-23.053,-12.112,-7.424,-1.563,37.509
'[16:43:26.523 06/11/2076]',-52.357,15.629,27.350,30.476,-46.886,31.258,34.383,4.298,-48.449,32.430,36.337,23.053,-50.012,5.470,37.118,50.794,40.244,47.277,-26.569,0.391,-8.596,-4.689,37.118
'[16:43:26.527 06/11/2076]',-46.886,14.457,24.225,35.556,-38.681,28.913,32.821,4.689,-39.853,33.993,36.728,8.205,-39.853,3.907,39.072,35.556,44.933,40.635,-23.443,1.172,-5.861,-3.907,39.072
'[16:43:26.531 06/11/2076]',-30.476,19.536,23.834,36.337,-17.192,26.569,32.039,8.987,-25.788,31.258,37.509,-0.391,-33.211,12.503,42.589,21.099,50.403,39.072,-23.053,-3.907,-0.391,1.172,42.589
'[16:43:26.535 06/11/2076]',-4.298,19.145,26.178,38.291,5.079,28.913,36.337,9.377,7.424,31.648,38.291,15.238,7.424,9.377,43.370,32.821,48.449,46.886,-25.397,-3.126,6.252,2.735,43.370
'[16:43:26.539 06/11/2076]',24.615,29.304,28.132,40.635,40.244,21.099,42.979,17.973,31.258,24.225,34.774,29.304,25.006,11.722,48.449,35.165,44.933,50.403,-27.350,-15.629,16.801,7.814,48.449
'[16:43:26.543 06/11/2076]',7.424,41.416,36.337,35.165,23.834,23.834,48.449,24.615,22.662,22.662,36.728,9.768,-3.126,33.211,54.701,8.987,48.449,46.105,-35.556,-29.695,22.662,15.629,54.701
'[16:43:26.547 06/11/2076]',-8.596,35.946,45.714,33.211,0.391,32.821,45.714,28.132,7.424,26.569,37.509,7.814,-14.066,31.258,58.608,4.689,51.184,45.324,-44.933,-26.960,23.443,12.894,58.608
'[16:43:26.551 06/11/2076]',-15.629,24.615,47.668,39.463,-7.814,32.430,45.324,25.788,5.470,30.476,40.244,17.192,-2.735,17.582,56.654,21.880,48.449,46.105,-46.886,-11.722,15.629,8.205,56.654
'[16:43:26.555 06/11/2076]',-24.615,19.145,49.231,41.026,-17.973,33.602,43.761,25.397,6.252,34.774,40.635,14.457,7.033,12.503,53.138,23.834,46.886,44.151,-48.449,-8.596,19.145,8.596,53.138
'[16:43:26.559 06/11/2076]',-29.304,14.457,50.012,38.291,-21.099,32.821,32.821,29.695,9.377,34.774,34.774,17.582,10.940,10.549,51.966,22.271,42.198,37.900,-49.231,-8.596,24.225,8.596,51.966
'[16:43:26.563 06/11/2076]',-1.172,17.973,39.853,37.509,9.768,27.350,28.132,28.913,11.722,35.556,28.523,21.490,13.284,10.549,50.012,23.834,40.244,32.039,-39.072,-14.457,24.225,10.159,50.012
'[16:43:26.566 06/11/2076]',2.344,21.490,36.728,36.728,25.397,22.271,26.960,22.662,13.284,35.946,23.443,14.457,10.549,12.894,44.151,19.536,39.072,25.006,-35.946,-13.675,25.788,12.894,44.151
'[16:43:26.570 06/11/2076]',-12.894,19.145,33.993,32.039,12.503,21.490,21.880,17.192,3.516,39.463,19.145,8.205,0.000,20.317,39.072,12.894,40.244,16.410,-33.211,-11.722,29.304,12.503,39.072
'[16:43:26.574 06/11/2076]',-32.430,14.066,28.132,30.476,-6.252,17.582,16.801,12.894,12.894,39.072,16.410,12.894,8.205,21.880,33.602,17.582,37.900,11.331,-27.350,-7.033,23.443,16.410,33.602
'[16:43:26.578 06/11/2076]',-39.463,12.894,25.006,29.304,-11.722,15.629,15.629,8.596,21.490,33.602,12.112,5.079,13.675,23.053,26.569,9.768,35.946,8.987,-24.225,-3.907,25.788,17.582,26.569
'[16:43:26.582 06/11/2076]',-40.244,12.503,22.271,24.615,-16.020,15.238,11.331,9.377,15.629,30.476,9.768,-6.252,9.377,23.443,21.490,-4.298,32.821,5.861,-21.490,-3.907,30.476,16.020,21.490
'[16:43:26.586 06/11/2076]',-25.788,12.894,19.145,17.192,-7.424,18.364,6.252,6.642,26.569,19.927,10.159,0.391,19.927,16.801,17.973,3.516,25.397,5.470,-18.364,-0.781,24.615,14.457,17.973
'[16:43:26.590 06/11/2076]',-5.079,12.112,16.020,17.973,11.331,18.755,2.735,8.205,24.615,9.768,7.424,14.066,16.020,9.768,16.410,14.066,18.364,4.689,-15.238,3.907,18.755,13.675,16.410
'[16:43:26.594 06/11/2076]',1.172,10.159,14.066,16.801,16.020,12.112,0.391,14.847,19.927,12.112,4.689,1.172,12.503,18.364,13.284,-5.861,14.457,1.954,-13.284,0.391,23.834,12.503,13.284
'[16:43:26.598 06/11/2076]',-27.350,9.768,12.503,13.284,-19.145,8.205,0.781,19.145,8.987,14.847,2.735,-2.344,1.954,28.132,13.284,-18.755,14.066,0.391,-11.722,-4.298,27.350,12.503,13.284
'[16:43:26.602 06/11/2076]',-26.569,7.033,14.847,17.192,-16.801,0.000,8.596,21.880,-1.563,18.364,-1.172,21.880,1.563,28.132,8.987,-3.126,17.973,2.735,-14.066,-5.861,37.509,14.847,8.987
'[16:43:26.605 06/11/2076]',-1.563,10.549,16.801,9.768,5.079,-2.344,14.066,19.536,1.954,28.523,-1.563,15.238,16.410,36.337,5.079,-13.675,24.225,3.907,-16.020,-8.205,50.012,12.112,5.079
'[16:43:26.609 06/11/2076]',1.563,16.801,14.847,-0.781,1.563,3.126,8.596,18.755,7.424,30.867,2.735,-3.516,17.973,47.277,5.079,-32.821,26.178,-3.907,-14.066,-10.549,39.463,12.112,5.079
'[16:43:26.613 06/11/2076]',24.225,16.410,9.377,-3.516,18.755,10.940,-0.391,17.192,5.861,24.615,7.424,-1.563,12.503,44.933,4.298,-25.006,23.053,-5.470,-8.596,-1.172,14.847,10.940,4.298
'[16:43:26.617 06/11/2076]',49.231,13.675,5.470,-8.205,37.509,15.238,1.563,5.470,34.774,30.085,11.722,-0.781,40.244,48.840,0.781,-14.457,23.443,-0.781,-4.689,13.284,-7.814,7.814,0.781
'[16:43:26.621 06/11/2076]',45.714,14.066,0.391,-9.768,29.304,19.927,0.000,0.781,48.840,32.430,13.675,-1.954,50.794,55.092,-2.344,-8.596,26.178,-3.907,0.391,18.755,-24.225,8.596,-2.344
'[16:43:26.625 06/11/2076]',51.184,20.708,2.735,-9.377,38.291,25.397,-4.298,5.861,63.687,30.867,11.722,8.205,61.343,61.343,-6.252,0.000,30.476,-6.252,-1.954,13.284,-21.099,10.549,-6.252
'[16:43:26.629 06/11/2076]',94.945,32.821,8.987,-8.596,89.475,30.867,-0.391,8.596,78.144,35.556,10.549,13.284,72.674,71.502,-7.814,1.954,38.291,-1.172,-8.205,7.424,-9.768,10.549,-7.814
'[16:43:26.633 06/11/2076]',111.355,40.244,10.940,-6.642,107.448,35.946,0.781,10.940,82.833,42.979,12.503,7.033,86.349,76.190,-10.940,-3.126,44.933,0.000,-10.159,3.516,2.735,4.298,-10.940
'[16:43:26.637 06/11/2076]',141.050,48.840,9.377,-5.470,141.832,41.416,-1.172,12.112,96.899,39.072,12.112,11.722,91.819,81.661,-12.112,0.000,46.105,0.391,-8.596,0.391,5.861,4.689,-12.112
'[16:43:26.641 06/11/2076]',174.261,52.747,7.033,-3.907,178.950,43.370,-1.172,8.987,118.388,37.900,13.675,17.192,112.918,84.786,-12.112,3.126,44.542,0.391,-6.252,-0.781,10.549,5.470,-12.112
'[16:43:26.645 06/11/2076]',200.440,59.780,7.033,-9.377,212.161,42.198,0.391,2.344,144.176,35.556,15.238,5.470,131.673,91.429,-14.847,-5.470,45.324,0.000,-6.252,0.391,3.126,10.159,-14.847
'[16:43:26.648 06/11/2076]',223.492,69.548,5.470,-8.987,243.419,42.979,0.391,2.735,189.499,25.788,17.973,-0.391,168.400,93.773,-16.020,-11.722,44.151,1.563,-4.689,-2.344,1.563,12.503,-16.020
'[16:43:26.652 06/11/2076]',222.320,71.111,9.377,-7.424,244.982,43.370,5.470,1.563,203.175,20.317,17.582,17.582,190.672,82.051,-19.536,7.424,40.244,9.377,-8.596,0.781,7.814,6.642,-19.536
'[16:43:26.656 06/11/2076]',225.836,71.502,17.192,-5.079,242.247,49.231,14.847,2.735,205.519,26.960,17.973,30.476,205.910,77.753,-20.708,19.927,44.151,21.099,-16.410,2.344,17.192,0.391,-20.708
'[16:43:26.660 06/11/2076]',215.678,74.237,18.364,-1.954,223.101,54.701,20.317,8.205,200.830,33.211,17.582,14.066,202.002,87.912,-20.708,-0.391,48.449,23.834,-17.582,-4.689,25.788,1.172,-20.708
'[16:43:26.664 06/11/2076]',210.208,74.628,21.099,5.470,204.347,61.343,29.304,16.801,199.658,41.807,12.112,13.284,200.440,101.978,-17.973,-15.629,54.310,29.695,-20.317,-14.457,41.807,5.861,-17.973
'[16:43:26.668 06/11/2076]',253.578,76.581,28.132,-1.563,238.730,69.939,38.291,8.205,209.035,53.529,14.847,18.364,215.678,107.448,-14.847,-9.377,62.515,37.900,-27.350,-11.722,39.072,8.987,-14.847
'[16:43:26.672 06/11/2076]',304.371,84.005,28.913,-7.814,287.570,78.535,42.979,0.000,227.399,59.780,21.490,9.377,236.386,112.918,-17.973,-10.940,64.078,44.933,-28.132,-7.814,25.397,16.410,-17.973
'[16:43:26.676 06/11/2076]',320.391,85.958,24.225,-1.563,300.855,85.177,36.337,4.689,233.260,56.654,23.443,9.377,238.339,102.369,-8.205,-7.424,57.045,44.542,-23.443,-6.642,11.722,8.596,-8.205
'[16:43:26.680 06/11/2076]',318.437,84.396,21.099,-2.344,299.292,85.568,34.383,2.344,232.088,55.482,24.615,11.722,236.777,89.866,-3.516,2.344,54.701,46.886,-20.317,-5.079,5.470,0.391,-3.516
'[16:43:26.684 06/11/2076]',311.013,80.879,19.927,1.563,290.305,86.349,37.900,-0.391,236.777,58.217,26.569,10.159,250.061,77.363,-5.079,11.722,53.529,51.575,-19.145,-0.391,-1.954,-3.516,-5.079
'[16:43:26.688 06/11/2076]',302.808,75.409,17.582,8.987,283.663,81.661,37.900,2.344,254.750,50.403,24.225,11.722,258.266,73.455,-1.954,14.066,50.794,49.621,-16.801,-3.126,-2.735,-1.172,-1.954
'[16:43:26.691 06/11/2076]',303.980,70.720,20.317,6.642,286.007,77.753,33.602,5.079,286.007,46.105,21.880,17.192,279.365,77.363,1.954,14.847,51.184,47.277,-19.536,-7.424,0.391,3.516,1.954
'[16:43:26.695 06/11/2076]',317.265,67.204,21.490,3.126,298.120,75.800,32.821,3.126,299.683,47.668,24.225,14.847,289.524,79.316,6.252,12.894,55.092,48.840,-20.708,-7.033,-10.159,9.377,6.252
'[16:43:26.699 06/11/2076]',312.967,65.250,20.317,5.861,294.994,71.111,33.211,5.079,296.947,48.840,24.225,10.549,281.319,83.614,11.331,5.861,54.310,50.403,-19.536,-9.768,-10.940,10.940,11.331
'[16:43:26.703 06/11/2076]',298.901,60.562,19.927,8.596,279.756,67.595,33.993,7.424,289.524,54.310,23.053,19.145,275.849,82.833,18.755,9.377,52.357,50.403,-19.145,-15.629,-7.033,12.112,18.755
'[16:43:26.707 06/11/2076]',298.901,58.608,19.536,5.470,279.756,64.469,35.946,3.516,274.286,59.780,21.490,22.271,269.597,74.628,20.708,14.066,53.529,51.575,-18.755,-15.629,-9.768,14.066,20.708
'[16:43:26.711 06/11/2076]',305.543,50.794,18.364,6.252,286.007,59.389,36.728,-0.391,260.220,57.436,19.536,7.424,255.140,70.330,18.364,2.735,48.840,50.012,-17.582,-11.722,-11.722,12.112,18.364
'[16:43:26.715 06/11/2076]',286.398,41.807,14.066,9.768,266.081,55.092,31.648,0.000,252.015,53.529,17.582,-3.126,242.637,69.548,14.847,-5.470,44.542,42.589,-13.284,-7.814,-17.192,14.066,14.847
'[16:43:26.719 06/11/2076]',274.676,32.821,13.284,7.033,253.968,50.794,30.085,-7.033,243.028,51.966,11.722,8.987,243.419,55.092,9.768,8.596,46.496,36.728,-12.503,-3.126,-22.662,17.192,9.768
'[16:43:26.723 06/11/2076]',248.889,23.053,14.847,8.205,228.181,44.542,32.430,-9.377,230.525,48.449,6.642,11.722,224.664,52.747,7.814,14.066,44.933,33.993,-14.066,-1.954,-25.006,20.708,7.814
'[16:43:26.727 06/11/2076]',207.473,18.364,17.582,15.629,186.374,35.165,30.867,7.424,216.459,47.668,-2.344,-2.735,199.658,64.078,10.940,-15.629,39.853,21.490,-16.801,-21.880,-13.675,33.602,10.940
'[16:43:26.730 06/11/2076]',206.300,18.364,20.317,11.331,185.201,32.039,33.602,6.252,204.347,48.840,-7.033,-5.079,184.811,65.250,13.675,-22.271,37.900,20.317,-19.536,-31.648,-13.284,44.542,13.675
'[16:43:26.734 06/11/2076]',221.148,19.145,26.569,4.298,203.175,33.602,41.807,-6.642,201.221,48.059,-1.563,-3.516,178.559,55.092,23.443,-11.331,35.165,26.178,-25.788,-26.569,-27.741,48.059,23.443
'[16:43:26.738 06/11/2076]',216.459,15.629,30.476,2.735,198.095,41.807,39.072,-13.284,195.360,46.496,4.689,-0.781,170.354,42.589,32.039,1.563,29.304,29.695,-29.695,-19.927,-49.231,50.012,32.039
'[16:43:26.742 06/11/2076]',201.612,16.410,33.602,-1.172,183.248,48.059,33.211,-13.675,174.652,48.059,10.549,1.954,150.427,46.886,35.946,2.344,31.648,27.350,-32.821,-26.178,-59.389,64.469,35.946
'[16:43:26.746 06/11/2076]',188.718,12.894,35.165,-2.344,170.354,48.840,32.039,-17.192,157.460,46.496,14.457,7.033,133.236,36.728,50.794,5.861,31.258,29.695,-34.383,-29.695,-64.078,63.687,50.794
'[16:43:26.750 06/11/2076]',153.162,1.563,43.370,4.298,135.189,44.542,36.337,-12.503,141.050,40.635,16.020,8.205,116.825,27.350,55.092,7.814,29.304,34.383,-42.589,-31.258,-61.734,63.297,55.092
'[16:43:26.754 06/11/2076]',119.560,-7.424,41.807,13.675,103.541,37.118,37.118,-10.549,114.872,36.337,16.410,10.159,91.038,28.913,51.966,5.470,24.225,33.993,-41.026,-37.900,-53.138,73.455,51.966
'[16:43:26.758 06/11/2076]',91.819,-10.549,30.867,17.582,78.144,28.523,36.728,-13.675,98.852,28.913,13.675,17.973,71.111,18.755,57.827,12.894,17.973,32.430,-30.085,-44.542,-57.045,74.628,57.827
'[16:43:26.762 06/11/2076]',52.357,-18.755,26.178,20.708,42.198,21.880,32.430,-16.410,82.833,16.801,10.940,17.973,48.059,7.033,57.827,16.020,11.722,30.867,-25.397,-42.589,-63.297,71.893,57.827
'[16:43:26.766 06/11/2076]',15.238,-20.708,16.801,24.225,8.205,16.410,28.523,-17.582,60.952,10.159,9.377,16.410,22.271,-0.391,60.171,16.410,8.596,26.569,-16.020,-51.966,-64.469,71.111,60.171
'[16:43:26.770 06/11/2076]',-15.629,-25.006,16.410,21.490,-20.708,12.894,26.960,-22.271,37.900,3.516,8.987,24.225,1.954,-16.801,63.297,28.132,4.298,23.443,-15.629,-56.264,-62.125,62.906,63.297
'[16:43:26.773 06/11/2076]',-41.807,-35.165,28.132,16.410,-41.807,8.596,26.569,-26.178,19.145,-2.344,10.940,28.913,-10.940,-28.523,58.217,39.072,-0.781,24.615,-27.350,-50.403,-64.860,64.078,58.217
'[16:43:26.777 06/11/2076]',-71.893,-42.198,30.476,21.880,-62.515,0.391,22.662,-21.880,-7.814,-5.079,12.503,16.801,-38.681,-26.178,52.747,29.695,-8.205,22.662,-29.695,-58.217,-62.125,75.800,52.747
'[16:43:26.781 06/11/2076]',-98.852,-51.575,30.085,19.145,-81.661,-9.768,17.582,-26.178,-39.072,-7.033,12.503,6.642,-69.939,-23.834,49.231,17.973,-14.066,18.755,-29.304,-61.734,-56.654,84.005,49.231
'[16:43:26.785 06/11/2076]',-118.388,-57.827,24.615,13.284,-99.634,-23.053,18.364,-32.821,-63.687,-11.331,10.159,19.927,-82.833,-21.490,30.085,29.304,-18.364,19.536,-23.834,-62.906,-56.654,99.634,30.085
'[16:43:26.789 06/11/2076]',-147.302,-68.767,15.238,16.801,-125.421,-33.211,11.722,-35.556,-80.879,-14.847,0.781,25.006,-100.415,-37.509,40.244,28.132,-23.443,13.284,-14.457,-70.720,-43.761,91.429,40.244
'[16:43:26.793 06/11/2076]',-171.917,-69.548,17.582,2.344,-152.381,-32.821,9.768,-44.151,-96.508,-19.145,1.172,-3.516,-131.282,-39.853,53.529,-1.172,-23.053,3.516,-16.801,-78.535,-38.681,82.051,53.529
'[16:43:26.797 06/11/2076]',-189.109,-65.250,24.225,-5.470,-167.619,-28.132,8.205,-48.059,-107.448,-28.913,1.563,-12.503,-148.083,-46.496,48.449,-0.781,-23.443,3.126,-23.443,-81.270,-39.072,76.972,48.449
'[16:43:26.801 06/11/2076]',-207.863,-66.813,21.490,-7.033,-179.341,-26.178,8.205,-63.297,-116.435,-35.165,4.298,-10.940,-151.600,-65.641,42.198,16.410,-31.258,4.298,-20.708,-69.548,-49.621,71.111,42.198
'[16:43:26.805 06/11/2076]',-219.585,-64.078,22.662,-11.331,-184.029,-25.788,9.768,-71.893,-122.295,-40.635,7.814,-19.927,-159.414,-67.595,33.211,19.145,-35.556,3.516,-21.880,-67.595,-51.575,75.018,33.211
'[16:43:26.809 06/11/2076]',-234.823,-66.813,18.364,-15.629,-198.486,-30.476,3.907,-73.846,-140.269,-48.449,5.470,-20.317,-171.136,-67.204,18.364,16.410,-40.244,-1.563,-17.582,-67.595,-44.933,79.707,18.364
'[16:43:26.813 06/11/2076]',-250.842,-64.469,13.284,-22.662,-219.585,-32.039,5.079,-77.753,-146.911,-54.310,3.907,-16.020,-173.089,-74.237,18.364,15.238,-44.933,-3.907,-12.503,-71.502,-47.277,80.488,18.364
'[16:43:26.816 06/11/2076]',-266.081,-71.111,14.457,-21.099,-237.167,-34.383,7.033,-78.535,-153.944,-55.092,2.735,-25.006,-181.294,-77.753,26.569,2.344,-45.714,-5.470,-13.675,-70.330,-41.026,74.628,26.569
'[16:43:26.820 06/11/2076]',-280.928,-73.065,26.960,-25.788,-254.359,-37.900,11.331,-71.502,-162.540,-55.482,2.735,-25.788,-185.201,-84.396,26.178,2.344,-48.059,-7.033,-26.178,-72.674,-31.258,65.250,26.178
'[16:43:26.824 06/11/2076]',-289.915,-73.065,28.523,-24.225,-265.299,-39.072,10.549,-64.860,-169.182,-57.436,0.781,-14.066,-182.076,-91.819,21.880,11.722,-52.357,-9.377,-27.741,-70.330,-29.304,61.734,21.880
'[16:43:26.828 06/11/2076]',-292.650,-82.051,30.867,-17.192,-269.206,-45.324,14.457,-59.780,-175.824,-57.827,-3.516,-19.145,-185.592,-87.521,8.596,7.033,-54.310,-13.675,-30.085,-60.952,-23.834,64.860,8.596
'[16:43:26.832 06/11/2076]',-289.915,-88.694,36.337,-15.629,-268.425,-49.621,14.066,-53.138,-183.639,-57.436,-7.033,-28.523,-187.546,-81.661,-4.689,-3.516,-55.873,-18.755,-35.556,-49.621,-16.410,63.687,-4.689
'[16:43:26.836 06/11/2076]',-283.663,-81.661,26.178,-16.410,-264.127,-55.873,17.973,-53.529,-184.811,-55.873,-9.768,-18.364,-177.387,-82.051,-10.159,0.391,-59.389,-21.099,-25.397,-46.105,-25.397,71.893,-10.159
'[16:43:26.840 06/11/2076]',-280.147,-80.098,28.523,-19.927,-260.220,-61.343,22.271,-51.575,-184.420,-57.436,-14.066,-7.424,-177.778,-71.111,-22.271,7.033,-64.469,-21.099,-27.741,-41.807,-29.695,84.396,-22.271
'[16:43:26.844 06/11/2076]',-289.133,-75.409,30.476,-19.927,-274.286,-65.641,23.053,-37.118,-205.519,-48.059,-17.973,-21.880,-196.923,-80.879,-0.781,-16.020,-69.939,-25.788,-29.695,-54.701,-21.490,67.985,-0.781
'[16:43:26.848 06/11/2076]',-296.947,-66.032,20.317,-22.271,-290.305,-65.250,22.662,-31.648,-203.956,-43.761,-24.615,-29.695,-200.830,-78.926,8.205,-31.648,-72.283,-28.913,-19.536,-69.548,-10.940,61.343,8.205
'[16:43:26.852 06/11/2076]',-306.325,-91.038,32.430,-19.145,-303.980,-66.422,19.927,-32.821,-217.241,-40.635,-36.728,-7.814,-207.082,-74.628,-4.298,-16.410,-76.581,-28.913,-31.648,-52.747,7.424,64.860,-4.298
'[16:43:26.855 06/11/2076]',-293.822,-98.852,36.728,-17.582,-287.961,-67.985,16.801,-32.821,-207.082,-37.509,-39.463,-16.020,-196.923,-73.065,-4.298,-25.397,-75.800,-32.430,-35.946,-46.886,22.271,57.827,-4.298
'[16:43:26.859 06/11/2076]',-282.882,-98.071,38.291,-21.490,-259.048,-76.190,6.642,-35.165,-184.029,-39.463,-39.072,-37.118,-186.374,-64.078,-3.907,-45.714,-73.065,-41.416,-37.509,-43.370,26.569,59.389,-3.907
'[16:43:26.863 06/11/2076]',-271.160,-92.210,35.165,-18.755,-232.088,-81.270,-0.391,-31.648,-168.010,-45.714,-38.681,-33.211,-174.261,-62.906,-8.596,-40.244,-76.190,-44.542,-34.383,-34.383,13.675,66.032,-8.596
'[16:43:26.867 06/11/2076]',-265.299,-78.144,30.085,-17.973,-215.287,-89.084,5.079,-31.258,-151.990,-49.231,-32.821,-33.602,-160.195,-80.879,6.642,-34.383,-77.363,-43.370,-29.304,-34.774,4.298,50.794,6.642
'[16:43:26.871 06/11/2076]',-273.114,-73.065,26.960,-15.238,-224.664,-86.349,6.642,-29.304,-148.474,-49.231,-31.648,-32.039,-156.679,-94.164,21.490,-33.211,-78.535,-46.496,-26.178,-31.648,-1.954,42.589,21.490
'[16:43:26.875 06/11/2076]',-271.941,-68.376,22.662,-16.020,-228.181,-83.614,3.907,-25.006,-152.772,-50.794,-35.556,-22.271,-163.712,-92.210,26.569,-32.821,-81.270,-49.621,-21.880,-33.993,-0.781,44.542,26.569
'[16:43:26.879 06/11/2076]',-266.471,-68.376,16.410,-18.364,-226.618,-86.349,4.689,-27.741,-141.832,-53.138,-38.291,-20.317,-157.460,-86.349,24.225,-35.165,-81.270,-50.403,-15.629,-32.430,0.781,44.933,24.225
'[16:43:26.883 06/11/2076]',-259.829,-80.098,18.755,-22.271,-218.803,-89.475,0.781,-34.383,-134.408,-54.701,-39.463,-30.867,-154.725,-82.833,19.927,-42.979,-79.707,-53.919,-17.973,-22.271,5.861,42.979,19.927
'[16:43:26.887 06/11/2076]',-259.829,-76.972,9.768,-28.523,-220.757,-88.694,-5.861,-39.072,-143.394,-54.310,-42.198,-33.211,-165.665,-78.144,10.549,-41.807,-77.363,-58.217,-8.987,-27.350,7.424,45.714,10.549
'[16:43:26.891 06/11/2076]',-261.783,-74.237,1.563,-30.867,-228.181,-85.958,-9.377,-39.072,-145.739,-49.621,-43.761,-32.039,-164.884,-77.363,3.907,-34.774,-73.455,-60.171,-0.781,-29.695,2.735,47.277,3.907
'[16:43:26.895 06/11/2076]',-249.670,-77.363,9.377,-34.774,-218.022,-78.144,-15.629,-38.681,-159.023,-43.370,-43.370,-47.277,-174.261,-72.674,-1.954,-44.151,-68.376,-59.780,-8.596,-23.053,3.126,47.277,-1.954
'[16:43:26.898 06/11/2076]',-243.028,-71.502,3.516,-34.774,-214.505,-71.111,-23.443,-34.774,-184.811,-35.165,-41.416,-58.217,-192.234,-67.985,-5.861,-53.529,-66.032,-58.999,-2.735,-21.099,0.000,47.668,-5.861
'[16:43:26.902 06/11/2076]',-230.134,-67.985,-3.516,-32.039,-205.910,-71.111,-26.569,-28.913,-144.567,-36.728,-44.151,-45.324,-151.209,-65.250,-13.284,-41.026,-65.250,-54.701,4.298,-16.410,-2.344,47.668,-13.284
'[16:43:26.906 06/11/2076]',-222.320,-71.502,-7.033,-26.569,-197.705,-76.581,-26.960,-25.006,-117.216,-39.853,-44.933,-40.635,-125.421,-57.827,-18.755,-41.416,-64.860,-49.231,7.814,-8.987,7.033,50.012,-18.755
'[16:43:26.910 06/11/2076]',-227.790,-69.548,-15.238,-23.834,-208.254,-82.051,-30.476,-15.238,-109.402,-44.542,-47.277,-57.827,-126.984,-48.449,-14.066,-69.939,-63.687,-53.919,16.020,-17.582,21.099,47.277,-14.066
'[16:43:26.914 06/11/2076]',-239.512,-68.376,-21.099,-17.192,-223.492,-91.819,-29.695,-0.781,-105.495,-47.668,-54.310,-60.952,-130.501,-40.635,-9.377,-89.084,-59.389,-54.310,21.880,-30.867,35.556,48.840,-9.377
'[16:43:26.918 06/11/2076]',-231.306,-73.455,-16.020,-17.973,-210.989,-92.601,-28.132,-7.424,-111.355,-41.807,-50.794,-55.482,-125.031,-41.026,-8.596,-85.568,-53.529,-49.231,16.801,-20.317,44.151,48.059,-8.596
'[16:43:26.922 06/11/2076]',-216.068,-78.535,-12.112,-24.615,-189.890,-89.084,-34.774,-17.582,-119.951,-37.900,-45.714,-59.389,-121.123,-50.012,-9.377,-82.833,-51.184,-50.794,12.894,-4.689,41.026,39.853,-9.377
'[16:43:26.926 06/11/2076]',-207.863,-77.753,-19.536,-21.099,-177.778,-84.005,-51.575,-12.503,-116.825,-39.463,-46.886,-60.562,-121.123,-50.403,-12.112,-80.098,-52.357,-59.389,20.317,-0.781,32.039,39.072,-12.112
'[16:43:26.930 06/11/2076]',-207.082,-72.674,-26.569,-21.490,-180.122,-78.926,-57.827,-11.331,-109.402,-38.681,-46.886,-53.138,-108.230,-54.310,-18.755,-67.204,-50.012,-64.078,27.350,2.344,23.834,38.291,-18.755
'[16:43:26.934 06/11/2076]',-209.035,-71.502,-28.132,-17.192,-190.672,-71.502,-56.264,-7.424,-112.527,-40.244,-46.496,-49.231,-113.700,-58.608,-21.880,-54.310,-48.449,-62.515,28.913,8.205,15.629,32.821,-21.880
'[16:43:26.938 06/11/2076]',-223.883,-69.158,-31.258,-8.596,-214.505,-66.032,-55.092,2.344,-120.342,-41.807,-48.449,-44.933,-123.468,-60.952,-23.834,-48.449,-48.059,-66.813,32.039,1.172,19.536,32.821,-23.834
'[16:43:26.941 06/11/2076]',-227.790,-60.952,-33.211,-7.033,-223.492,-66.032,-51.966,12.503,-129.719,-41.026,-49.621,-33.602,-128.547,-59.389,-25.397,-41.026,-49.231,-67.595,33.993,-6.642,24.225,33.993,-25.397
'[16:43:26.945 06/11/2076]',-216.068,-72.674,-21.880,-4.689,-205.128,-69.548,-55.873,14.066,-133.236,-42.979,-47.277,-32.039,-131.673,-62.906,-23.053,-38.681,-53.529,-64.469,22.662,6.642,27.350,28.913,-23.053
'[16:43:26.949 06/11/2076]',-204.347,-74.237,-21.099,-0.391,-181.294,-78.926,-59.389,18.755,-114.090,-50.403,-47.277,-36.337,-120.342,-63.297,-22.662,-42.979,-60.171,-67.985,21.880,5.861,35.165,26.178,-22.662
'[16:43:26.953 06/11/2076]',-195.751,-75.409,-21.880,0.000,-167.619,-86.740,-61.734,22.271,-96.508,-57.045,-48.059,-26.569,-106.276,-64.469,-22.271,-36.337,-67.985,-69.158,22.662,7.033,38.681,24.225,-22.271
'[16:43:26.957 06/11/2076]',-192.625,-74.628,-21.880,-0.391,-166.056,-87.131,-60.171,22.662,-88.694,-61.343,-44.542,-17.973,-95.726,-68.767,-22.662,-25.397,-69.548,-66.032,22.662,10.940,36.337,22.662,-22.662
'[16:43:26.961 06/11/2076]',-195.751,-65.641,-23.443,0.000,-176.215,-81.661,-53.138,25.006,-86.740,-58.608,-38.291,-30.476,-93.773,-64.469,-21.880,-34.774,-66.422,-63.687,24.225,8.596,31.648,22.271,-21.880
'[16:43:26.965 06/11/2076]',-197.705,-56.264,-22.271,1.172,-185.983,-76.190,-44.933,32.039,-95.336,-53.529,-34.774,-36.728,-101.587,-55.873,-18.364,-45.324,-62.515,-55.482,23.053,6.642,28.132,22.271,-18.364
'[16:43:26.969 06/11/2076]',-193.407,-54.310,-19.145,4.298,-194.188,-67.595,-35.556,34.774,-105.885,-47.668,-32.821,-16.801,-98.852,-51.966,-24.615,-28.913,-54.701,-43.370,19.927,10.549,28.523,25.788,-24.615
'[16:43:26.973 06/11/2076]',-190.281,-53.138,-16.020,5.861,-196.532,-66.032,-26.178,34.774,-109.792,-42.979,-32.821,-8.596,-96.508,-55.482,-19.145,-23.834,-48.840,-33.993,16.801,8.596,35.556,17.973,-19.145
'[16:43:26.977 06/11/2076]',-193.407,-55.873,-10.940,11.331,-203.175,-67.204,-27.741,50.012,-120.342,-40.244,-39.853,-22.271,-116.435,-41.026,-10.549,-55.873,-45.714,-37.900,11.722,-5.470,52.747,17.192,-10.549
'[16:43:26.980 06/11/2076]',-188.327,-60.952,-11.722,9.377,-205.128,-65.641,-29.695,49.231,-126.984,-40.635,-39.853,-18.755,-120.342,-41.026,-9.768,-55.873,-42.198,-38.681,12.503,-4.298,51.184,15.629,-9.768
'[16:43:26.984 06/11/2076]',-182.857,-62.906,-13.284,4.689,-198.486,-65.641,-23.834,32.821,-125.031,-39.853,-32.039,-16.020,-107.057,-51.575,-13.284,-41.026,-40.635,-34.774,14.066,3.907,44.151,9.768,-13.284
'[16:43:26.988 06/11/2076]',-176.996,-61.343,-12.894,1.954,-185.201,-62.125,-26.178,25.788,-125.812,-40.244,-25.397,-13.284,-102.759,-58.608,-16.410,-28.132,-41.807,-30.085,13.675,15.629,26.569,5.470,-16.410
'[16:43:26.992 06/11/2076]',-173.871,-52.747,-15.629,1.563,-180.904,-57.436,-32.430,30.476,-132.454,-41.416,-23.443,-11.722,-108.230,-60.952,-14.847,-24.615,-40.635,-31.648,16.410,13.284,13.675,5.861,-14.847
'[16:43:26.996 06/11/2076]',-171.917,-42.589,-16.801,0.000,-180.513,-51.184,-31.258,30.867,-133.626,-40.244,-18.364,-7.814,-103.541,-60.952,-16.801,-19.145,-35.946,-29.304,17.582,7.814,12.503,5.861,-16.801
'[16:43:27.000 06/11/2076]',-180.904,-39.072,-20.708,7.424,-190.281,-47.668,-26.569,32.821,-141.050,-41.026,-16.801,-11.722,-109.011,-67.985,-14.066,-20.708,-32.430,-26.178,21.490,8.205,14.847,-1.954,-14.066
'[16:43:27.004 06/11/2076]',-183.639,-39.072,-16.410,12.112,-192.234,-45.324,-26.960,37.900,-142.222,-39.853,-17.582,-15.629,-114.090,-69.158,-5.470,-27.350,-28.523,-30.476,17.192,8.596,17.973,-3.516,-5.470
'[16:43:27.008 06/11/2076]',-178.168,-42.589,-13.675,12.894,-187.546,-41.416,-28.523,35.946,-129.328,-42.589,-15.238,-14.847,-104.713,-61.343,-9.768,-26.178,-28.913,-35.165,14.457,13.675,20.317,3.126,-9.768
'[16:43:27.012 06/11/2076]',-182.857,-48.449,-9.377,12.894,-189.499,-41.026,-26.960,30.476,-117.998,-45.324,-14.066,-20.317,-99.243,-58.608,-9.768,-30.476,-30.476,-35.556,10.159,21.099,26.178,2.735,-9.768
'[16:43:27.016 06/11/2076]',-182.076,-44.542,-9.768,10.940,-185.983,-42.198,-26.569,29.304,-108.620,-46.105,-13.675,-26.960,-101.587,-48.840,-6.642,-39.072,-30.476,-35.946,10.549,19.927,26.178,3.907,-6.642
'[16:43:27.020 06/11/2076]',-171.136,-38.681,-4.298,5.861,-171.136,-43.370,-21.880,28.132,-96.508,-47.668,-8.987,-17.582,-93.773,-43.370,-2.344,-30.476,-31.258,-33.993,5.079,15.629,27.741,6.252,-2.344
'[16:43:27.023 06/11/2076]',-165.665,-38.681,-5.079,1.954,-165.665,-41.026,-19.927,19.536,-93.382,-50.403,-5.079,-8.596,-85.958,-49.621,-1.954,-19.536,-32.821,-29.304,5.861,20.708,25.788,1.563,-1.954
'[16:43:27.027 06/11/2076]',-160.195,-31.258,-3.907,7.424,-151.990,-41.807,-21.099,28.132,-102.759,-50.794,-2.344,-19.927,-99.634,-48.449,1.172,-30.867,-35.165,-29.304,4.689,14.457,26.178,0.391,1.172
'[16:43:27.031 06/11/2076]',-154.335,-26.178,0.000,13.675,-137.924,-43.370,-23.834,38.681,-105.885,-50.794,-0.781,-24.615,-105.885,-46.496,6.642,-38.291,-35.165,-30.476,0.781,7.814,28.132,2.735,6.642
'[16:43:27.035 06/11/2076]',-153.553,-25.006,-10.159,18.755,-134.017,-46.105,-21.099,32.039,-105.495,-48.059,-1.172,-13.675,-97.680,-46.496,1.172,-25.788,-33.993,-24.225,10.940,10.940,30.476,6.642,1.172
'[16:43:27.039 06/11/2076]',-155.507,-22.662,-13.675,25.006,-132.845,-52.357,-16.020,34.383,-105.495,-46.886,-4.689,-5.079,-102.369,-43.761,2.344,-20.317,-30.085,-22.662,14.457,0.781,43.370,10.549,2.344
'[16:43:27.043 06/11/2076]',-160.586,-12.503,-18.364,22.271,-136.361,-50.012,-14.847,31.258,-94.945,-41.807,-1.172,-27.741,-100.415,-35.556,8.987,-39.853,-19.927,-23.443,19.145,-10.940,48.840,10.159,8.987
'[16:43:27.047 06/11/2076]',-153.553,-3.516,-14.066,11.722,-131.673,-36.728,-11.331,21.490,-81.270,-35.946,5.079,-36.728,-91.429,-35.556,17.582,-40.244,-9.768,-16.020,14.847,-16.801,42.589,7.033,17.582
'[16:43:27.051 06/11/2076]',-141.441,-5.861,-1.172,12.112,-122.295,-19.927,-8.205,14.457,-81.270,-33.993,14.066,-26.178,-84.786,-51.966,24.225,-16.020,-6.252,-6.252,1.954,-1.954,27.741,-3.126,24.225
'[16:43:27.055 06/11/2076]',-140.269,-10.159,7.424,13.284,-123.077,-8.205,-11.722,14.457,-82.051,-28.132,21.880,-25.006,-79.316,-55.482,25.397,-5.470,-5.470,1.172,-6.642,4.689,18.364,-5.470,25.397
'[16:43:27.059 06/11/2076]',-137.534,-5.470,12.503,14.066,-118.779,-4.689,-14.457,22.662,-78.926,-23.443,25.788,-13.284,-75.018,-45.714,30.476,-0.391,-5.470,7.814,-11.722,0.000,13.284,-0.781,30.476
'[16:43:27.063 06/11/2076]',-117.216,-8.205,1.954,21.099,-94.945,-5.470,-19.927,19.536,-75.018,-23.834,27.741,0.000,-71.111,-30.085,22.662,6.642,-6.252,17.192,-1.172,1.954,8.205,9.377,22.662
'[16:43:27.066 06/11/2076]',-108.620,-6.642,-7.424,17.582,-88.303,-8.987,-19.145,12.894,-84.396,-25.006,29.695,0.391,-75.018,-21.490,9.768,6.642,-5.861,20.708,8.205,-1.563,6.642,17.192,9.768
'[16:43:27.070 06/11/2076]',-100.415,-0.781,-12.503,19.927,-81.661,-8.987,-17.582,16.410,-92.601,-20.708,33.993,3.516,-73.846,-33.211,21.099,8.987,-3.907,23.053,13.284,-8.987,1.563,7.033,21.099
'[16:43:27.074 06/11/2076]',-90.256,0.781,-23.443,16.801,-78.144,-9.377,-16.020,8.987,-94.554,-24.615,30.476,11.722,-80.098,-32.039,14.847,20.317,-2.735,19.927,24.225,-14.457,-5.861,12.112,14.847
'[16:43:27.078 06/11/2076]',-85.958,-9.768,-17.192,16.020,-86.740,-8.205,-12.503,11.331,-115.263,-26.960,29.304,8.987,-95.336,-51.575,20.317,22.271,-1.563,16.801,17.973,-7.424,-10.159,-2.344,20.317
'[16:43:27.082 06/11/2076]',-84.786,-19.927,-16.020,19.927,-88.303,-13.675,-14.457,16.410,-96.508,-25.788,26.960,5.079,-76.190,-53.919,21.880,17.582,-2.344,13.284,16.801,1.172,-13.284,-12.894,21.880
'[16:43:27.086 06/11/2076]',-79.707,-25.006,-16.410,16.410,-78.535,-18.364,-17.973,10.940,-65.641,-33.993,23.443,17.582,-54.701,-47.277,7.814,34.774,-5.079,13.675,17.192,10.549,-16.801,-11.331,7.814
'[16:43:27.090 06/11/2076]',-71.893,-29.695,-14.457,14.847,-68.767,-21.099,-19.536,9.377,-49.231,-42.979,17.973,34.383,-41.026,-50.403,-3.126,54.310,-11.331,13.675,15.238,19.927,-17.582,-16.801,-3.126
'[16:43:27.094 06/11/2076]',-82.051,-22.662,-6.252,11.331,-74.628,-23.053,-22.662,21.490,-49.231,-45.324,11.331,27.350,-44.151,-50.403,-1.563,39.853,-18.364,7.814,7.033,10.159,-11.722,-20.708,-1.563
'[16:43:27.098 06/11/2076]',-98.852,-11.722,-9.768,12.112,-83.223,-28.132,-23.834,28.132,-49.231,-46.886,2.735,25.006,-60.562,-37.900,-3.126,32.821,-26.960,5.079,10.549,-8.205,-6.252,-10.549,-3.126
'[16:43:27.102 06/11/2076]',-107.057,-14.066,-10.549,17.192,-86.349,-39.072,-17.973,29.304,-60.952,-46.496,-7.424,47.668,-71.111,-39.463,-7.033,50.403,-36.728,6.252,11.331,-13.675,5.079,-5.470,-7.033
'[16:43:27.105 06/11/2076]',-114.481,-16.801,-18.364,14.847,-91.038,-45.324,-22.662,25.397,-73.846,-46.496,-15.238,46.496,-79.316,-45.324,-11.331,46.886,-44.542,2.735,19.145,-11.722,6.252,-8.205,-11.331
'[16:43:27.109 06/11/2076]',-128.156,-14.847,-31.258,8.987,-103.932,-50.794,-31.258,21.880,-90.256,-53.138,-14.457,24.225,-101.978,-44.151,-14.847,27.350,-50.012,-8.596,32.039,-16.801,0.391,-8.205,-14.847
'[16:43:27.113 06/11/2076]',-126.593,-16.410,-40.635,5.470,-102.369,-50.403,-39.853,16.020,-102.369,-57.436,-9.377,28.913,-108.230,-55.873,-15.238,38.681,-53.138,-12.112,41.416,-7.033,-20.317,-15.629,-15.238
'[16:43:27.117 06/11/2076]',-125.812,-21.880,-35.165,-1.563,-113.309,-43.761,-37.118,9.377,-116.435,-57.827,-5.079,29.695,-109.011,-72.674,-16.410,47.668,-50.794,-12.503,35.946,3.907,-32.039,-28.523,-16.410
'[16:43:27.121 06/11/2076]',-122.295,-16.020,-34.774,-4.689,-117.216,-34.774,-35.556,10.159,-122.686,-55.873,-1.172,26.178,-110.574,-77.753,-13.284,47.668,-47.277,-14.066,35.556,0.391,-39.072,-31.648,-13.284
'[16:43:27.125 06/11/2076]',-112.527,-21.880,-36.728,-6.642,-111.355,-32.039,-43.370,8.596,-122.295,-53.529,-2.735,31.648,-104.713,-75.409,-13.675,47.277,-48.059,-14.457,37.509,3.126,-39.072,-31.648,-13.675
'[16:43:27.129 06/11/2076]',-100.806,-25.788,-45.324,-10.549,-102.759,-32.039,-48.059,0.391,-119.951,-50.794,-7.424,27.741,-98.462,-71.893,-19.145,39.072,-45.324,-16.020,46.105,5.861,-35.946,-29.695,-19.145
'[16:43:27.133 06/11/2076]',-96.117,-22.662,-50.403,-6.642,-100.024,-28.523,-48.840,1.172,-117.607,-47.668,-8.596,16.410,-97.680,-67.985,-21.099,28.913,-39.853,-20.708,51.184,2.344,-36.337,-25.788,-21.099
'[16:43:27.137 06/11/2076]',-94.554,-23.834,-53.919,-8.987,-98.462,-25.788,-53.138,-4.298,-116.044,-43.761,-7.424,14.066,-92.991,-66.422,-23.443,29.695,-32.821,-23.834,54.701,1.954,-37.509,-22.271,-23.443
'[16:43:27.141 06/11/2076]',-92.210,-26.569,-50.012,-6.252,-94.164,-24.225,-50.403,-6.252,-107.839,-35.556,-4.689,22.662,-82.051,-61.734,-21.880,40.244,-24.225,-22.271,50.794,2.735,-37.900,-15.238,-21.880
'[16:43:27.145 06/11/2076]',-90.647,-21.880,-40.635,-9.768,-94.164,-18.364,-44.933,-5.861,-103.932,-31.258,-1.563,9.768,-78.144,-62.125,-18.755,31.258,-16.801,-21.880,41.416,1.563,-34.774,-19.145,-18.755
'[16:43:27.148 06/11/2076]',-87.521,-21.880,-44.542,-12.112,-94.164,-16.020,-46.105,-10.159,-102.759,-29.695,0.000,-3.126,-77.363,-63.687,-15.238,20.708,-13.675,-23.443,45.324,3.907,-33.602,-25.788,-15.238
'[16:43:27.152 06/11/2076]',-69.158,-22.662,-53.919,-11.331,-80.879,-16.020,-43.370,-16.801,-96.899,-27.741,-4.298,8.205,-64.078,-69.939,-17.973,31.258,-14.066,-22.271,54.701,7.814,-32.039,-29.695,-17.973
'[16:43:27.156 06/11/2076]',-62.125,-23.053,-62.906,-10.159,-82.442,-17.582,-37.900,-20.708,-90.256,-35.946,-11.722,12.112,-60.562,-76.190,-25.788,36.728,-13.284,-26.178,63.687,10.940,-29.304,-33.211,-25.788
'[16:43:27.160 06/11/2076]',-66.813,-32.821,-62.515,-12.112,-92.991,-17.973,-40.635,-22.662,-89.084,-43.370,-20.317,-8.596,-73.065,-67.595,-33.602,12.112,-13.675,-33.993,63.297,11.331,-19.536,-29.695,-33.602
'[16:43:27.164 06/11/2076]',-73.846,-37.900,-59.780,-11.722,-98.462,-22.662,-38.681,-23.053,-83.223,-44.542,-28.913,-14.847,-69.158,-59.780,-41.807,-0.781,-12.894,-35.165,60.562,5.079,-3.907,-22.662,-41.807
'[16:43:27.168 06/11/2076]',-77.363,-42.198,-42.979,-17.582,-98.462,-23.834,-30.085,-27.350,-73.846,-46.105,-31.648,-6.642,-66.422,-57.436,-44.542,8.987,-11.331,-29.695,43.761,8.987,0.781,-23.053,-44.542
'[16:43:27.172 06/11/2076]',-83.223,-42.198,-36.337,-24.225,-98.852,-21.490,-26.569,-39.463,-70.330,-38.291,-25.788,-19.927,-57.436,-59.780,-44.542,6.642,-12.112,-26.569,37.118,14.847,0.391,-25.397,-44.542
'[16:43:27.176 06/11/2076]',-76.190,-36.337,-41.026,-23.053,-83.223,-21.880,-35.946,-35.946,-75.800,-32.821,-23.053,-23.053,-64.469,-60.171,-35.165,4.298,-14.457,-30.867,41.807,9.377,-7.424,-27.741,-35.165
'[16:43:27.180 06/11/2076]',-70.720,-34.383,-42.589,-24.615,-76.581,-23.834,-37.118,-34.383,-78.926,-33.211,-21.880,-21.099,-73.065,-63.687,-30.085,10.940,-14.066,-31.258,43.370,9.768,-13.675,-34.383,-30.085
'[16:43:27.184 06/11/2076]',-74.628,-37.509,-46.496,-23.053,-78.535,-26.569,-35.946,-40.244,-74.237,-33.211,-21.490,-26.178,-70.330,-67.595,-34.774,16.410,-12.112,-31.258,47.277,18.755,-17.582,-40.635,-34.774
'[16:43:27.188 06/11/2076]',-75.409,-35.946,-44.151,-28.523,-74.237,-26.960,-38.291,-44.151,-68.376,-36.728,-23.443,-29.304,-69.939,-67.595,-35.556,15.238,-9.768,-34.383,44.933,17.973,-20.708,-41.026,-35.556
'[16:43:27.191 06/11/2076]',-79.316,-30.867,-33.211,-30.867,-76.190,-25.006,-35.946,-35.946,-60.952,-36.728,-23.834,-24.615,-66.422,-62.906,-33.993,16.020,-3.907,-36.337,33.993,12.112,-19.145,-39.072,-33.993
'[16:43:27.195 06/11/2076]',-81.270,-30.085,-26.960,-34.774,-77.753,-23.443,-30.867,-40.244,-50.403,-32.430,-21.490,-32.430,-54.701,-57.827,-32.430,7.424,1.954,-32.430,27.741,15.629,-20.708,-38.291,-32.430
'[16:43:27.199 06/11/2076]',-73.455,-28.913,-19.927,-34.383,-69.548,-22.662,-26.960,-37.118,-46.105,-26.178,-17.973,-42.198,-50.794,-49.621,-27.350,-5.079,7.814,-31.648,20.708,13.675,-21.099,-34.774,-27.350
'[16:43:27.203 06/11/2076]',-65.641,-28.913,-21.099,-34.774,-64.860,-26.569,-24.615,-34.383,-44.151,-21.490,-17.192,-37.900,-45.324,-41.026,-28.913,-6.252,12.894,-31.258,21.880,13.675,-16.801,-30.867,-28.913
'[16:43:27.207 06/11/2076]',-59.780,-30.867,-19.927,-37.509,-64.860,-26.178,-20.317,-37.118,-41.807,-15.238,-15.629,-31.258,-35.165,-39.072,-32.430,0.781,17.973,-25.788,20.708,17.582,-11.722,-30.867,-32.430
'[16:43:27.211 06/11/2076]',-56.264,-28.132,-22.271,-40.244,-65.250,-21.099,-19.536,-41.416,-44.542,-10.940,-11.722,-43.370,-35.946,-33.993,-32.430,-8.596,22.271,-23.443,23.053,21.490,-14.457,-29.695,-32.430
'[16:43:27.215 06/11/2076]',-56.654,-19.145,-30.085,-38.681,-69.158,-15.629,-19.927,-39.463,-47.668,-7.033,-7.033,-49.621,-36.337,-24.615,-34.774,-16.410,24.615,-19.145,30.867,16.020,-9.377,-26.960,-34.774
'[16:43:27.219 06/11/2076]',-53.919,-23.834,-27.350,-30.867,-67.985,-13.284,-16.410,-37.900,-49.621,-1.954,-6.642,-30.085,-25.788,-32.039,-31.258,0.391,26.960,-9.377,28.132,21.490,-0.781,-30.867,-31.258
'[16:43:27.223 06/11/2076]',-50.794,-24.615,-28.523,-26.569,-61.734,-16.020,-13.284,-39.853,-46.886,0.391,-5.470,-25.788,-19.536,-31.258,-30.476,2.344,25.788,-3.516,29.304,21.880,8.596,-29.695,-30.476
'[16:43:27.227 06/11/2076]',-58.608,-19.536,-28.132,-20.708,-66.032,-27.350,-13.675,-19.927,-50.794,-0.391,-9.768,-41.807,-36.337,-7.424,-32.821,-26.960,20.317,-7.814,28.913,0.391,30.476,-19.536,-32.821
'[16:43:27.230 06/11/2076]',-54.310,-17.973,-21.490,-18.755,-59.780,-28.913,-12.894,-12.112,-51.184,0.391,-12.112,-37.118,-37.900,-3.907,-32.430,-26.178,20.708,-7.033,22.271,-7.033,36.337,-16.020,-32.430
'[16:43:27.234 06/11/2076]',-48.059,-12.112,-20.317,-24.615,-51.184,-23.443,-5.470,-25.788,-53.529,1.563,-5.079,-32.821,-33.211,-12.894,-31.258,-12.503,16.410,-1.172,21.099,-2.735,30.867,-19.927,-31.258
'[16:43:27.238 06/11/2076]',-42.198,-6.642,-19.145,-16.410,-42.589,-10.549,-8.987,-23.053,-56.264,2.735,0.781,-28.523,-32.039,-17.582,-30.476,-0.391,8.596,-0.391,19.927,1.172,17.973,-20.708,-30.476
'[16:43:27.242 06/11/2076]',-35.556,-3.126,-22.662,-9.768,-33.602,-2.344,-18.364,-17.582,-61.734,7.033,2.735,-21.099,-33.993,-7.814,-31.648,2.344,7.033,-5.079,23.443,0.391,11.331,-10.549,-31.648
'[16:43:27.246 06/11/2076]',-34.383,-0.781,-20.317,-8.596,-30.085,2.735,-19.927,-17.973,-62.125,9.377,6.642,-14.457,-38.681,-4.298,-22.662,6.252,6.252,-4.689,21.099,3.907,3.516,-8.987,-22.662
'[16:43:27.250 06/11/2076]',-40.244,4.689,-25.006,-0.781,-31.258,0.391,-19.145,-10.940,-55.873,8.987,9.768,-18.364,-40.635,11.722,-27.350,1.172,6.642,-4.298,25.788,3.907,-0.391,0.391,-27.350
'[16:43:27.254 06/11/2076]',-42.979,3.126,-17.582,-1.954,-28.523,-3.516,-18.755,-8.205,-51.575,8.987,9.377,-17.582,-42.589,21.880,-27.350,-1.172,7.424,-6.252,18.364,2.735,2.344,6.642,-27.350
'[16:43:27.258 06/11/2076]',-40.244,2.344,-4.689,-6.252,-24.225,-0.391,-16.020,-7.814,-47.668,8.205,10.549,-9.768,-40.244,3.516,-3.907,2.735,8.205,-4.689,5.470,5.470,3.126,-8.596,-3.907
'[16:43:27.262 06/11/2076]',-35.165,2.735,-4.689,-0.391,-21.490,4.298,-14.457,-6.642,-44.933,6.642,9.377,-12.503,-39.853,-8.205,10.940,-3.126,9.768,-3.126,5.470,5.470,4.298,-20.708,10.940
'[16:43:27.266 06/11/2076]',-30.085,-0.781,-1.172,2.344,-18.755,7.424,-12.894,-5.861,-46.886,10.940,8.596,-14.457,-40.635,-5.861,15.629,-9.768,12.503,-0.781,1.954,3.907,6.642,-19.145,15.629
'[16:43:27.270 06/11/2076]',-20.708,1.172,-1.954,1.172,-14.847,14.847,-9.768,-11.722,-41.807,15.629,9.377,-3.516,-32.821,-1.563,16.410,-1.172,18.755,7.033,2.735,0.000,8.205,-13.675,16.410
'[16:43:27.273 06/11/2076]',-13.675,7.424,-3.516,-1.172,-16.801,26.960,-3.907,-16.801,-36.337,17.582,13.284,2.344,-23.053,4.298,7.033,8.987,24.225,14.847,4.298,-2.344,2.735,-7.424,7.033
'[16:43:27.277 06/11/2076]',-14.847,14.847,-6.252,2.735,-15.238,30.867,-4.689,-14.066,-33.993,23.834,15.238,-10.159,-21.880,21.099,-2.735,0.000,29.695,16.020,7.033,-10.940,8.596,3.907,-2.735
'[16:43:27.281 06/11/2076]',-15.629,18.364,1.563,3.516,-11.331,31.648,-3.907,-7.424,-30.085,28.913,16.801,-15.629,-19.145,25.006,3.126,-8.205,34.383,18.755,-0.781,-19.536,18.364,0.391,3.126
'[16:43:27.285 06/11/2076]',-13.675,14.847,7.033,2.344,-8.205,29.304,0.781,-10.159,-29.695,31.258,17.192,-2.735,-14.066,9.768,15.629,4.689,39.463,22.271,-6.252,-17.973,27.350,-13.284,15.629
'[16:43:27.289 06/11/2076]',-20.317,9.768,5.470,13.675,-14.066,18.364,1.563,3.126,-31.258,32.430,10.940,8.987,-17.973,15.629,17.192,6.642,41.807,18.364,-4.689,-25.006,44.542,-13.284,17.192
'[16:43:27.293 06/11/2076]',-23.834,7.814,-1.172,8.987,-21.880,13.284,-0.391,1.172,-32.821,31.258,10.159,-9.768,-26.960,23.443,16.801,-14.457,44.151,14.457,1.954,-30.085,46.886,-12.894,16.801
'[16:43:27.297 06/11/2076]',-17.192,8.596,-4.689,2.735,-23.443,17.192,-2.344,-1.563,-34.774,28.523,12.112,-14.847,-32.821,21.099,16.801,-14.066,44.151,16.410,5.470,-24.615,30.476,-13.284,16.801
'[16:43:27.301 06/11/2076]',-11.722,18.755,-22.662,4.298,-25.006,24.225,-0.391,-10.159,-33.211,24.225,15.238,-8.596,-22.271,2.735,11.722,5.861,39.072,19.927,23.443,-11.722,-1.563,-15.238,11.722
'[16:43:27.305 06/11/2076]',3.126,22.271,-31.258,10.549,-7.814,28.913,-3.126,-12.503,-29.695,26.569,19.927,-9.377,-13.284,-5.470,15.238,11.331,36.337,21.099,32.039,-4.689,-20.317,-12.503,15.238
'[16:43:27.309 06/11/2076]',20.317,22.271,-22.662,5.470,6.252,36.728,-7.424,-9.377,-24.225,24.225,21.099,-1.172,-17.973,-4.689,27.741,15.629,35.556,20.317,23.443,-2.344,-33.602,-8.596,27.741
'[16:43:27.313 06/11/2076]',26.569,24.225,-19.145,5.861,8.205,42.979,-7.424,-6.252,-23.834,24.225,21.099,5.861,-15.629,-5.861,33.211,16.801,38.291,19.927,19.927,-1.172,-39.072,-5.861,33.211
'[16:43:27.316 06/11/2076]',26.178,21.099,-12.894,10.159,5.470,48.449,-4.298,-2.735,-19.927,24.225,23.834,5.470,-16.410,3.126,35.946,10.940,43.761,22.662,13.675,-0.391,-32.821,-1.954,35.946
'[16:43:27.320 06/11/2076]',21.880,24.615,7.424,2.735,1.563,54.310,0.000,2.344,-15.238,21.490,27.350,9.768,-19.145,8.987,37.509,16.020,48.059,25.006,-6.642,-3.516,-31.648,0.000,37.509
'[16:43:27.324 06/11/2076]',16.410,30.867,6.642,7.424,-3.516,54.310,3.907,8.205,-11.331,19.536,25.788,19.927,-9.768,3.907,33.211,27.741,48.059,25.788,-5.861,-7.424,-31.648,-0.781,33.211
'[16:43:27.328 06/11/2076]',10.940,30.867,2.344,15.238,-8.205,48.449,9.377,12.112,-7.424,20.708,23.834,16.801,-2.735,8.987,25.397,23.053,45.324,30.867,-1.563,-8.987,-24.225,1.172,25.397
'[16:43:27.332 06/11/2076]',17.973,32.430,2.735,17.973,-2.735,42.589,14.457,17.192,-2.344,26.178,22.662,9.377,-0.391,17.192,25.397,14.457,44.933,32.821,-1.954,-15.238,-18.364,3.907,25.397
'[16:43:27.336 06/11/2076]',32.039,29.695,-4.689,18.755,4.689,43.370,14.847,12.503,0.781,30.476,22.271,18.755,9.377,15.238,24.225,23.443,40.635,33.993,5.470,-12.503,-19.145,2.344,24.225
'[16:43:27.340 06/11/2076]',37.118,17.582,-5.079,20.708,7.814,40.244,15.238,7.424,0.391,29.695,20.317,30.476,14.457,8.987,22.271,35.946,36.337,32.821,5.861,-1.172,-19.927,-1.954,22.271
'[16:43:27.344 06/11/2076]',32.039,14.066,2.344,21.880,7.814,36.728,13.675,12.894,-1.563,28.132,19.927,17.582,1.563,15.238,28.132,19.536,35.946,25.788,-1.563,-2.735,-17.973,-1.954,28.132
'[16:43:27.348 06/11/2076]',18.755,19.536,2.735,20.708,0.391,31.258,14.066,17.582,-2.344,18.364,17.973,13.675,-6.642,17.582,24.225,13.284,33.211,23.053,-1.954,-8.205,-13.675,-1.954,24.225
'[16:43:27.352 06/11/2076]',13.284,8.596,4.689,29.695,-6.642,19.145,26.178,19.927,2.344,12.503,11.331,33.993,1.172,8.987,16.801,33.993,30.867,28.132,-3.907,-1.954,-5.470,-2.735,16.801
'[16:43:27.355 06/11/2076]',8.205,12.503,7.814,28.913,-8.596,17.582,31.258,19.145,10.549,10.940,10.159,28.523,3.516,18.364,12.112,27.741,29.304,32.039,-7.033,-3.907,1.172,3.126,12.112
'[16:43:27.359 06/11/2076]',14.066,23.443,12.112,21.880,-4.689,27.350,31.258,19.536,16.020,7.814,12.112,10.940,-4.298,24.225,17.582,11.331,28.132,26.960,-11.331,-14.457,0.781,5.079,17.582
'[16:43:27.363 06/11/2076]',28.523,23.443,9.377,22.271,3.907,37.900,26.178,16.020,21.490,3.516,12.503,16.410,-2.735,10.940,23.834,22.662,22.271,24.615,-8.596,-3.907,-17.192,-1.172,23.834
'[16:43:27.367 06/11/2076]',25.788,25.788,0.781,21.490,0.391,40.635,26.178,7.814,14.847,-1.563,12.894,16.801,-2.735,-6.642,23.834,29.304,15.238,22.271,0.000,3.907,-24.225,-14.457,23.834
'[16:43:27.371 06/11/2076]',19.536,25.397,-4.689,18.364,-6.642,37.900,25.006,3.516,6.642,-6.642,11.331,19.927,-5.079,-22.662,22.662,36.337,9.768,18.364,5.470,12.112,-34.383,-22.662,22.662
'[16:43:27.375 06/11/2076]',19.536,24.225,-17.192,19.145,-10.549,30.476,20.317,5.861,4.298,-9.768,7.424,29.695,-0.781,-30.867,20.317,43.370,5.861,16.801,17.973,16.801,-42.198,-28.913,20.317
'[16:43:27.379 06/11/2076]',12.503,16.410,-15.238,18.755,-18.755,26.178,22.662,3.126,-3.516,-8.596,5.079,32.821,-2.735,-34.774,16.801,46.886,4.298,22.662,16.020,20.317,-38.681,-30.085,16.801
'[16:43:27.383 06/11/2076]',8.987,33.602,-3.907,19.145,-5.470,34.383,27.350,1.954,1.954,-1.954,7.424,28.132,-3.126,-23.443,16.801,46.496,10.159,31.258,4.689,2.735,-26.569,-17.973,16.801
'[16:43:27.387 06/11/2076]',12.503,42.589,5.861,23.443,13.284,45.324,25.397,1.563,13.284,0.391,8.596,32.039,0.781,-14.457,17.973,51.575,16.410,35.165,-5.079,-5.861,-15.238,-6.642,17.973
'[16:43:27.391 06/11/2076]',0.391,41.807,10.159,29.304,11.722,44.933,25.397,0.391,5.861,-4.689,7.033,40.635,-6.252,-18.755,14.066,59.780,14.457,35.946,-9.377,-10.940,0.781,-1.563,14.066
'[16:43:27.395 06/11/2076]',-17.192,44.542,14.066,25.788,1.563,44.151,26.178,-3.516,-6.642,-8.205,7.424,26.569,-14.457,-19.927,11.722,43.370,12.503,36.337,-13.284,-15.629,14.457,0.000,11.722
'[16:43:27.398 06/11/2076]',-31.258,36.337,13.284,23.443,-10.940,36.728,21.490,-4.689,-18.364,-12.112,6.252,14.457,-19.145,-30.085,10.159,30.476,5.079,34.774,-12.503,-9.768,17.582,-6.642,10.159
'[16:43:27.402 06/11/2076]',-46.886,25.006,13.284,25.006,-27.741,28.523,23.053,-6.252,-28.523,-15.629,5.079,26.569,-19.536,-42.589,5.861,43.370,-4.689,37.900,-12.503,-3.907,20.317,-11.722,5.861
'[16:43:27.406 06/11/2076]',-55.092,24.615,14.847,24.615,-29.695,24.225,26.178,-10.159,-28.913,-14.457,2.344,31.648,-14.847,-44.542,1.954,48.059,-9.768,43.370,-14.066,-7.033,28.132,-10.159,1.954
'[16:43:27.410 06/11/2076]',-61.734,29.304,16.801,28.523,-28.913,21.880,25.397,-3.907,-28.523,-13.284,0.391,11.331,-20.317,-32.039,0.391,23.053,-10.940,39.072,-16.020,-21.490,42.979,-3.126,0.391
'[16:43:27.414 06/11/2076]',-67.204,33.993,14.457,40.244,-29.304,16.410,27.350,7.814,-23.443,-16.410,-4.298,8.596,-37.118,-10.940,-0.391,11.331,-8.596,38.291,-13.675,-37.118,53.529,7.814,-0.391
'[16:43:27.418 06/11/2076]',-61.343,37.900,17.582,30.085,-23.443,17.582,34.383,-2.735,-16.801,-14.457,-5.470,19.145,-24.225,-14.457,0.391,20.317,-5.861,44.151,-16.801,-34.774,51.184,9.768,0.391
'[16:43:27.422 06/11/2076]',-63.687,35.946,23.443,24.225,-27.350,20.708,39.072,-10.159,-19.145,-12.503,-1.954,14.457,-21.880,-18.364,-0.781,21.880,-7.424,46.496,-22.662,-29.695,50.012,8.596,-0.781
'[16:43:27.426 06/11/2076]',-61.734,39.463,28.913,18.364,-26.178,26.178,29.695,-3.126,-22.662,-16.801,0.000,17.973,-28.523,-26.960,3.907,30.085,-15.238,46.496,-28.132,-28.132,32.039,3.516,3.907
'[16:43:27.430 06/11/2076]',-61.734,39.463,30.085,13.284,-28.523,24.615,28.523,-1.563,-29.304,-19.145,2.735,24.225,-28.523,-36.337,7.033,37.118,-21.880,50.403,-29.304,-25.006,25.788,-3.907,7.033
'[16:43:27.434 06/11/2076]',-63.297,35.556,30.085,17.192,-28.132,21.490,30.085,-2.735,-39.072,-19.536,8.205,21.099,-31.648,-36.728,0.391,40.244,-24.225,53.138,-29.304,-18.364,23.834,-4.298,0.391
'[16:43:27.438 06/11/2076]',-62.125,36.337,28.132,18.755,-26.960,18.364,28.523,3.126,-49.231,-20.317,12.112,21.099,-39.072,-36.728,0.000,40.244,-25.397,50.794,-27.350,-21.099,16.410,-3.126,0.000
'[16:43:27.441 06/11/2076]',-60.171,33.211,22.271,16.410,-25.006,11.722,23.443,2.735,-52.747,-22.662,11.722,26.569,-43.761,-33.993,2.735,38.681,-23.053,42.198,-21.490,-21.880,16.410,-2.344,2.735
'[16:43:27.445 06/11/2076]',-57.045,21.880,28.132,8.596,-21.099,9.377,21.099,-5.470,-53.919,-20.317,14.457,22.271,-42.979,-26.569,-0.391,33.211,-19.145,37.900,-27.350,-12.112,12.894,4.298,-0.391
'[16:43:27.449 06/11/2076]',-57.827,17.973,29.304,8.987,-23.834,4.689,19.145,-0.391,-59.780,-14.066,15.629,14.066,-48.059,-24.615,7.033,21.880,-17.192,33.211,-28.523,-12.112,14.066,1.172,7.033
'[16:43:27.453 06/11/2076]',-55.092,19.536,23.443,4.298,-24.615,0.391,19.145,-1.563,-53.919,-12.894,14.066,17.582,-40.635,-29.304,13.284,21.490,-16.801,29.304,-22.662,-14.066,19.536,-4.689,13.284
'[16:43:27.457 06/11/2076]',-52.357,23.053,22.662,0.391,-23.834,0.391,20.317,-2.344,-46.496,-11.722,16.020,20.317,-30.476,-31.258,19.145,21.490,-14.457,29.695,-21.880,-15.238,20.317,-5.470,19.145
'[16:43:27.461 06/11/2076]',-51.966,25.397,16.410,1.954,-27.350,0.391,21.490,-0.391,-43.370,-10.940,19.145,1.172,-29.695,-30.867,24.225,2.735,-14.457,26.178,-15.629,-15.238,19.536,-9.768,24.225
'[16:43:27.465 06/11/2076]',-50.012,33.993,5.470,1.172,-25.006,-1.172,15.629,1.954,-41.807,-16.801,17.582,-8.205,-28.523,-36.337,25.006,-9.377,-13.675,17.973,-4.689,-26.569,21.490,-12.503,25.006
'[16:43:27.469 06/11/2076]',-41.416,19.536,15.238,1.563,-13.284,-1.954,11.722,0.781,-32.821,-22.271,14.847,7.424,-25.006,-33.211,20.708,4.298,-11.722,15.238,-14.457,-15.629,22.271,-10.940,20.708
'[16:43:27.473 06/11/2076]',-36.728,2.344,17.192,5.861,-11.331,-7.814,10.549,-0.781,-30.085,-21.099,12.503,11.722,-18.364,-30.085,15.629,5.470,-10.549,12.894,-16.410,-6.252,28.132,-8.596,15.629
'[16:43:27.477 06/11/2076]',-39.463,-0.781,19.536,8.987,-12.894,-21.099,6.642,17.192,-36.337,-18.755,2.735,-3.126,-30.476,-10.549,10.940,-26.178,-10.940,1.954,-18.755,-23.443,50.012,1.172,10.940
'[16:43:27.480 06/11/2076]',-37.118,2.735,14.847,2.344,-12.503,-25.006,7.814,14.847,-32.430,-14.066,0.391,-5.470,-27.741,-1.172,7.814,-32.430,-8.596,2.735,-14.066,-27.350,51.184,7.033,7.814
'[16:43:27.484 06/11/2076]',-40.635,5.470,9.377,-6.252,-15.238,-26.960,15.629,-3.516,-26.960,-7.033,3.126,-12.503,-10.159,-10.549,7.424,-30.867,-8.596,8.596,-8.596,-15.629,44.542,1.563,7.424
'[16:43:27.488 06/11/2076]',-42.198,11.722,7.033,-13.675,-14.847,-23.053,14.847,-11.722,-21.099,-7.033,4.298,-18.364,-1.954,-30.085,12.503,-24.225,-12.503,5.470,-6.252,-11.331,30.085,-6.642,12.503
'[16:43:27.492 06/11/2076]',-38.681,14.066,-1.172,-17.582,-11.722,-21.490,7.424,-16.020,-18.364,-6.642,0.781,-22.662,-5.470,-33.993,17.582,-26.178,-11.722,-2.344,1.954,-9.768,18.364,-9.768,17.582
'[16:43:27.496 06/11/2076]',-38.681,0.391,4.298,-19.536,-10.549,-19.927,2.344,-24.225,-12.503,-6.642,1.172,-24.615,-2.735,-37.118,22.662,-25.788,-8.596,-5.079,-3.516,3.516,10.940,-12.112,22.662
'[16:43:27.500 06/11/2076]',-32.821,-5.470,2.735,-11.331,-5.079,-18.364,0.781,-24.225,-5.470,-4.298,1.172,-32.821,-5.079,-28.132,20.708,-29.695,-4.689,-8.596,-1.954,5.470,11.331,-8.596,20.708
'[16:43:27.504 06/11/2076]',-27.741,-3.516,-5.079,-8.596,4.298,-21.099,-1.172,-27.741,-1.954,-3.126,0.781,-32.821,-9.768,0.391,3.907,-31.258,-1.563,-13.284,5.861,1.172,17.192,12.503,3.907
'[16:43:27.508 06/11/2076]',-25.788,0.391,-7.424,-8.987,8.205,-17.973,-1.172,-31.258,1.172,-0.781,2.344,-23.443,-5.079,-1.563,6.642,-21.099,0.391,-11.722,8.205,0.391,18.755,11.331,6.642
'[16:43:27.512 06/11/2076]',-25.788,6.642,-4.689,-8.205,1.563,-10.940,1.563,-24.225,-1.172,0.781,4.298,-24.225,-5.079,4.298,-0.781,-19.536,2.344,-9.377,5.470,-2.344,16.020,17.582,-0.781
'[16:43:27.516 06/11/2076]',-27.350,9.768,-0.781,-11.331,-3.126,-9.377,3.126,-19.145,-8.596,1.172,4.298,-22.662,-9.377,5.470,-0.391,-21.880,3.907,-8.987,1.563,-5.470,17.973,16.801,-0.391
'[16:43:27.520 06/11/2076]',-25.006,7.424,8.205,-14.847,-8.987,-4.689,6.252,-14.847,-14.457,3.126,4.689,-12.112,-2.344,-17.582,9.768,-8.987,5.470,-7.033,-7.424,4.298,7.424,1.172,9.768
'[16:43:27.523 06/11/2076]',-21.880,1.954,6.252,-11.331,-19.927,3.516,6.252,-13.675,-17.192,1.563,8.596,-3.907,3.126,-23.834,5.861,3.126,5.470,-1.563,-5.470,8.596,2.344,-1.954,5.861
'[16:43:27.527 06/11/2076]',-16.410,4.689,2.344,-5.861,-13.675,3.516,5.079,-9.377,-7.814,-3.126,6.252,-17.582,-5.861,-18.364,11.722,-9.377,4.298,-5.470,-1.563,0.391,2.735,-6.252,11.722
'[16:43:27.531 06/11/2076]',-15.629,3.126,-2.344,0.781,-16.410,3.516,3.907,-4.689,-7.424,-3.126,3.126,-22.662,-11.331,-12.503,11.722,-19.145,5.470,-8.987,3.126,-4.689,8.596,-5.861,11.722
'[16:43:27.535 06/11/2076]',-12.503,-6.642,2.344,10.159,-21.099,5.861,6.252,1.172,-7.814,0.000,1.954,-4.689,-4.689,-10.549,7.424,-4.298,8.205,-3.907,-1.563,-5.079,17.582,-4.298,7.424
'[16:43:27.539 06/11/2076]',-14.847,-8.596,8.205,16.410,-15.238,-1.954,8.987,10.940,-9.377,6.252,-2.735,10.549,-1.954,2.344,6.642,-1.954,11.331,-1.954,-7.424,-9.377,30.867,3.126,6.642
'[16:43:27.543 06/11/2076]',-20.708,-5.861,19.145,10.549,-16.410,-5.079,8.205,16.801,-21.880,14.847,2.344,-0.781,-14.457,20.708,11.331,-23.443,16.801,-4.298,-18.364,-10.549,33.602,7.814,11.331
'[16:43:27.547 06/11/2076]',-12.894,-5.470,22.662,5.470,-10.940,-0.781,4.689,18.364,-33.211,19.927,8.596,4.298,-20.708,23.443,14.457,-16.410,19.927,-0.391,-21.880,-3.907,19.536,3.907,14.457
'[16:43:27.551 06/11/2076]',-3.907,4.298,14.847,8.987,-0.391,4.689,4.689,16.020,-35.165,21.490,16.020,15.629,-14.457,15.238,12.894,4.298,18.755,4.689,-14.066,1.563,0.391,-0.781,12.894
'[16:43:27.555 06/11/2076]',3.907,7.814,14.457,9.377,5.861,8.596,5.079,17.582,-36.337,19.536,21.880,16.410,-17.582,20.317,10.159,9.377,17.973,2.735,-13.675,5.079,-10.159,0.000,10.159
'[16:43:27.559 06/11/2076]',8.987,0.000,13.284,13.284,3.516,10.940,-1.563,23.834,-38.681,18.364,21.099,24.615,-16.020,24.225,3.516,13.675,16.020,-1.172,-12.503,10.159,-14.066,1.563,3.516
'[16:43:27.563 06/11/2076]',3.516,7.424,8.596,14.457,2.735,10.549,-2.344,24.615,-37.118,19.927,22.271,27.741,-8.987,14.847,12.112,14.457,15.238,-0.391,-7.814,7.814,-16.410,-2.735,12.112
'[16:43:27.566 06/11/2076]',2.344,13.675,5.079,14.847,1.563,8.987,0.391,26.178,-37.118,19.536,25.397,26.960,-9.377,25.397,7.814,11.331,14.066,0.781,-4.298,1.172,-16.410,4.298,7.814
'[16:43:27.570 06/11/2076]',2.344,17.973,2.735,8.596,-2.344,8.987,1.563,24.225,-42.589,21.099,28.132,31.648,-10.940,13.675,17.973,17.192,10.940,1.172,-1.954,-1.563,-18.364,-8.205,17.973
'[16:43:27.574 06/11/2076]',6.252,33.993,-2.735,7.424,2.344,5.470,8.987,27.741,-46.105,21.490,28.132,46.886,-12.894,0.391,26.569,37.118,5.861,7.033,3.516,-17.973,-23.443,-18.364,26.569
'[16:43:27.578 06/11/2076]',10.549,39.853,-7.424,2.344,2.344,0.000,15.238,28.132,-49.231,13.675,29.304,45.714,-21.880,8.596,17.973,35.946,-0.781,13.675,8.205,-25.788,-27.350,-16.020,17.973
'[16:43:27.582 06/11/2076]',7.814,22.271,6.252,-0.781,-3.907,-5.079,17.973,27.741,-55.482,8.987,29.695,38.681,-28.913,5.470,21.099,24.615,-8.205,16.801,-5.470,-10.159,-28.913,-23.053,21.099
'[16:43:27.586 06/11/2076]',8.205,7.424,20.708,-3.516,-5.861,-1.563,19.536,22.271,-54.310,9.377,29.695,48.840,-26.960,-4.689,26.569,39.463,-12.894,25.006,-19.927,5.861,-39.853,-27.350,26.569
'[16:43:27.590 06/11/2076]',3.126,4.689,28.132,-5.079,-10.549,3.516,20.708,17.582,-49.621,7.814,28.523,60.952,-22.271,-0.391,16.801,53.529,-17.973,30.476,-27.350,10.940,-44.933,-18.755,16.801
'[16:43:27.594 06/11/2076]',-3.907,7.033,37.509,0.781,-17.192,8.987,18.755,31.258,-62.125,8.987,25.788,50.794,-35.556,13.284,6.252,38.291,-19.927,27.741,-36.728,10.549,-45.714,-11.331,6.252
'[16:43:27.598 06/11/2076]',-5.470,18.755,32.430,1.563,-23.443,7.814,23.834,39.463,-66.813,8.987,22.662,48.449,-53.919,19.145,16.020,32.039,-19.927,28.913,-31.648,-3.126,-47.277,-22.271,16.020
'[16:43:27.602 06/11/2076]',-1.172,24.225,21.880,3.907,-26.178,2.344,35.556,37.509,-67.204,10.940,14.457,73.455,-46.886,33.602,-6.252,51.966,-19.536,35.556,-21.099,-13.284,-34.383,-14.457,-6.252
'[16:43:27.605 06/11/2076]',5.861,21.490,16.020,-1.954,-25.397,-3.126,39.463,31.258,-74.237,9.768,14.457,65.250,-48.449,25.006,0.391,39.853,-18.364,36.728,-15.238,-12.112,-32.039,-28.132,0.391
'[16:43:27.609 06/11/2076]',12.503,17.582,13.675,-10.940,-25.397,-7.033,40.635,26.960,-74.628,11.722,20.317,44.151,-54.310,14.847,23.834,17.192,-14.457,32.039,-12.894,-17.582,-35.165,-43.370,23.834
'[16:43:27.613 06/11/2076]',20.708,12.894,12.894,-8.596,-20.708,5.079,34.774,20.708,-64.860,8.596,22.271,50.012,-48.840,6.252,28.523,30.867,-14.066,33.993,-12.112,-10.159,-47.668,-45.714,28.523
'[16:43:27.617 06/11/2076]',15.629,12.894,15.238,-9.377,-18.364,10.549,37.118,5.470,-63.687,7.033,26.569,46.105,-42.589,1.563,19.145,37.509,-13.284,39.463,-14.457,4.689,-55.482,-44.542,19.145
'[16:43:27.621 06/11/2076]',4.689,21.880,18.364,-3.907,-23.834,16.801,41.807,6.252,-58.217,1.954,29.304,47.668,-41.416,13.284,4.689,44.933,-14.457,44.542,-17.582,7.424,-63.297,-32.821,4.689
'[16:43:27.625 06/11/2076]',1.563,25.006,24.225,-2.344,-25.397,23.443,41.416,10.159,-54.310,-1.172,27.350,60.562,-39.853,27.350,-10.940,57.045,-17.973,50.012,-23.443,3.126,-57.827,-20.708,-10.940
'[16:43:27.629 06/11/2076]',0.391,25.788,29.304,-5.470,-26.178,23.443,44.933,7.814,-53.138,-2.735,26.569,58.608,-34.774,32.430,-21.099,53.529,-18.364,55.482,-28.523,3.516,-49.621,-16.801,-21.099
'[16:43:27.633 06/11/2076]',-1.563,29.695,28.913,-10.159,-23.053,17.192,45.714,7.033,-51.184,-1.954,26.178,46.105,-36.337,25.397,-8.987,40.244,-17.582,52.357,-28.132,0.391,-51.966,-22.662,-8.987
'[16:43:27.637 06/11/2076]',2.344,25.397,30.085,-12.112,-16.410,12.503,42.979,7.814,-42.979,-1.954,21.490,47.668,-29.695,19.536,-4.298,40.635,-16.801,46.496,-29.304,0.000,-46.886,-25.006,-4.298
'[16:43:27.641 06/11/2076]',5.470,14.457,26.569,-10.940,-14.066,5.861,39.072,5.079,-37.118,-1.954,15.629,54.310,-18.364,4.298,0.000,44.933,-16.801,41.026,-25.788,8.596,-41.807,-33.602,0.000
'[16:43:27.645 06/11/2076]',3.126,12.112,20.708,-10.940,-16.020,-1.954,40.635,3.126,-30.085,-2.735,11.722,39.853,-13.284,10.159,-7.033,30.476,-14.847,33.602,-19.927,7.814,-38.291,-23.834,-7.033
'[16:43:27.648 06/11/2076]',8.205,9.377,24.615,-8.987,-8.596,-1.172,37.118,7.033,-25.397,0.391,11.722,33.602,-9.768,19.536,-13.675,25.397,-13.675,30.867,-23.834,6.642,-37.900,-16.410,-13.675
'[16:43:27.652 06/11/2076]',17.582,5.470,26.569,6.252,4.298,1.563,37.900,12.894,-21.880,1.954,12.894,49.231,0.391,-4.298,3.516,44.151,-11.331,35.165,-25.788,7.033,-29.304,-31.648,3.516
'[16:43:27.656 06/11/2076]',23.834,16.410,31.258,12.894,24.615,7.033,42.589,11.722,-8.596,5.470,11.331,57.045,13.284,-11.331,10.159,54.310,-5.470,36.728,-30.476,0.391,-17.582,-33.602,10.159
'[16:43:27.660 06/11/2076]',21.490,32.039,26.960,15.238,33.211,8.596,37.509,17.582,-3.126,7.814,8.596,38.291,7.814,1.954,11.722,30.867,0.000,30.085,-26.178,-15.629,-1.954,-32.430,11.722
'[16:43:27.664 06/11/2076]',11.331,32.430,21.880,20.317,23.443,0.391,35.165,29.304,-15.238,10.159,-0.781,36.728,1.954,6.252,3.907,18.364,1.172,24.615,-21.099,-25.788,23.443,-34.383,3.907
'[16:43:27.668 06/11/2076]',10.159,32.821,14.457,10.549,19.145,-4.689,34.383,19.927,-18.755,12.503,-2.735,44.151,11.331,6.642,-9.768,27.350,2.735,21.880,-13.675,-19.145,25.788,-32.039,-9.768
'[16:43:27.672 06/11/2076]',12.894,33.211,11.331,2.344,20.708,-6.642,32.430,15.629,-16.801,12.894,0.000,37.900,10.159,16.410,-19.536,27.741,5.861,15.629,-10.549,-16.801,20.708,-26.960,-19.536
'[16:43:27.676 06/11/2076]',20.317,25.397,7.424,5.861,22.271,-1.172,15.629,23.443,-23.053,14.066,1.563,37.509,5.861,12.503,-17.192,29.695,4.689,3.516,-6.642,-9.377,7.424,-28.132,-17.192
'[16:43:27.680 06/11/2076]',32.821,22.271,14.847,8.596,35.556,8.205,12.503,25.006,-9.377,14.847,3.907,39.463,15.238,11.722,-11.331,35.165,12.503,0.391,-14.066,-3.126,-1.172,-23.443,-11.331
'[16:43:27.684 06/11/2076]',41.416,23.053,18.364,12.112,44.933,14.457,14.847,21.880,5.470,15.629,4.689,29.304,23.443,16.410,-13.675,30.867,21.490,-1.172,-17.582,0.391,-2.344,-20.317,-13.675
'[16:43:27.688 06/11/2076]',43.370,26.178,10.159,10.159,42.589,17.582,11.722,19.536,9.377,16.410,0.391,23.053,29.304,19.536,-20.708,23.053,23.053,-5.079,-9.377,-2.735,0.000,-16.410,-20.708
'[16:43:27.691 06/11/2076]',46.886,31.258,8.205,3.907,42.198,16.410,10.159,21.880,13.675,18.364,-2.735,28.132,35.556,19.536,-21.099,23.443,25.397,-4.689,-7.424,-8.205,-0.781,-10.940,-21.099
'[16:43:27.695 06/11/2076]',50.012,44.933,-3.126,-3.126,43.370,14.847,12.112,18.364,11.331,20.708,-1.563,23.053,33.993,21.880,-21.880,20.708,27.741,-3.516,3.907,-16.801,-7.033,-9.377,-21.880
'[16:43:27.699 06/11/2076]',46.886,48.840,-13.675,-2.735,38.681,12.894,7.814,18.755,4.689,21.490,-1.954,17.973,28.913,23.443,-22.662,13.284,28.523,-7.814,14.457,-23.834,-7.424,-10.549,-22.662
'[16:43:27.703 06/11/2076]',45.714,32.821,8.596,-3.516,38.291,11.722,9.768,23.443,6.252,20.708,-1.563,25.397,25.788,24.225,-18.364,20.708,29.695,-9.768,-7.814,-14.847,-7.424,-8.205,-18.364
'[16:43:27.707 06/11/2076]',41.416,20.317,19.927,-1.563,39.853,12.112,8.987,19.145,11.331,18.755,-2.344,27.350,31.648,21.490,-22.662,26.569,32.039,-10.549,-19.145,-4.689,-2.344,-7.424,-22.662
'[16:43:27.711 06/11/2076]',30.085,3.516,28.523,-4.298,35.556,11.331,-0.391,11.722,7.424,14.847,-2.735,5.470,25.006,18.755,-25.788,7.424,29.695,-16.801,-27.741,9.768,-2.735,-6.642,-25.788
'[16:43:27.715 06/11/2076]',21.880,-4.689,31.648,-5.861,31.258,7.814,-8.596,13.284,8.205,9.768,-7.424,-5.861,19.536,16.801,-23.834,-6.252,22.662,-24.225,-30.867,16.801,-0.391,-7.033,-23.834
'[16:43:27.719 06/11/2076]',18.364,-3.126,21.880,-7.424,30.476,2.344,-11.722,8.596,10.549,9.377,-10.940,8.205,28.132,10.159,-26.569,6.642,19.536,-26.960,-21.099,19.145,-1.172,-4.298,-26.569
'[16:43:27.723 06/11/2076]',12.894,1.954,17.192,-8.205,23.053,2.735,-10.159,8.987,8.205,12.112,-10.549,13.675,35.165,15.238,-35.946,9.768,17.973,-28.913,-16.410,15.238,1.172,4.298,-35.946
'[16:43:27.727 06/11/2076]',3.516,7.033,12.894,-2.344,11.722,-0.781,-13.675,24.615,10.159,7.814,-19.145,0.000,12.894,29.695,-23.834,-19.145,18.755,-41.807,-12.112,-5.079,18.755,0.781,-23.834
'[16:43:27.730 06/11/2076]',5.079,16.020,10.940,-8.205,12.894,-1.172,-6.252,20.317,12.894,10.159,-13.284,-3.516,10.940,32.821,-12.894,-23.443,23.053,-38.291,-10.159,-16.410,19.536,0.781,-12.894
'[16:43:27.734 06/11/2076]',11.331,2.735,19.927,-10.940,15.629,8.987,-5.470,4.298,12.112,15.629,-3.907,-1.954,18.755,25.397,-12.503,-8.987,23.834,-25.006,-19.145,4.298,10.940,-1.563,-12.503
'[16:43:27.738 06/11/2076]',19.145,-5.861,17.973,-10.159,17.192,16.020,-9.377,-3.126,8.987,14.066,1.954,-0.391,16.410,15.629,-6.642,0.781,18.755,-17.192,-17.192,15.629,2.344,-7.424,-6.642
'[16:43:27.742 06/11/2076]',24.225,-4.298,19.536,-14.457,16.801,21.099,-12.503,-0.781,7.033,14.457,7.814,1.172,17.192,15.238,-4.689,4.689,15.629,-12.503,-18.755,13.675,-4.689,-0.781,-4.689
'[16:43:27.746 06/11/2076]',27.741,-3.516,14.066,-13.675,12.894,27.741,-14.066,-1.954,6.642,17.582,12.112,3.516,22.271,29.695,-18.364,8.987,15.238,-4.689,-13.284,10.159,-6.642,17.192,-18.364
'[16:43:27.750 06/11/2076]',28.132,-2.735,7.033,-7.033,7.033,30.867,-12.503,0.781,8.596,13.675,13.284,-1.563,22.271,19.536,-10.940,5.079,14.847,-3.516,-6.252,3.516,-2.344,9.768,-10.940
'[16:43:27.754 06/11/2076]',19.927,9.768,0.781,-6.642,8.596,25.397,-13.284,2.735,14.066,16.801,12.894,-8.987,20.708,14.847,4.298,-2.344,17.973,-7.814,0.000,-5.470,0.391,3.126,4.298
'[16:43:27.758 06/11/2076]',12.503,10.159,5.861,-6.252,15.238,20.708,-13.675,0.391,18.755,18.364,13.284,-6.252,19.536,15.629,8.987,1.563,18.364,-7.033,-5.079,0.391,3.516,2.735,8.987
'[16:43:27.762 06/11/2076]',6.642,7.033,8.987,-3.516,17.973,13.284,-13.675,1.954,16.801,17.582,12.503,-10.549,12.503,17.582,9.377,-0.781,16.801,-5.470,-8.205,9.377,8.205,-1.954,9.377
'[16:43:27.766 06/11/2076]',1.172,11.331,12.894,-1.563,18.364,10.159,-12.112,6.642,15.629,20.317,10.940,-16.410,6.252,29.695,5.079,-8.205,16.410,-2.344,-12.112,9.768,12.112,2.344,5.079
'[16:43:27.770 06/11/2076]',1.954,11.331,10.549,0.781,19.927,11.331,-9.377,3.907,19.536,20.708,11.331,-8.596,7.424,41.026,-5.470,1.563,14.847,3.126,-9.768,10.940,8.987,15.238,-5.470
'[16:43:27.773 06/11/2076]',8.205,13.675,0.781,1.954,23.834,16.801,-10.549,-3.907,21.490,19.536,14.066,-1.954,14.457,36.337,-9.377,14.066,13.284,6.642,0.000,10.549,1.563,19.536,-9.377
'[16:43:27.777 06/11/2076]',10.940,13.284,0.391,4.689,25.397,19.927,-13.675,-1.954,14.066,23.834,12.503,-16.801,10.940,25.006,1.172,-1.563,12.894,0.781,0.391,4.689,-0.781,16.410,1.172
'[16:43:27.781 06/11/2076]',10.940,25.006,-12.503,8.596,25.006,18.364,-13.284,1.172,14.847,19.536,11.722,-25.788,0.781,25.397,10.159,-13.284,14.066,-2.344,13.284,-11.722,1.172,16.410,10.159
'[16:43:27.785 06/11/2076]',22.271,14.847,-2.344,7.033,35.556,12.112,-5.079,0.391,18.364,19.536,10.159,-8.596,11.331,13.284,14.066,0.391,16.020,1.172,3.126,-7.814,12.894,11.722,14.066
'[16:43:27.789 06/11/2076]',21.490,5.861,6.642,11.722,35.556,1.172,1.172,8.205,22.662,17.582,1.172,1.172,12.894,22.271,7.424,2.735,14.457,-0.391,-5.861,-13.284,36.728,17.192,7.424
'[16:43:27.793 06/11/2076]',14.066,5.079,7.814,14.847,26.960,-4.298,4.298,16.801,25.788,12.894,0.781,-16.020,-1.954,39.072,7.814,-20.317,11.331,-3.516,-7.033,-24.615,49.231,21.099,7.814
'[16:43:27.797 06/11/2076]',12.503,-8.205,13.675,15.238,25.397,-2.344,-0.391,12.112,28.913,11.331,3.126,-18.755,-3.516,38.681,10.159,-18.755,8.596,-2.735,-12.894,-14.457,49.231,19.927,10.159
'[16:43:27.801 06/11/2076]',11.722,-13.675,10.159,18.364,28.913,0.781,-3.907,2.735,29.695,9.377,5.470,-13.675,3.126,19.536,7.814,1.563,3.907,-1.563,-9.377,6.642,29.695,10.159,7.814
'[16:43:27.805 06/11/2076]',13.284,-9.377,3.516,22.662,30.867,3.516,-5.861,1.563,28.132,8.987,8.987,-15.238,5.079,12.894,5.079,9.377,3.907,-3.907,-2.735,8.987,17.582,8.987,5.079
'[16:43:27.809 06/11/2076]',21.880,-3.516,-2.735,20.317,35.556,6.252,-10.940,5.861,32.039,11.331,7.033,-6.642,10.940,13.284,2.735,17.973,8.596,-7.814,3.516,6.252,6.252,14.066,2.735
'[16:43:27.813 06/11/2076]',30.867,-1.563,-1.954,17.973,44.151,4.298,-12.112,8.987,35.556,15.238,3.907,-0.391,21.099,6.642,4.689,23.443,14.066,-11.722,2.735,9.377,0.000,12.894,4.689
'[16:43:27.816 06/11/2076]',30.085,-7.814,1.563,19.536,43.370,0.000,-11.722,12.894,31.258,15.629,3.516,-8.205,23.834,6.642,2.344,11.722,16.410,-15.238,-0.781,14.066,2.344,17.973,2.344
'[16:43:27.820 06/11/2076]',32.821,-9.768,-1.172,17.973,47.277,-1.563,-16.801,11.331,37.118,18.364,1.563,-10.549,24.225,4.298,14.847,5.079,16.410,-19.536,1.954,13.284,0.781,14.457,14.847
'[16:43:27.824 06/11/2076]',35.165,-5.079,-15.629,16.410,51.575,-5.079,-21.490,6.642,41.416,17.973,-1.172,-5.470,28.913,7.424,7.814,9.768,12.894,-23.443,16.410,7.424,3.516,16.020,7.814
'[16:43:27.828 06/11/2076]',33.211,-8.205,-24.615,17.582,49.621,-10.549,-24.225,4.689,37.118,17.582,-3.516,-15.629,23.834,16.020,-2.735,0.000,9.768,-28.523,25.397,3.907,5.861,20.708,-2.735
'[16:43:27.832 06/11/2076]',39.463,-1.172,-37.118,13.675,47.277,-7.424,-28.132,3.907,38.681,21.099,-3.907,-25.397,23.053,33.993,-13.675,-10.159,7.814,-29.304,37.900,-17.582,10.549,30.085,-13.675
'[16:43:27.836 06/11/2076]',46.496,5.470,-50.794,10.549,42.198,-4.689,-23.443,-0.391,36.728,25.788,-2.344,-12.894,35.165,41.416,-31.258,3.126,4.298,-26.960,51.575,-26.960,10.940,42.198,-31.258
'[16:43:27.840 06/11/2076]',45.324,-31.648,-19.145,16.801,46.886,-2.735,-28.523,-1.563,37.118,23.834,-3.907,0.391,47.668,0.000,-3.516,16.020,1.563,-26.178,19.927,8.987,16.020,11.722,-3.516
'[16:43:27.844 06/11/2076]',35.556,-40.244,-3.126,16.020,44.542,0.391,-34.383,-1.563,34.383,19.536,-7.033,-13.284,38.291,-4.689,8.205,-5.861,0.781,-30.867,3.907,15.629,24.225,7.814,8.205
'[16:43:27.848 06/11/2076]',24.225,-33.993,-7.424,17.192,40.244,-5.470,-34.774,1.172,46.105,13.284,-13.675,-20.317,29.695,5.861,10.940,-19.927,1.563,-37.509,8.205,12.503,30.476,4.689,10.940
'[16:43:27.852 06/11/2076]',14.066,-44.933,-5.079,22.271,38.291,-15.629,-35.556,0.391,46.886,12.503,-23.834,-3.516,32.039,3.126,6.252,-7.814,0.391,-38.681,5.861,21.490,44.933,-0.391,6.252
'[16:43:27.855 06/11/2076]',16.410,-36.728,-12.503,14.066,34.774,-16.410,-32.821,-3.516,48.840,16.020,-26.569,-19.145,30.085,21.880,-8.987,-22.271,3.126,-39.853,13.284,12.894,49.621,6.252,-8.987
'[16:43:27.859 06/11/2076]',25.788,-26.178,-32.430,1.563,31.648,-17.973,-37.118,-7.033,42.979,22.271,-26.178,-39.463,25.788,36.728,-19.145,-41.416,2.735,-46.496,33.211,1.172,44.151,9.377,-19.145
'[16:43:27.863 06/11/2076]',37.118,-33.211,-41.416,0.000,39.463,-17.582,-45.714,-12.894,35.946,22.662,-25.788,-35.165,30.085,21.099,-21.099,-29.695,-0.781,-43.761,42.198,17.582,23.443,0.781,-21.099
'[16:43:27.867 06/11/2076]',46.105,-34.383,-41.416,-1.172,49.621,-16.801,-42.979,-19.536,35.556,21.490,-23.443,-35.556,37.509,3.126,-16.020,-24.615,0.781,-41.416,42.198,30.867,12.112,-9.768,-16.020
'[16:43:27.871 06/11/2076]',44.933,-26.178,-42.198,0.781,50.403,-13.284,-41.026,-17.192,39.072,16.410,-21.099,-29.695,38.291,0.781,-13.284,-19.145,0.391,-39.853,42.979,34.774,1.563,-10.940,-13.284
'[16:43:27.875 06/11/2076]',42.589,-19.145,-36.728,5.470,47.668,-9.377,-37.900,-6.642,41.416,10.549,-19.145,-10.549,39.463,3.126,-12.112,-6.642,2.735,-37.509,37.509,32.039,-1.172,-6.252,-12.112
'[16:43:27.879 06/11/2076]',39.853,-11.722,-23.834,8.596,42.979,-1.954,-28.523,1.563,42.198,8.987,-13.675,-3.907,43.370,5.079,-7.424,-6.642,5.861,-28.523,24.615,27.350,5.861,-3.516,-7.424
'[16:43:27.883 06/11/2076]',41.416,-3.907,-16.020,9.377,36.728,3.516,-18.755,9.377,40.635,7.033,-5.470,-2.735,42.589,19.536,-10.940,-10.940,7.814,-22.662,16.801,21.880,7.814,5.079,-10.940
'[16:43:27.887 06/11/2076]',39.463,-1.563,-15.238,10.549,26.178,6.642,-14.847,14.457,38.291,4.298,-4.689,6.642,44.151,27.741,-19.927,-5.861,5.861,-21.490,16.020,19.927,9.768,12.503,-19.927
'[16:43:27.891 06/11/2076]',37.509,-3.126,-16.801,13.675,26.569,-1.563,-12.894,18.755,35.165,1.563,-3.516,15.629,47.277,25.006,-20.317,-1.954,3.516,-23.053,17.582,19.536,12.894,13.284,-20.317
'[16:43:27.895 06/11/2076]',31.648,-3.126,-18.755,14.066,25.006,-11.331,-10.940,22.271,32.821,-2.735,-3.516,5.470,39.463,19.145,-10.940,-14.066,0.781,-26.960,19.536,18.364,12.894,0.781,-10.940
'[16:43:27.898 06/11/2076]',28.132,-7.814,-19.927,12.112,21.490,-17.192,-13.284,22.662,32.430,-7.033,-2.735,-1.563,36.337,13.675,-6.642,-21.099,-2.344,-29.304,20.708,21.099,6.642,-6.642,-6.642
'[16:43:27.902 06/11/2076]',30.476,-12.503,-17.973,13.675,27.350,-22.271,-12.894,22.662,26.178,-10.549,0.391,17.192,38.681,1.954,-4.298,-1.563,-5.861,-20.317,18.755,25.397,4.689,-12.894,-4.298
'[16:43:27.906 06/11/2076]',33.993,-15.629,-14.457,12.894,30.867,-26.178,-9.768,22.662,21.880,-14.066,1.954,29.695,40.244,-1.172,-7.814,9.768,-8.205,-12.894,15.238,25.397,7.814,-13.675,-7.814
'[16:43:27.910 06/11/2076]',29.304,-12.894,-11.722,10.940,24.615,-31.648,-7.814,31.258,15.629,-16.410,0.781,17.192,27.741,14.457,-13.675,-10.159,-11.722,-15.629,12.503,10.549,18.755,-6.642,-13.675
'[16:43:27.914 06/11/2076]',23.053,-13.284,-9.768,18.755,18.755,-41.416,-3.126,44.933,7.424,-15.238,-5.079,20.317,21.099,26.178,-17.582,-21.099,-11.331,-16.801,10.549,-1.954,37.900,-0.391,-17.582
'[16:43:27.918 06/11/2076]',21.099,-12.112,-4.298,13.675,17.973,-42.589,7.033,36.337,8.205,-11.331,-2.344,25.397,28.913,21.880,-16.410,-13.675,-7.424,-12.503,5.079,0.391,40.635,-1.563,-16.410
'[16:43:27.922 06/11/2076]',21.099,-14.457,2.735,9.377,16.020,-33.993,9.768,27.741,10.940,-8.596,1.954,19.927,35.946,16.410,-12.894,-13.284,-3.907,-11.331,-1.954,7.424,35.165,-5.079,-12.894
'[16:43:27.926 06/11/2076]',29.304,-6.642,-5.861,8.987,18.755,-20.708,-0.781,29.304,7.033,-9.377,5.079,21.490,34.774,10.159,-8.596,-10.159,-5.470,-10.159,6.642,7.033,17.192,-3.907,-8.596
'[16:43:27.930 06/11/2076]',36.728,-11.722,2.735,4.298,22.271,-7.033,-6.252,23.834,5.470,-12.503,9.768,23.443,24.615,10.159,-5.861,-1.563,-1.954,-2.735,-1.954,17.582,0.391,-1.172,-5.861
'[16:43:27.934 06/11/2076]',40.244,-7.424,-0.781,7.814,20.317,-0.781,-1.563,21.490,3.907,-14.457,12.894,18.364,21.490,4.298,-7.424,3.126,0.000,1.954,1.563,16.020,-3.126,-3.907,-7.424
'[16:43:27.938 06/11/2076]',35.165,-7.814,0.391,12.112,14.847,0.391,0.000,24.225,3.907,-19.536,9.768,17.582,15.238,5.470,-14.066,5.861,-2.344,3.516,0.391,14.457,3.907,-3.126,-14.066
'[16:43:27.941 06/11/2076]',28.523,-17.973,12.894,14.457,12.503,0.391,0.000,25.397,3.907,-22.662,4.298,21.880,10.940,3.126,-17.582,12.112,-2.735,0.391,-12.112,19.927,14.066,-1.172,-17.582
'[16:43:27.945 06/11/2076]',19.536,-13.284,11.722,17.973,14.066,-1.563,1.172,23.834,8.205,-21.880,3.126,15.629,12.112,-1.172,-13.675,10.159,-2.344,-3.126,-10.940,23.053,18.364,-7.033,-13.675
'[16:43:27.949 06/11/2076]',12.894,-11.722,12.112,21.490,14.066,-2.344,0.000,25.397,10.159,-18.755,1.563,11.331,12.112,-2.735,-8.596,5.861,0.000,-7.424,-11.331,21.490,23.053,-9.377,-8.596
'[16:43:27.953 06/11/2076]',10.159,-10.940,13.675,23.053,16.020,-3.516,-1.954,27.350,12.112,-14.847,1.172,23.834,13.675,-4.689,-1.172,16.020,1.954,-10.159,-12.894,23.053,19.145,-9.377,-1.172
'[16:43:27.957 06/11/2076]',11.722,-10.549,9.768,23.443,18.364,-3.516,-0.781,22.271,13.675,-10.159,5.079,28.913,16.801,-5.861,-0.391,28.132,5.861,-8.987,-8.987,24.615,12.894,-6.252,-0.391
'[16:43:27.961 06/11/2076]',14.066,-5.079,7.814,22.271,19.536,0.000,-0.781,20.708,16.801,-11.331,8.596,11.722,14.457,-3.126,0.781,15.238,7.424,-9.768,-7.033,20.708,7.033,-3.907,0.781
'[16:43:27.965 06/11/2076]',12.503,-5.861,5.861,24.225,17.192,-0.781,-3.907,26.178,12.894,-16.410,7.814,3.907,6.252,-2.344,-1.563,7.424,1.563,-12.503,-5.079,20.317,5.861,-3.126,-1.563
'[16:43:27.969 06/11/2076]',11.331,-9.377,3.516,27.741,16.020,-1.954,-3.907,23.834,16.801,-20.317,4.298,17.192,12.503,-5.470,-10.940,24.225,-1.563,-13.284,-2.735,23.053,7.814,1.563,-10.940
'[16:43:27.973 06/11/2076]',11.722,-8.205,1.563,30.867,21.880,-5.861,-1.172,22.662,23.443,-21.099,1.563,23.834,20.708,-14.457,-5.861,28.913,-2.735,-13.675,-0.781,21.099,16.020,-5.861,-5.861
'[16:43:27.977 06/11/2076]',0.391,-7.814,0.781,34.774,7.033,-12.503,-3.516,38.291,15.238,-19.145,-6.252,12.503,7.033,-6.252,-1.172,3.516,-3.907,-20.317,0.000,2.735,38.291,-8.987,-1.172
'[16:43:27.980 06/11/2076]',0.781,-6.642,1.172,34.383,3.907,-10.940,-0.781,39.072,16.020,-15.238,-5.861,15.238,8.205,-0.391,1.172,1.954,0.000,-15.238,-0.391,-1.954,40.635,-4.689,1.172
'[16:43:27.984 06/11/2076]',9.768,-4.689,2.735,27.350,8.987,-4.689,7.424,24.225,19.145,-11.722,-0.391,17.582,20.317,-7.424,2.735,10.159,2.344,-5.079,-1.954,9.768,30.867,-9.377,2.735
'[16:43:27.988 06/11/2076]',15.629,-9.377,0.391,26.178,10.159,-0.391,1.954,21.880,15.629,-15.238,3.126,18.364,24.615,-19.927,3.516,15.238,-3.126,-3.516,0.391,21.880,17.192,-15.629,3.516
'[16:43:27.992 06/11/2076]',20.317,-8.987,-3.516,22.662,14.457,-1.563,-5.079,23.053,14.066,-17.582,3.907,20.708,19.145,-17.192,5.470,14.066,-8.205,-7.033,4.298,25.006,0.781,-10.549,5.470
'[16:43:27.996 06/11/2076]',26.960,-11.722,-7.033,20.317,21.880,-1.563,-7.814,16.801,16.020,-20.317,3.907,23.053,20.317,-20.317,5.470,19.145,-10.940,-6.642,7.814,29.695,-5.861,-11.722,5.470
'[16:43:28.000 06/11/2076]',25.397,-16.410,-7.033,23.443,23.834,-5.079,-6.642,14.847,11.722,-21.099,0.781,18.755,16.801,-26.960,5.079,17.192,-11.722,-7.424,7.814,28.523,0.000,-17.582,5.079
'[16:43:28.004 06/11/2076]',25.006,-12.503,-7.033,22.662,22.271,-5.861,-1.954,15.238,13.284,-22.271,1.954,20.317,15.629,-23.053,4.689,16.020,-9.768,-7.814,7.814,21.099,3.126,-14.457,4.689
'[16:43:28.008 06/11/2076]',25.788,-15.238,2.735,22.271,20.317,4.298,0.781,9.768,15.238,-21.099,0.781,28.913,19.536,-21.490,1.954,26.178,-6.642,-2.344,-1.954,23.053,4.298,-9.768,1.954
'[16:43:28.012 06/11/2076]',23.834,-12.894,7.033,21.099,18.755,7.033,3.126,10.159,15.629,-23.053,1.563,24.615,21.490,-18.755,-1.172,18.755,-4.298,1.954,-6.252,23.443,6.252,-8.987,-1.172
'[16:43:28.016 06/11/2076]',21.490,-8.987,4.298,21.099,12.894,6.642,1.563,17.192,13.675,-19.927,0.000,17.973,16.020,-16.801,6.252,6.252,-4.298,3.516,-3.516,20.317,3.126,-13.284,6.252
'[16:43:28.020 06/11/2076]',22.271,-5.861,5.079,18.755,14.457,7.033,3.907,15.629,14.847,-12.894,0.781,25.006,19.536,-14.847,7.814,15.629,-2.344,7.814,-4.298,18.755,0.391,-11.331,7.814
'[16:43:28.023 06/11/2076]',29.304,-1.563,1.563,16.410,22.662,6.642,5.079,12.112,15.238,-8.596,1.954,32.821,23.053,-19.536,9.377,28.913,-1.172,10.159,-0.781,17.192,-3.126,-14.066,9.377
'[16:43:28.027 06/11/2076]',28.132,0.391,1.954,19.536,26.569,3.126,2.735,19.145,15.629,-4.689,0.391,19.927,17.192,-18.755,16.410,16.410,1.563,2.344,-1.172,13.284,-7.033,-14.457,16.410
'[16:43:28.031 06/11/2076]',23.053,-1.954,7.814,20.317,25.397,2.735,0.391,22.662,14.847,-0.391,-1.563,13.284,12.112,-10.940,16.020,8.987,4.689,-1.172,-7.033,8.205,1.172,-10.940,16.020
'[16:43:28.035 06/11/2076]',24.615,-8.596,15.629,19.536,30.867,3.516,2.344,15.629,21.880,-1.563,-6.252,26.569,11.722,-2.344,6.642,24.225,7.814,2.735,-14.847,14.847,8.205,-7.033,6.642
'[16:43:28.039 06/11/2076]',18.755,-11.722,16.410,22.662,26.178,-1.563,3.126,19.927,22.271,0.391,-16.020,33.602,16.410,2.344,-1.172,23.834,8.205,4.298,-15.629,9.768,22.662,-3.126,-1.172
'[16:43:28.043 06/11/2076]',14.066,-4.689,10.549,18.755,20.317,-4.689,3.516,21.490,17.582,1.563,-16.410,10.159,3.907,19.536,-5.470,-3.126,9.377,1.172,-9.768,-3.907,31.648,3.126,-5.470
'[16:43:28.047 06/11/2076]',19.145,0.781,5.861,11.722,25.006,-0.781,2.344,13.675,15.238,1.954,-10.159,2.735,4.689,26.569,-12.112,-7.424,11.331,6.252,-5.079,-5.861,29.304,7.033,-12.112
'[16:43:28.051 06/11/2076]',28.523,4.298,0.391,17.192,32.821,4.689,4.689,7.814,14.066,3.126,-4.298,10.940,19.145,-3.907,-2.344,12.503,10.940,13.284,0.391,5.470,6.642,-5.470,-2.344
'[16:43:28.055 06/11/2076]',34.383,8.596,-1.954,16.801,35.165,13.284,4.689,5.470,19.145,4.298,0.000,7.814,21.099,-16.410,9.768,17.973,16.020,11.722,2.735,6.252,-6.642,-15.629,9.768
'[16:43:28.059 06/11/2076]',39.463,7.814,2.735,10.549,36.728,19.536,0.391,5.470,22.271,2.344,0.391,15.629,17.582,-18.755,16.801,25.006,17.973,12.112,-1.954,6.642,-7.814,-22.271,16.801
'[16:43:28.063 06/11/2076]',40.635,8.205,5.861,7.424,30.476,25.006,0.781,6.642,21.880,3.516,-1.954,20.708,19.536,-16.020,13.284,28.132,19.927,13.675,-5.079,10.549,-10.159,-19.927,13.284
'[16:43:28.066 06/11/2076]',40.635,13.284,3.126,1.563,25.397,26.178,2.735,5.861,23.443,4.298,-0.391,10.549,17.582,-1.954,8.205,15.629,21.880,12.894,-2.344,7.033,-11.722,-13.675,8.205
'[16:43:28.070 06/11/2076]',44.933,20.317,-1.172,-5.470,26.960,23.443,2.344,5.079,21.099,4.298,4.298,8.596,20.708,8.596,3.126,7.424,17.973,15.238,1.954,-0.391,-5.079,-7.033,3.126
'[16:43:28.074 06/11/2076]',46.496,14.847,-0.781,-5.470,30.476,23.834,0.391,0.781,18.364,4.298,7.424,15.629,28.132,16.801,-9.768,12.503,12.894,17.582,1.563,4.689,-4.298,5.470,-9.768
'[16:43:28.078 06/11/2076]',47.668,18.755,-6.642,-2.735,35.946,23.053,1.172,-3.126,18.755,3.516,10.549,8.596,24.225,6.642,5.079,6.642,12.503,17.582,7.424,-1.172,-5.470,-3.907,5.079
'[16:43:28.082 06/11/2076]',45.324,23.053,-3.516,-6.252,39.072,23.053,2.344,-6.252,17.973,3.516,12.112,0.000,15.629,4.298,12.503,1.172,12.503,18.364,4.298,-6.642,-3.126,-10.549,12.503
'[16:43:28.086 06/11/2076]',43.370,15.629,4.689,-6.252,39.072,28.132,3.126,-12.503,18.755,2.344,10.549,12.503,13.675,-3.907,14.066,21.099,12.503,21.099,-3.907,2.735,-5.470,-16.801,14.066
'[16:43:28.090 06/11/2076]',42.589,17.582,4.298,-5.079,40.244,28.523,6.252,-16.410,22.271,0.391,10.549,24.615,17.582,-12.894,15.238,39.463,16.020,23.443,-3.516,6.642,-12.112,-19.536,15.238
'[16:43:28.094 06/11/2076]',37.509,26.960,5.470,-5.861,35.946,27.350,6.642,-5.470,22.271,-1.954,10.549,10.159,5.470,2.735,12.894,21.880,19.145,18.364,-4.689,-4.298,-12.894,-10.159,12.894
'[16:43:28.098 06/11/2076]',35.165,19.927,6.252,-3.516,24.615,27.350,5.861,0.391,21.099,-4.298,8.987,5.470,0.391,16.410,5.079,9.377,22.271,17.582,-5.470,-5.861,-5.079,0.391,5.079
'[16:43:28.102 06/11/2076]',39.853,12.894,1.563,1.172,21.099,23.834,12.894,-0.781,21.099,-2.735,5.470,26.960,14.066,17.973,-3.907,24.225,25.006,22.271,-0.781,-10.159,4.689,11.722,-3.907
'[16:43:28.105 06/11/2076]',39.072,17.582,-3.516,-1.563,15.238,24.615,17.973,-6.642,23.834,-1.954,5.470,10.940,5.861,28.523,-1.954,7.424,28.523,20.317,4.298,-17.582,12.894,12.112,-1.954
'[16:43:28.109 06/11/2076]',42.979,7.814,1.172,-8.205,10.159,30.085,13.675,-10.159,20.317,0.391,8.596,-7.033,-1.172,28.913,5.470,-9.768,29.304,17.582,-0.391,-16.801,14.066,7.424,5.470
'[16:43:28.113 06/11/2076]',42.589,10.549,-2.735,-5.861,11.722,33.993,11.331,-13.284,17.582,1.563,13.675,-5.079,0.781,20.317,9.377,-1.563,28.523,21.880,3.516,-13.675,5.470,3.126,9.377
'[16:43:28.117 06/11/2076]',37.509,21.490,-1.954,-3.126,21.880,29.304,18.364,-15.629,17.973,5.470,21.099,-7.814,2.735,18.364,12.503,4.689,29.695,26.960,2.735,-5.470,-5.079,0.391,12.503
'[16:43:28.121 06/11/2076]',37.509,15.238,9.377,-1.954,25.788,31.648,18.364,-14.457,18.755,7.424,25.788,-4.298,7.033,21.490,9.377,10.159,30.085,29.695,-8.596,4.298,-13.675,10.159,9.377
'[16:43:28.125 06/11/2076]',36.728,17.582,13.284,0.781,31.258,33.993,15.238,-10.940,20.708,5.861,26.960,8.596,12.503,20.317,9.768,21.099,31.648,29.304,-12.503,6.252,-15.629,14.847,9.768
'[16:43:28.129 06/11/2076]',41.026,20.317,15.238,-1.954,37.900,36.728,15.238,-14.847,20.317,5.861,25.006,8.596,10.549,10.159,19.536,21.490,34.383,28.132,-14.457,5.470,-16.410,5.861,19.536
'[16:43:28.133 06/11/2076]',45.714,17.973,14.066,-6.642,33.602,42.198,14.457,-18.755,21.880,2.344,23.834,1.954,6.642,7.814,22.271,14.457,35.556,26.178,-13.284,4.298,-16.410,-1.172,22.271
'[16:43:28.137 06/11/2076]',46.886,14.066,8.596,-7.814,28.523,42.198,13.284,-21.880,21.099,0.391,20.317,4.689,6.642,5.861,13.284,21.490,34.383,22.662,-7.814,0.000,-8.596,-4.689,13.284
'[16:43:28.141 06/11/2076]',41.807,13.284,4.689,-6.252,24.225,38.291,15.238,-23.443,17.582,0.781,16.801,9.377,11.722,1.172,4.689,28.913,33.211,19.145,-3.907,-0.781,-1.172,-5.079,4.689
'[16:43:28.145 06/11/2076]',33.993,14.457,1.563,-6.252,16.801,34.774,17.192,-24.225,17.192,0.391,17.582,-3.907,17.192,5.470,-3.516,14.847,32.039,16.410,-0.781,1.172,0.000,0.000,-3.516
'[16:43:28.148 06/11/2076]',28.523,13.675,0.000,-1.954,12.112,36.337,13.284,-21.880,9.768,0.391,17.973,-10.940,18.755,12.503,-19.145,7.033,31.258,16.801,0.781,1.954,1.954,10.940,-19.145
'[16:43:28.152 06/11/2076]',23.834,10.940,5.861,2.344,8.987,44.151,12.112,-20.708,6.252,-1.563,19.927,10.549,31.258,-13.284,-8.987,28.913,30.085,24.225,-5.079,6.642,3.907,-3.126,-8.987
'[16:43:28.156 06/11/2076]',25.788,8.596,7.033,3.126,6.252,49.231,12.503,-22.271,3.907,-5.470,21.099,22.662,34.383,-22.662,-3.907,35.946,27.741,31.648,-6.252,10.159,5.861,-12.112,-3.907
'[16:43:28.160 06/11/2076]',26.178,6.642,9.768,2.735,-3.126,50.012,14.066,-13.675,0.000,-10.549,18.755,14.066,18.364,-8.987,-2.344,16.410,25.788,35.946,-8.987,-0.391,14.066,-11.722,-2.344
'[16:43:28.164 06/11/2076]',16.410,7.814,12.894,8.205,-18.364,44.933,20.708,0.391,0.391,-8.205,10.940,14.066,6.252,5.079,3.126,3.516,26.178,38.291,-12.112,-15.238,27.741,-8.205,3.126
'[16:43:28.168 06/11/2076]',17.973,10.549,11.722,4.298,-20.317,43.370,31.258,-7.033,8.596,-2.735,12.503,18.364,14.457,12.503,1.954,8.987,28.132,44.151,-10.940,-8.205,25.006,-4.298,1.954
'[16:43:28.172 06/11/2076]',19.145,19.927,3.516,-0.391,-18.755,41.416,33.602,-12.112,16.410,0.000,14.847,11.331,17.582,18.364,3.126,5.470,29.304,46.105,-2.735,-4.689,12.112,-3.907,3.126
'[16:43:28.176 06/11/2076]',18.364,22.271,1.563,3.126,-16.801,50.403,19.145,-3.907,17.582,0.000,16.410,16.410,14.847,17.582,6.252,12.894,26.960,39.853,-0.781,-1.172,-0.781,-3.126,6.252
'[16:43:28.180 06/11/2076]',26.178,28.523,0.391,1.563,-3.126,51.184,14.066,-3.516,15.238,1.563,21.099,22.662,16.020,17.192,8.205,20.708,26.178,39.853,0.391,-0.781,-10.940,-3.126,8.205
'[16:43:28.184 06/11/2076]',30.085,24.615,1.563,3.126,1.954,47.668,15.629,-3.516,9.768,0.391,22.662,22.271,11.331,12.503,8.987,24.225,23.053,42.198,-0.781,7.033,-17.192,-9.768,8.987
'[16:43:28.188 06/11/2076]',26.960,19.927,9.768,9.377,0.000,43.370,19.145,5.861,7.814,1.563,21.099,24.225,11.722,14.066,7.033,23.443,17.582,42.589,-8.987,6.642,-12.112,-6.252,7.033
'[16:43:28.191 06/11/2076]',25.788,17.192,12.503,10.549,-3.126,37.118,23.834,8.596,8.987,2.344,21.099,28.913,15.629,16.801,5.861,23.834,15.238,42.589,-11.722,5.861,-5.861,-2.344,5.861
'[16:43:28.195 06/11/2076]',23.834,15.629,10.159,10.159,-4.689,35.165,25.788,5.470,12.503,0.000,22.271,21.880,21.490,13.675,7.033,15.238,15.629,42.979,-9.377,14.066,-3.126,-8.205,7.033
'[16:43:28.199 06/11/2076]',19.145,14.847,7.814,8.596,-9.768,37.118,19.927,4.689,13.284,-3.516,24.225,14.457,19.927,16.020,7.033,5.861,13.675,42.979,-7.033,16.020,-5.079,-8.596,7.033
'[16:43:28.203 06/11/2076]',21.490,19.145,7.033,5.470,-7.424,40.244,18.364,4.298,17.192,-5.470,25.006,30.476,21.490,18.755,11.331,15.629,14.847,42.979,-6.252,12.503,-5.470,-7.424,11.331
'[16:43:28.207 06/11/2076]',26.569,24.225,9.377,2.344,-3.907,41.026,23.834,3.516,22.271,-5.861,26.569,40.635,26.178,14.847,16.801,25.788,14.066,47.668,-8.596,10.159,-10.940,-8.205,16.801
'[16:43:28.211 06/11/2076]',28.523,23.053,14.457,1.172,-4.689,41.807,28.523,4.298,22.271,-3.126,26.960,26.178,21.490,17.973,19.536,14.847,12.112,49.621,-13.675,9.768,-16.410,-3.516,19.536
'[16:43:28.215 06/11/2076]',32.039,27.350,12.894,4.298,-8.987,39.853,33.993,13.675,21.490,0.391,25.006,22.662,21.099,23.053,16.801,10.159,12.894,50.403,-12.112,-1.172,-15.629,2.344,16.801
'[16:43:28.219 06/11/2076]',37.118,22.271,13.284,7.033,-7.814,39.853,37.118,12.894,22.271,2.735,21.490,38.291,30.085,18.755,8.596,29.304,17.192,53.529,-12.503,-0.781,-11.722,5.470,8.596
'[16:43:28.223 06/11/2076]',34.774,10.940,17.582,8.205,-3.516,34.383,33.211,8.205,20.317,6.252,19.927,39.853,32.821,19.536,5.079,31.258,17.582,52.747,-16.801,5.470,-0.391,6.642,5.079
'[16:43:28.227 06/11/2076]',21.880,15.629,11.722,12.503,-5.470,24.615,23.053,21.099,12.503,3.907,11.722,28.132,14.066,37.900,-0.391,7.033,17.582,41.807,-10.940,-14.066,19.536,12.112,-0.391
'[16:43:28.230 06/11/2076]',14.457,20.708,10.549,7.424,-0.391,19.536,18.364,18.364,17.582,1.172,11.722,27.350,10.159,35.165,9.768,3.907,16.410,41.026,-9.768,-18.364,24.615,4.689,9.768
'[16:43:28.234 06/11/2076]',12.112,17.973,16.801,3.126,3.907,19.145,24.615,4.689,23.053,4.689,17.973,20.708,22.662,21.099,13.675,10.940,13.284,49.621,-16.020,-2.344,20.317,-5.079,13.675
'[16:43:28.238 06/11/2076]',15.629,16.801,14.847,2.735,4.689,25.006,21.099,1.172,25.397,3.907,20.317,18.755,32.430,8.205,8.987,21.099,8.205,51.966,-14.066,7.814,4.689,-8.987,8.987
'[16:43:28.242 06/11/2076]',17.192,22.271,6.252,-0.781,2.344,26.178,14.847,3.126,26.569,3.126,18.364,19.145,34.383,3.126,6.642,25.006,9.768,47.668,-5.470,3.907,-4.298,-8.205,6.642
'[16:43:28.246 06/11/2076]',25.788,20.317,0.391,-1.954,7.424,25.006,12.112,0.391,25.006,4.298,15.238,17.192,36.728,0.391,1.954,25.397,10.549,45.324,0.391,6.252,-8.596,-6.642,1.954
'[16:43:28.250 06/11/2076]',29.304,19.145,-7.033,0.391,9.768,19.536,12.112,0.000,21.490,5.470,12.503,9.377,30.867,7.424,-3.126,16.410,10.549,40.635,7.814,5.470,-7.424,-2.735,-3.126
'[16:43:28.254 06/11/2076]',32.430,27.350,-20.708,1.172,11.722,12.503,14.066,2.344,25.788,5.470,10.940,10.159,28.523,14.847,-2.344,12.894,9.768,36.337,21.490,-7.424,-5.470,0.391,-2.344
'[16:43:28.258 06/11/2076]',36.728,18.755,-13.284,1.172,17.582,9.768,15.238,1.954,23.053,6.642,12.112,12.112,27.741,13.675,0.391,15.238,5.470,36.337,14.066,-0.391,0.391,-2.344,0.391
'[16:43:28.262 06/11/2076]',38.291,9.768,-3.907,3.516,17.192,12.112,16.801,1.563,23.834,8.596,12.894,7.033,28.132,15.629,1.563,9.377,2.735,37.118,4.689,7.424,2.735,-4.298,1.563
'[16:43:28.266 06/11/2076]',35.946,8.596,-2.344,2.344,15.629,11.722,14.066,2.735,20.317,6.252,12.112,1.563,26.178,14.457,0.000,2.735,1.954,30.867,3.126,7.424,3.126,-6.252,0.000
'[16:43:28.270 06/11/2076]',38.291,5.079,0.391,0.391,22.271,9.768,12.894,-0.391,18.364,5.470,11.722,12.112,29.304,7.033,-1.563,15.629,3.516,26.178,0.391,10.940,5.470,-9.768,-1.563
'[16:43:28.273 06/11/2076]',42.198,5.079,-1.954,-1.172,28.132,12.503,10.549,-7.033,21.490,4.689,12.894,17.582,33.602,0.391,-3.126,27.741,3.516,25.006,2.735,15.238,-0.391,-11.331,-3.126
'[16:43:28.277 06/11/2076]',37.118,9.768,-7.424,-0.391,23.053,13.675,6.252,-4.689,21.490,2.344,14.066,3.516,22.662,6.642,-0.781,14.457,3.126,21.099,8.205,7.814,-5.079,-9.768,-0.781
'[16:43:28.281 06/11/2076]',33.211,11.722,-10.159,3.516,17.582,14.066,2.735,3.907,17.973,5.470,14.066,-0.781,15.629,11.722,2.735,7.814,3.516,23.443,10.940,-0.391,-0.391,-8.205,2.735
'[16:43:28.285 06/11/2076]',33.211,4.689,-9.377,3.907,16.020,10.940,5.861,0.000,19.536,7.424,13.675,8.596,23.053,5.470,5.470,17.582,0.781,30.085,10.159,3.907,1.954,-10.940,5.470
'[16:43:28.289 06/11/2076]',29.695,0.391,-7.424,7.033,11.331,2.344,9.768,6.642,20.708,8.205,7.033,16.020,24.615,10.549,4.689,14.847,-4.298,31.258,8.205,-0.781,12.503,-7.424,4.689
'[16:43:28.293 06/11/2076]',26.960,-0.391,-6.252,3.126,6.642,-1.563,8.205,9.377,14.457,8.596,7.424,-5.470,16.410,17.973,5.470,-11.331,-4.689,24.615,7.033,-8.205,23.443,-5.470,5.470
'[16:43:28.297 06/11/2076]',33.211,0.391,-6.252,-4.689,11.722,1.172,6.642,1.172,18.364,6.642,8.987,-10.549,17.582,15.238,8.205,-14.457,-5.079,23.443,7.033,-5.470,16.020,-6.642,8.205
'[16:43:28.301 06/11/2076]',41.026,-1.954,-8.987,-1.563,17.973,6.252,8.596,-6.252,25.788,1.563,13.675,-6.642,20.708,8.205,8.205,-0.391,-8.987,27.350,9.768,6.252,0.391,-8.987,8.205
'[16:43:28.305 06/11/2076]',43.370,-3.126,-9.768,-1.172,20.317,7.814,8.987,-8.596,25.006,0.391,17.582,-8.205,23.443,3.516,7.033,3.126,-8.987,26.960,10.549,10.159,-1.954,-9.768,7.033
'[16:43:28.309 06/11/2076]',44.933,-2.735,-10.549,0.000,24.615,7.033,4.689,-6.252,28.132,-0.391,16.410,0.781,24.615,1.954,9.768,9.768,-8.205,22.662,11.331,10.159,-6.252,-7.033,9.768
'[16:43:28.313 06/11/2076]',42.589,-4.298,-12.112,1.954,26.960,1.563,5.079,-5.470,30.867,-0.781,15.238,5.470,28.132,1.563,12.112,10.940,-7.033,19.927,12.894,10.159,-6.252,-5.861,12.112
'[16:43:28.316 06/11/2076]',35.556,-4.689,-13.675,6.252,23.053,-3.126,6.642,-3.907,29.304,3.516,16.410,-0.781,28.132,6.642,10.940,5.470,-3.907,16.410,14.457,9.377,-5.079,-2.344,10.940
'[16:43:28.320 06/11/2076]',34.774,-2.735,-13.284,6.642,24.615,-0.391,5.861,-4.298,32.821,9.377,19.927,2.344,31.258,11.722,15.629,7.814,1.954,12.503,14.066,4.689,-7.424,2.735,15.629
'[16:43:28.324 06/11/2076]',35.946,-3.516,-12.112,8.596,26.960,4.298,3.516,-6.642,39.072,12.503,20.317,12.503,38.291,8.205,23.053,17.192,3.126,15.238,12.894,4.689,-8.596,0.391,23.053
'[16:43:28.328 06/11/2076]',38.291,-7.033,-7.424,13.284,28.132,6.642,4.298,-2.735,40.244,15.238,19.927,4.298,35.946,14.457,22.271,9.377,4.689,18.364,8.205,5.861,-7.033,1.954,22.271
'[16:43:28.332 06/11/2076]',40.244,-5.470,-3.907,13.675,30.476,9.377,3.516,0.391,42.198,15.238,19.927,-3.516,33.993,21.490,22.662,-1.563,6.642,18.755,4.689,2.735,-7.814,5.861,22.662
'[16:43:28.336 06/11/2076]',47.668,-1.172,-4.298,11.722,37.118,10.940,7.033,-2.735,46.886,14.457,19.927,10.549,40.635,17.192,21.490,13.675,7.033,23.443,5.079,3.907,-13.284,5.861,21.490
'[16:43:28.340 06/11/2076]',51.184,-1.563,-7.424,13.284,38.291,10.549,10.940,-5.079,46.886,13.675,16.410,23.053,46.105,16.801,11.331,28.523,7.033,26.178,8.205,7.033,-19.927,12.112,11.331
'[16:43:28.344 06/11/2076]',46.886,3.126,-15.238,13.675,32.039,6.252,8.596,1.172,41.026,14.847,16.020,9.377,34.383,29.304,14.066,6.252,7.814,18.755,16.020,-4.689,-19.927,18.364,14.066
'[16:43:28.348 06/11/2076]',42.589,7.424,-20.317,12.112,24.615,2.344,8.205,5.861,38.681,17.582,15.629,7.033,26.569,36.728,23.834,-5.861,9.768,18.364,21.099,-17.192,-15.629,16.410,23.834
'[16:43:28.352 06/11/2076]',35.556,-2.735,-13.284,16.801,23.834,-5.470,13.675,3.907,32.821,22.271,8.205,23.443,29.695,33.211,18.755,7.814,11.722,23.834,14.066,-11.722,-1.954,16.020,18.755
'[16:43:28.355 06/11/2076]',29.304,-1.954,-2.344,10.159,26.569,-5.861,12.112,1.954,33.211,26.178,10.159,9.768,29.304,37.900,19.145,-5.861,15.238,22.662,3.126,-10.159,3.516,14.847,19.145
'[16:43:28.359 06/11/2076]',28.913,7.033,2.735,3.126,28.523,0.391,8.596,3.907,33.993,27.350,14.066,-8.987,23.443,44.151,21.490,-20.708,18.364,18.755,-1.954,-14.066,1.172,14.847,21.490
'[16:43:28.363 06/11/2076]',31.648,6.642,1.563,0.000,28.913,5.861,3.907,0.391,30.085,23.443,13.675,-8.987,23.053,37.509,10.940,-11.722,17.192,18.364,-0.781,-0.781,-11.331,13.675,10.940
'[16:43:28.367 06/11/2076]',33.602,7.424,-1.172,0.000,23.443,11.331,5.861,-1.954,29.695,24.615,14.457,-18.364,27.350,32.821,6.642,-14.457,18.364,18.364,1.954,8.205,-24.225,13.675,6.642
'[16:43:28.371 06/11/2076]',41.416,5.470,-2.344,2.344,19.145,17.973,7.814,0.391,33.993,27.741,12.894,-23.053,28.132,35.946,7.424,-17.973,23.053,14.457,3.126,10.940,-28.913,14.457,7.424
'[16:43:28.375 06/11/2076]',42.198,2.344,-1.172,1.954,19.536,19.145,7.033,-0.391,36.728,28.132,3.907,-15.629,31.258,30.476,5.470,-12.112,26.178,7.033,1.954,9.768,-22.662,14.066,5.470
'[16:43:28.379 06/11/2076]',39.853,14.457,6.642,1.563,27.350,24.225,11.722,0.000,44.151,31.648,0.000,-20.708,35.556,32.039,6.252,-17.582,32.039,5.861,-5.861,-1.563,-10.549,17.973,6.252
'[16:43:28.383 06/11/2076]',36.728,21.490,10.159,1.172,29.695,29.304,10.159,1.172,47.277,35.165,-1.563,-27.350,37.118,33.993,5.470,-22.271,33.993,4.689,-9.377,-5.861,-0.781,16.801,5.470
'[16:43:28.387 06/11/2076]',29.304,26.960,7.033,1.563,26.178,28.132,8.987,1.563,45.714,35.556,-4.298,-18.755,37.509,27.350,6.252,-12.112,28.913,6.252,-6.252,-11.331,4.298,14.847,6.252
'[16:43:28.391 06/11/2076]',23.053,25.397,5.861,3.907,18.364,25.397,8.596,5.861,42.589,33.602,-4.298,-9.768,41.026,28.132,-0.391,-3.907,21.880,9.377,-5.079,-10.159,10.159,18.755,-0.391
'[16:43:28.395 06/11/2076]',19.536,24.225,6.642,4.689,12.112,25.788,9.768,7.814,39.072,37.900,-5.079,-24.615,32.821,35.165,-1.563,-18.755,18.364,11.722,-5.861,-8.987,8.596,23.443,-1.563
'[16:43:28.398 06/11/2076]',24.615,26.178,8.987,2.735,17.192,26.960,10.549,8.987,43.761,36.337,-5.079,-32.821,29.695,44.542,-3.516,-26.569,16.020,10.940,-8.205,-7.033,4.689,26.178,-3.516
'[16:43:28.402 06/11/2076]',30.476,25.397,10.940,3.126,22.662,26.960,14.847,5.861,44.151,34.383,-8.596,-15.629,33.993,40.635,-8.596,-10.940,13.675,12.503,-10.159,-1.954,4.298,25.397,-8.596
'[16:43:28.406 06/11/2076]',31.648,28.523,14.847,3.516,26.569,28.132,20.317,3.907,45.714,34.774,-14.847,-9.768,33.211,41.026,-14.066,-3.126,13.284,11.331,-14.066,-2.735,7.814,25.788,-14.066
'[16:43:28.410 06/11/2076]',28.132,35.556,15.238,4.689,25.397,26.569,19.927,11.722,41.416,34.774,-19.145,-23.443,14.457,56.264,-11.722,-23.834,12.894,5.470,-14.457,-17.973,16.410,29.695,-11.722
'[16:43:28.414 06/11/2076]',20.708,34.774,13.284,11.331,17.973,19.145,20.708,22.271,34.383,35.946,-26.569,-26.960,2.344,67.204,-11.722,-38.681,12.894,2.344,-12.503,-33.211,33.993,34.774,-11.722
'[16:43:28.418 06/11/2076]',19.536,31.648,15.629,8.205,18.364,17.973,27.741,10.940,33.211,38.291,-26.569,-26.178,7.424,64.078,-17.582,-33.602,13.675,7.814,-14.847,-30.867,44.151,34.774,-17.582
'[16:43:28.422 06/11/2076]',22.662,33.602,12.503,-0.781,23.834,22.662,26.178,-3.907,36.728,40.244,-19.536,-37.509,13.675,63.297,-19.145,-37.118,14.066,12.503,-11.722,-24.615,37.900,35.165,-19.145
'[16:43:28.426 06/11/2076]',24.225,30.476,7.033,-6.642,23.053,28.132,11.331,-7.814,35.165,35.165,-16.410,-37.900,15.629,56.264,-23.443,-31.258,8.987,10.940,-6.252,-14.457,22.662,32.821,-23.443
