'Time and date','FP1-F7','F7-T7','T7-P7','P7-O1','FP1-F3','F3-C3','C3-P3','P3-O1','FP2-F4','F4-C4','C4-P4','P4-O2','FP2-F8','F8-T8','T8-P8','P8-O2','FZ-CZ','CZ-PZ','P7-T7','T7-FT9','FT9-FT10','FT10-T8','T8-P8'
'hh:mm:ss.mmm dd/mm/yyyy','uV','uV','uV','uV','uV','uV','uV','uV','uV','uV','uV','uV','uV','uV','uV','uV','uV','uV','uV','uV','uV','uV','uV'
'[13:43:04.000 06/11/2076]',-17.582,39.463,-3.516,8.596,-0.391,4.298,37.900,-14.847,-17.192,-44.933,25.006,153.162,101.978,-106.667,-59.780,180.513,-18.364,85.568,4.298,21.099,-8.987,-39.463,-59.780
'[13:43:04.004 06/11/2076]',0.391,0.391,0.391,0.391,0.391,0.391,0.391,0.391,0.391,0.391,0.391,0.391,0.391,0.391,0.391,0.391,0.391,0.391,0.391,0.391,0.391,0.391,0.391
'[13:43:04.008 06/11/2076]',0.391,0.391,0.391,0.391,0.391,0.391,0.391,0.391,0.391,0.391,0.391,0.391,0.391,0.391,0.391,0.391,0.391,0.391,0.391,0.391,0.391,0.391,0.391
'[13:43:04.012 06/11/2076]',0.781,0.391,0.391,0.391,0.391,0.391,0.781,0.000,0.391,0.781,0.391,1.172,1.954,-0.781,0.391,2.344,0.781,0.781,0.391,1.563,0.000,0.000,0.391
'[13:43:04.016 06/11/2076]',0.391,0.391,0.391,0.391,0.391,0.391,0.391,0.391,0.391,0.391,0.391,2.344,0.781,0.391,0.391,2.344,0.391,0.391,0.391,0.000,0.391,0.391,0.391
'[13:43:04.020 06/11/2076]',-1.172,1.954,0.391,-0.391,0.391,0.000,-1.954,2.735,-1.172,-1.563,-0.391,-4.298,-6.642,5.861,1.563,-8.596,-1.172,-2.344,0.391,-5.861,3.126,2.735,1.563
'[13:43:04.023 06/11/2076]',-1.954,1.954,0.391,0.000,0.000,-0.781,-1.563,2.344,-1.172,-1.954,0.000,-12.112,-8.596,7.424,1.563,-16.020,-1.172,-1.563,0.391,-5.079,3.126,1.954,1.563
'[13:43:04.027 06/11/2076]',0.781,-0.781,0.391,1.172,1.172,0.000,1.954,-1.563,1.563,1.172,0.781,-0.391,4.298,-3.126,-1.172,3.126,0.781,2.735,0.391,5.861,-1.172,-1.563,-1.172
'[13:43:04.031 06/11/2076]',3.126,-1.954,0.391,1.172,3.126,0.391,2.344,-3.126,3.126,2.344,0.391,18.364,13.284,-9.377,-2.735,23.834,1.563,2.735,0.391,8.205,-1.954,-1.563,-2.735
'[13:43:04.035 06/11/2076]',-0.391,1.563,0.391,-1.172,1.172,0.000,-3.126,1.954,-0.391,-0.781,-1.172,3.907,-3.516,4.298,1.172,0.000,-1.172,-3.907,0.391,-5.470,3.516,3.516,1.172
'[13:43:04.039 06/11/2076]',-6.642,6.252,0.391,-1.954,-1.172,-1.954,-7.814,8.596,-5.470,-6.252,-1.954,-29.695,-29.304,23.834,4.298,-44.542,-5.079,-9.377,0.391,-21.880,10.549,8.205,4.298
'[13:43:04.043 06/11/2076]',-16.020,12.894,-1.563,-4.298,0.781,-8.987,-19.536,17.973,-12.503,-17.582,-6.252,-49.621,-59.389,46.886,5.861,-81.661,-14.457,-19.927,2.344,-48.449,25.788,18.364,5.861
'[13:43:04.047 06/11/2076]',-23.053,17.192,-1.172,-8.596,6.252,-16.020,-28.913,22.662,-16.410,-26.178,-9.377,-82.051,-84.005,65.641,8.596,-126.203,-22.271,-26.960,1.954,-64.469,35.946,23.443,8.596
'[13:43:04.051 06/11/2076]',-22.662,12.503,-1.172,-5.861,16.410,-22.662,-29.304,17.582,-12.112,-26.960,-8.987,-86.349,-75.409,59.389,-0.391,-120.342,-26.178,-25.397,1.954,-52.357,37.509,20.317,-0.391
'[13:43:04.055 06/11/2076]',-19.536,7.033,-0.391,-5.861,27.741,-25.788,-30.476,9.768,-7.033,-23.443,-11.722,-64.078,-57.827,49.231,-9.768,-89.084,-27.350,-28.132,1.172,-41.416,39.072,19.145,-9.768
'[13:43:04.059 06/11/2076]',-18.364,5.470,2.344,-7.814,38.291,-28.132,-35.556,7.033,-3.907,-19.536,-16.020,-55.092,-55.092,50.794,-11.722,-79.316,-28.913,-32.821,-1.563,-41.026,42.589,22.271,-11.722
'[13:43:04.063 06/11/2076]',-20.317,5.470,5.861,-7.424,45.324,-30.085,-37.900,5.861,-4.298,-15.238,-16.020,-73.065,-64.860,60.952,-11.331,-95.336,-28.523,-36.337,-5.079,-43.761,48.059,25.006,-11.331
'[13:43:04.066 06/11/2076]',-21.880,5.470,7.424,-5.470,51.966,-33.602,-37.118,4.298,-6.642,-9.377,-19.145,-84.396,-74.628,68.376,-9.377,-104.713,-27.350,-38.681,-6.642,-46.886,49.621,28.132,-9.377
'[13:43:04.070 06/11/2076]',-19.536,5.861,10.940,-5.470,62.906,-36.337,-39.463,3.907,-5.470,-2.735,-20.708,-70.720,-72.674,67.204,-5.470,-88.694,-26.960,-39.072,-10.159,-48.449,49.231,29.695,-5.470
'[13:43:04.074 06/11/2076]',-17.973,3.516,13.284,-5.470,71.502,-40.244,-41.026,2.735,-5.470,1.563,-20.317,-61.343,-69.548,62.515,-3.126,-74.628,-27.741,-40.635,-12.503,-46.496,46.496,30.476,-3.126
'[13:43:04.078 06/11/2076]',-20.708,2.735,12.112,-4.689,71.893,-43.370,-43.761,5.079,-6.252,3.516,-19.536,-82.833,-79.316,68.767,-0.781,-94.554,-30.867,-46.886,-11.331,-49.621,44.151,32.430,-0.781
'[13:43:04.082 06/11/2076]',-22.271,3.907,11.722,-4.689,72.283,-44.933,-45.714,7.033,-4.689,5.470,-17.973,-93.382,-85.568,75.409,4.689,-105.885,-33.211,-48.059,-10.940,-54.310,41.026,34.774,4.689
'[13:43:04.086 06/11/2076]',-19.536,1.172,13.284,-4.298,75.409,-45.324,-44.542,5.470,0.391,5.861,-14.847,-69.939,-71.893,64.078,8.205,-79.707,-31.648,-41.026,-12.503,-49.231,36.337,32.821,8.205
'[13:43:04.090 06/11/2076]',-18.364,-1.172,15.238,-3.907,76.190,-46.496,-39.853,1.172,5.079,6.252,-12.503,-58.217,-60.952,55.092,10.940,-65.641,-30.476,-36.337,-14.457,-46.496,33.993,32.039,10.940
'[13:43:04.094 06/11/2076]',-20.708,0.000,17.192,-3.516,75.800,-47.668,-41.807,5.470,4.689,1.954,-10.940,-66.422,-72.283,62.906,17.973,-80.098,-34.383,-39.463,-16.410,-56.654,34.774,34.383,17.973
'[13:43:04.098 06/11/2076]',-17.192,0.391,19.145,-5.470,81.270,-46.496,-46.105,8.205,7.814,-3.126,-9.377,-65.250,-73.846,59.780,20.708,-78.535,-37.509,-39.072,-18.364,-59.780,30.085,33.211,20.708
'[13:43:04.102 06/11/2076]',-14.457,-3.907,23.443,-5.861,84.005,-48.840,-42.198,5.470,14.066,-5.079,-7.033,-60.952,-56.654,44.542,17.973,-66.422,-40.635,-33.602,-22.662,-47.668,24.225,28.132,17.973
'[13:43:04.105 06/11/2076]',-14.847,-5.470,27.350,-4.689,81.270,-51.575,-37.509,9.768,17.582,-3.516,-9.377,-60.952,-50.794,44.151,15.629,-66.422,-40.244,-33.602,-26.569,-48.449,30.085,29.695,15.629
'[13:43:04.109 06/11/2076]',-14.066,-3.516,30.476,-7.424,77.363,-51.184,-37.900,15.629,19.145,-3.516,-13.675,-56.264,-51.575,50.403,16.410,-71.111,-37.118,-35.946,-29.695,-55.873,37.118,33.993,16.410
'[13:43:04.113 06/11/2076]',-17.582,-2.735,33.211,-11.331,67.985,-55.092,-29.304,17.973,17.582,0.000,-16.020,-54.310,-48.449,58.217,17.973,-81.661,-30.085,-33.211,-32.430,-64.469,50.794,39.463,17.973
'[13:43:04.117 06/11/2076]',-21.099,-3.516,30.476,-6.642,57.827,-58.999,-22.662,22.271,8.987,3.126,-17.582,-51.575,-47.277,58.608,13.284,-82.051,-25.788,-31.258,-29.695,-64.860,60.171,37.118,13.284
'[13:43:04.121 06/11/2076]',-13.675,1.563,25.006,-12.894,59.389,-46.886,-27.741,14.457,3.907,0.000,-9.768,-56.654,-48.449,53.919,12.503,-81.661,-26.178,-34.774,-24.225,-57.827,45.714,31.258,12.503
'[13:43:04.125 06/11/2076]',-10.549,2.344,21.490,-13.675,56.654,-41.026,-31.258,13.675,-3.126,-3.907,-5.079,-43.370,-42.589,42.589,9.377,-67.595,-28.523,-32.821,-20.708,-50.403,37.900,25.006,9.377
'[13:43:04.129 06/11/2076]',-9.768,3.907,17.192,-16.410,51.575,-37.118,-32.039,11.722,-12.112,-7.033,-1.954,-48.449,-41.416,35.946,2.344,-69.158,-31.648,-30.476,-16.410,-42.979,32.821,17.192,2.344
'[13:43:04.133 06/11/2076]',-11.331,7.033,12.503,-21.490,44.933,-35.165,-34.774,10.940,-19.927,-9.768,-2.735,-56.264,-48.449,36.337,-0.781,-78.535,-34.774,-30.085,-11.722,-41.416,29.695,13.675,-0.781
'[13:43:04.137 06/11/2076]',-12.894,5.470,8.987,-24.225,36.728,-39.072,-34.383,13.675,-25.006,-9.768,-5.470,-38.291,-44.151,32.430,-4.298,-65.250,-37.118,-28.523,-8.205,-41.026,31.648,11.722,-4.298
'[13:43:04.141 06/11/2076]',-14.066,1.954,4.298,-27.350,28.913,-43.370,-32.821,11.722,-33.211,-6.252,-9.768,-23.443,-40.635,28.132,-9.768,-52.747,-38.291,-26.178,-3.516,-37.509,33.602,9.377,-9.768
'[13:43:04.145 06/11/2076]',-14.457,1.563,0.391,-32.430,20.708,-42.198,-33.602,8.596,-39.853,-4.689,-7.814,-44.542,-50.403,35.946,-11.331,-73.065,-38.291,-30.476,0.391,-39.072,30.867,7.424,-11.331
'[13:43:04.148 06/11/2076]',-11.722,2.735,-3.907,-35.946,14.066,-36.337,-36.728,8.596,-44.542,-5.079,-2.344,-55.482,-57.045,41.416,-10.940,-82.833,-39.463,-31.648,4.689,-39.072,21.880,5.861,-10.940
'[13:43:04.152 06/11/2076]',-5.861,-1.954,-7.424,-36.728,7.814,-32.821,-36.337,7.033,-47.277,-3.126,-1.172,-39.463,-44.151,28.523,-13.675,-62.906,-37.118,-25.397,8.205,-25.006,11.331,-0.781,-13.675
'[13:43:04.156 06/11/2076]',-4.689,-3.907,-10.940,-37.509,-0.391,-31.258,-35.165,8.596,-46.496,-1.954,-0.391,-36.337,-35.556,24.225,-18.755,-56.654,-37.509,-21.099,11.722,-17.973,7.424,-2.735,-18.755
'[13:43:04.160 06/11/2076]',-9.377,-3.126,-14.066,-39.853,-14.457,-33.993,-39.072,18.755,-49.621,-3.907,-5.470,-50.012,-48.840,37.509,-18.755,-80.879,-41.807,-27.741,14.847,-28.913,12.112,2.344,-18.755
'[13:43:04.164 06/11/2076]',-15.238,-5.861,-22.271,-39.072,-28.523,-41.807,-40.635,28.913,-56.654,-4.689,-16.020,-55.092,-60.562,46.886,-21.490,-99.634,-44.151,-28.523,23.053,-38.681,21.880,5.470,-21.490
'[13:43:04.168 06/11/2076]',-12.503,-8.596,-25.397,-43.370,-32.430,-41.807,-34.383,17.582,-53.529,-0.781,-17.192,-50.012,-47.668,39.072,-26.960,-87.521,-41.807,-21.490,26.178,-27.350,17.582,2.344,-26.960
'[13:43:04.172 06/11/2076]',-9.377,-5.470,-27.741,-52.357,-35.946,-34.383,-30.476,5.861,-52.747,-0.391,-10.940,-66.813,-46.105,39.463,-30.476,-95.726,-39.463,-19.145,28.523,-26.569,11.722,2.344,-30.476
'[13:43:04.176 06/11/2076]',-0.391,-3.126,-34.774,-58.217,-33.993,-23.443,-39.853,0.391,-53.138,-7.424,-8.596,-62.125,-44.933,32.039,-32.430,-87.521,-41.026,-15.629,35.556,-16.020,-6.252,-1.563,-32.430
'[13:43:04.180 06/11/2076]',7.424,-3.516,-38.291,-64.078,-33.602,-16.410,-41.026,-7.814,-51.575,-11.722,-3.907,-60.562,-36.728,23.443,-37.118,-79.316,-38.681,-9.768,39.072,-4.298,-19.145,-4.689,-37.118
'[13:43:04.184 06/11/2076]',10.159,-4.689,-42.979,-64.469,-36.337,-14.847,-41.026,-8.596,-51.966,-13.675,-0.781,-71.893,-35.946,22.662,-40.635,-86.740,-36.337,-10.549,43.761,-0.781,-23.834,-5.079,-40.635
'[13:43:04.188 06/11/2076]',11.722,-6.642,-47.277,-61.343,-38.681,-15.629,-44.151,-5.470,-50.794,-14.457,-3.907,-66.813,-37.900,23.834,-41.416,-83.223,-34.774,-11.722,48.059,0.000,-24.615,-3.516,-41.416
'[13:43:04.191 06/11/2076]',11.722,-9.377,-49.621,-58.999,-38.681,-16.020,-40.244,-10.940,-45.714,-14.066,-6.252,-55.873,-30.867,20.317,-46.496,-67.595,-31.258,-9.768,50.403,1.563,-22.662,-1.954,-46.496
'[13:43:04.195 06/11/2076]',11.331,-9.377,-50.794,-55.482,-37.118,-13.284,-37.118,-16.020,-41.416,-14.066,-4.689,-72.674,-30.867,19.927,-49.621,-74.628,-27.350,-9.768,51.575,3.907,-22.662,-2.735,-49.621
'[13:43:04.199 06/11/2076]',11.331,-9.377,-53.529,-49.621,-35.165,-9.768,-39.072,-16.020,-39.463,-15.629,-7.033,-86.349,-37.509,21.880,-51.575,-83.614,-25.397,-10.549,54.310,3.516,-23.053,-2.735,-51.575
'[13:43:04.203 06/11/2076]',14.847,-12.894,-53.529,-45.714,-30.476,-8.205,-37.900,-19.145,-36.337,-14.457,-10.159,-64.860,-29.304,13.284,-53.919,-57.827,-19.145,-10.940,54.310,9.768,-22.662,-3.126,-53.919
'[13:43:04.207 06/11/2076]',19.927,-16.801,-51.966,-42.979,-23.053,-9.768,-34.774,-23.443,-32.039,-12.112,-9.768,-53.529,-17.192,3.516,-53.919,-42.979,-14.066,-10.549,52.747,17.582,-23.834,-3.907,-53.919
'[13:43:04.211 06/11/2076]',19.145,-14.847,-53.138,-37.900,-19.927,-9.377,-36.728,-18.755,-31.648,-12.112,-8.987,-68.767,-26.569,12.894,-47.668,-62.515,-16.801,-13.284,53.919,12.503,-25.006,0.391,-47.668
'[13:43:04.215 06/11/2076]',17.973,-14.847,-50.012,-33.602,-19.145,-9.768,-37.509,-12.894,-31.648,-11.722,-10.549,-69.158,-35.165,22.662,-40.635,-71.893,-19.536,-13.284,50.794,5.861,-21.880,6.252,-40.635
'[13:43:04.219 06/11/2076]',17.973,-17.192,-45.714,-26.960,-16.801,-12.894,-30.085,-11.331,-25.788,-6.252,-10.549,-53.138,-20.317,17.192,-37.900,-56.264,-18.364,-5.079,46.496,12.112,-19.536,7.033,-37.900
'[13:43:04.223 06/11/2076]',14.847,-18.364,-41.416,-18.364,-17.973,-14.066,-27.741,-2.735,-25.006,-2.344,-8.596,-48.449,-20.317,22.271,-33.211,-53.919,-16.801,-4.689,42.198,11.331,-12.112,8.987,-33.211
'[13:43:04.227 06/11/2076]',3.907,-17.973,-35.165,-6.252,-26.960,-20.708,-27.741,19.145,-30.867,0.391,-14.847,-46.105,-42.198,46.496,-25.006,-72.674,-12.894,-16.410,35.946,-7.424,10.159,19.927,-25.006
'[13:43:04.230 06/11/2076]',1.172,-16.410,-28.132,-4.689,-25.788,-20.708,-22.271,20.708,-30.476,6.252,-12.112,-39.853,-41.026,52.747,-18.755,-70.330,-3.516,-20.317,28.913,-9.377,20.708,23.053,-18.755
'[13:43:04.234 06/11/2076]',4.298,-14.457,-28.132,-1.954,-20.317,-14.066,-21.880,15.238,-26.569,8.596,-3.907,-43.761,-30.085,44.542,-16.020,-64.860,1.954,-19.145,28.913,3.907,12.112,17.582,-16.020
'[13:43:04.238 06/11/2076]',6.252,-14.066,-28.132,2.735,-18.364,-4.298,-26.960,17.582,-24.615,6.642,-0.391,-39.853,-28.132,39.072,-12.503,-57.827,0.781,-23.053,28.913,10.940,3.126,16.410,-12.503
'[13:43:04.242 06/11/2076]',7.424,-12.503,-23.834,2.344,-14.847,1.172,-26.569,14.066,-20.708,5.470,1.172,-27.350,-20.708,30.867,-8.205,-44.933,1.954,-23.053,24.615,15.238,1.172,16.410,-8.205
'[13:43:04.246 06/11/2076]',7.424,-14.066,-20.708,5.861,-11.722,1.172,-26.178,15.629,-18.364,1.563,3.126,-24.615,-17.973,24.225,-4.298,-41.416,0.391,-17.973,21.490,21.490,0.391,12.112,-4.298
'[13:43:04.250 06/11/2076]',-0.391,-15.238,-19.145,12.503,-14.457,-3.907,-25.006,21.490,-17.192,-1.563,3.126,-28.132,-26.569,26.178,0.391,-45.324,-2.735,-20.317,19.927,18.364,4.298,13.284,0.391
'[13:43:04.254 06/11/2076]',-4.689,-16.801,-14.847,14.066,-10.940,-9.377,-23.053,21.099,-12.503,-3.126,1.563,-18.364,-29.695,26.569,6.252,-37.118,-3.516,-23.834,15.629,15.238,12.503,16.020,6.252
'[13:43:04.258 06/11/2076]',-4.298,-18.364,-15.238,14.847,-6.252,-10.159,-23.053,16.801,-4.689,-2.735,0.000,-9.377,-24.615,20.317,9.377,-23.053,-3.126,-23.443,16.020,16.410,12.503,16.020,9.377
'[13:43:04.262 06/11/2076]',-7.424,-15.629,-14.066,13.675,-7.424,-7.424,-22.662,14.457,0.781,-2.344,0.391,-25.397,-28.913,23.443,13.675,-35.946,-4.298,-25.006,14.847,13.675,11.722,16.801,13.675
'[13:43:04.266 06/11/2076]',-10.940,-10.159,-9.377,10.549,-12.894,0.391,-21.099,14.847,5.470,-1.172,-1.563,-37.509,-33.211,30.476,16.020,-50.403,-4.689,-23.443,10.159,5.861,15.238,19.145,16.020
'[13:43:04.270 06/11/2076]',-7.424,-5.470,-1.954,3.516,-10.940,7.424,-16.020,7.424,12.503,1.563,-3.126,-25.006,-18.364,21.099,16.020,-34.383,-0.781,-16.801,2.735,6.642,13.675,19.927,16.020
'[13:43:04.273 06/11/2076]',-4.689,-3.516,4.298,-3.126,-8.205,16.801,-14.847,0.000,19.927,2.735,-0.781,-22.271,-6.252,13.675,15.629,-24.615,1.954,-13.284,-3.516,12.503,8.205,17.973,15.629
'[13:43:04.277 06/11/2076]',-7.033,0.000,6.252,-6.252,-10.940,19.927,-16.801,1.172,19.927,3.516,-4.689,-39.463,-19.145,23.443,17.973,-45.324,3.516,-21.490,-5.470,0.000,11.722,23.834,17.973
'[13:43:04.281 06/11/2076]',-8.205,0.781,6.642,-5.470,-10.159,18.364,-17.582,3.126,21.880,5.861,-11.722,-43.370,-26.960,28.913,21.880,-52.747,9.377,-27.350,-5.861,-12.503,17.973,30.476,21.880
'[13:43:04.285 06/11/2076]',-7.424,-3.126,8.596,-4.689,-9.768,14.847,-11.331,0.000,25.788,13.675,-14.457,-30.085,-15.238,19.536,26.569,-36.337,15.629,-22.662,-7.814,-7.033,17.192,28.523,26.569
'[13:43:04.289 06/11/2076]',-10.549,-7.424,9.768,0.391,-15.629,7.814,-6.252,6.642,25.788,19.927,-21.099,-15.238,-13.284,19.536,32.039,-30.476,19.927,-23.443,-8.987,-13.675,25.397,32.039,32.039
'[13:43:04.293 06/11/2076]',-14.847,-3.516,13.284,-3.516,-20.317,8.205,-7.033,10.159,24.225,21.099,-22.662,-24.225,-25.788,32.821,41.026,-49.231,22.662,-29.304,-12.503,-27.350,32.430,39.853,41.026
'[13:43:04.297 06/11/2076]',-10.549,1.563,16.801,-14.457,-15.629,14.066,-6.642,1.172,23.834,22.662,-14.066,-29.695,-23.834,33.211,48.059,-53.919,26.569,-27.350,-16.020,-25.788,26.178,40.244,48.059
'[13:43:04.301 06/11/2076]',-5.470,1.954,13.675,-12.503,-12.894,23.053,-9.768,-2.344,22.271,21.099,-4.689,-35.946,-21.880,25.006,48.840,-50.012,23.443,-24.615,-12.894,-13.284,9.768,35.946,48.840
'[13:43:04.305 06/11/2076]',-4.689,5.861,14.457,-13.675,-11.722,30.476,-10.549,-5.861,20.708,22.271,0.391,-45.714,-25.006,27.741,49.231,-53.919,23.834,-24.225,-13.675,-14.847,7.814,38.291,49.231
'[13:43:04.309 06/11/2076]',-3.126,7.814,16.020,-14.066,-9.377,35.165,-9.768,-7.814,19.927,23.834,3.126,-38.291,-19.145,21.099,50.403,-43.761,24.615,-20.708,-15.238,-11.331,2.735,38.291,50.403
'[13:43:04.313 06/11/2076]',-5.079,7.033,19.145,-9.768,-13.675,38.681,-5.079,-7.033,18.364,26.960,2.735,-39.853,-16.801,17.582,51.184,-44.542,25.006,-15.238,-18.364,-8.205,2.735,35.165,51.184
'[13:43:04.316 06/11/2076]',-11.331,9.377,22.662,-6.642,-19.536,37.509,-0.781,-2.344,14.457,32.821,2.735,-49.621,-22.662,22.662,53.919,-53.919,27.741,-11.722,-21.880,-14.457,6.642,35.556,53.919
'[13:43:04.320 06/11/2076]',-11.331,9.768,27.350,-3.907,-18.364,37.900,2.735,0.391,13.675,40.635,3.126,-39.463,-20.317,23.053,57.045,-41.807,33.211,-11.331,-26.569,-15.238,7.814,35.556,57.045
'[13:43:04.324 06/11/2076]',-9.377,8.987,32.821,-1.172,-16.410,41.026,5.079,1.563,15.238,48.449,3.516,-26.569,-12.503,18.755,57.045,-22.271,40.635,-9.768,-32.039,-10.940,5.861,33.993,57.045
'[13:43:04.328 06/11/2076]',-12.503,11.722,38.291,2.735,-19.145,42.979,8.596,7.814,13.675,56.654,3.516,-48.449,-20.317,28.913,53.529,-37.509,46.496,-12.112,-37.509,-15.629,8.987,35.165,53.529
'[13:43:04.332 06/11/2076]',-14.066,17.973,43.761,0.391,-19.536,46.496,11.331,10.159,15.238,61.343,0.391,-67.985,-26.569,40.244,48.449,-53.138,53.919,-15.238,-42.979,-23.053,14.066,37.509,48.449
'[13:43:04.336 06/11/2076]',-9.377,18.755,50.403,-3.516,-17.192,53.138,16.020,4.689,22.271,62.906,-0.391,-52.747,-8.987,26.960,39.072,-27.350,58.999,-10.159,-49.621,-12.894,8.987,32.430,39.072
'[13:43:04.340 06/11/2076]',-7.424,17.973,53.919,0.391,-17.192,57.436,21.880,3.907,26.569,62.125,-1.954,-38.681,6.252,14.066,29.695,-3.516,59.389,-2.735,-53.138,-7.033,7.424,27.350,29.695
'[13:43:04.344 06/11/2076]',-12.503,21.099,56.654,5.470,-23.443,54.701,25.006,14.847,24.615,56.264,-3.907,-42.589,-3.516,21.490,28.132,-12.503,57.436,-3.126,-55.873,-20.708,17.192,28.523,28.132
'[13:43:04.348 06/11/2076]',-15.238,22.662,60.952,10.159,-28.523,53.138,30.476,25.006,24.225,54.310,-6.252,-32.821,-7.424,25.788,30.476,-10.159,60.952,-0.391,-60.171,-28.523,23.053,30.476,30.476
'[13:43:04.352 06/11/2076]',-14.847,17.973,63.297,20.708,-33.993,49.231,41.416,31.258,26.569,57.045,-9.377,-7.033,5.861,15.238,29.695,14.847,67.204,8.205,-62.515,-23.834,26.178,27.350,29.695
'[13:43:04.355 06/11/2076]',-14.457,20.708,64.469,21.490,-35.946,46.886,46.886,35.165,27.350,55.482,-7.033,-17.192,0.000,21.880,32.039,3.907,68.767,8.205,-63.687,-32.821,29.695,28.132,32.039
'[13:43:04.359 06/11/2076]',-8.987,29.304,66.032,11.722,-31.258,54.310,44.542,31.648,33.211,51.966,-5.079,-22.271,-4.689,28.523,33.602,-0.781,69.548,7.033,-65.250,-37.509,22.662,30.085,33.602
'[13:43:04.363 06/11/2076]',0.391,32.039,63.297,12.112,-23.443,61.734,41.026,30.085,42.198,45.714,-0.781,-12.894,4.298,17.582,33.211,17.192,66.422,10.940,-62.515,-31.258,5.861,27.741,33.211
'[13:43:04.367 06/11/2076]',4.298,35.165,62.515,15.629,-18.364,65.250,42.198,30.476,46.105,41.416,3.907,-20.317,5.079,14.066,31.258,19.536,64.469,13.284,-61.734,-26.569,-0.781,24.225,31.258
'[13:43:04.371 06/11/2076]',7.424,38.291,62.515,17.582,-17.582,70.330,42.198,31.258,51.575,36.728,5.861,-16.020,7.033,11.722,32.821,26.960,66.422,14.457,-61.734,-27.741,-3.907,25.006,32.821
'[13:43:04.375 06/11/2076]',9.768,35.946,60.952,22.271,-19.927,74.237,42.979,33.211,52.747,35.556,6.252,3.907,15.238,2.735,37.509,44.151,69.548,20.317,-60.171,-22.662,-4.298,23.053,37.509
'[13:43:04.379 06/11/2076]',8.205,31.648,57.827,25.788,-26.178,73.455,44.933,33.211,48.059,30.085,8.987,1.563,14.066,-0.781,40.635,35.946,65.641,26.960,-57.045,-19.927,0.391,19.927,40.635
'[13:43:04.383 06/11/2076]',5.079,30.085,51.966,27.741,-32.430,73.065,41.807,34.383,41.807,24.225,11.722,-5.079,5.079,3.126,42.589,22.662,58.608,32.430,-51.184,-20.317,0.391,20.708,42.589
'[13:43:04.387 06/11/2076]',7.033,24.615,48.449,27.741,-35.556,73.065,37.509,34.774,37.509,23.443,13.284,15.238,9.377,-0.391,42.198,39.072,55.092,33.993,-47.668,-14.066,-1.172,19.536,42.198
'[13:43:04.391 06/11/2076]',6.642,20.317,46.496,31.258,-38.291,71.111,35.946,37.118,31.648,27.350,14.847,30.085,14.066,-3.126,39.853,52.747,56.264,32.430,-45.714,-7.424,-0.781,19.536,39.853
'[13:43:04.395 06/11/2076]',2.735,23.443,46.105,30.867,-45.324,75.409,34.383,39.072,24.225,30.476,17.192,5.861,1.954,9.768,38.681,28.132,62.515,22.271,-45.324,-10.940,0.781,22.662,38.681
'[13:43:04.398 06/11/2076]',1.172,24.615,45.324,29.304,-50.012,82.051,30.867,39.072,17.582,34.774,19.145,-5.079,-5.470,18.364,37.900,15.629,68.767,16.020,-44.542,-10.159,1.954,22.271,37.900
'[13:43:04.402 06/11/2076]',3.907,19.536,41.807,32.821,-49.621,81.270,31.648,35.946,13.284,39.853,17.582,12.112,7.814,7.424,31.258,35.556,69.548,23.053,-41.026,2.344,2.735,16.801,31.258
'[13:43:04.406 06/11/2076]',3.516,14.457,38.291,36.728,-50.403,78.144,32.821,33.602,10.159,43.761,14.847,16.410,14.066,6.642,24.225,41.026,67.204,24.225,-37.509,8.596,8.205,14.847,24.225
'[13:43:04.410 06/11/2076]',0.391,14.457,33.602,36.337,-52.747,73.065,28.132,37.900,5.079,45.714,8.596,6.252,-1.172,24.615,22.662,19.927,64.860,16.020,-32.821,-3.516,19.536,17.192,22.662
'[13:43:04.414 06/11/2076]',-2.344,11.331,30.476,38.681,-54.701,61.734,26.960,45.324,2.735,49.621,-2.735,6.252,-11.722,40.244,19.145,7.814,67.595,8.205,-29.695,-15.238,32.430,19.927,19.145
'[13:43:04.418 06/11/2076]',0.000,6.642,32.430,33.211,-53.529,58.217,34.383,33.602,8.596,55.482,-3.126,2.344,-1.954,37.118,15.238,12.112,76.581,2.344,-31.648,-5.470,28.523,16.410,15.238
'[13:43:04.422 06/11/2076]',2.735,7.424,32.430,23.053,-50.403,62.125,32.430,22.271,15.238,52.747,-2.344,-8.205,1.172,33.993,14.457,7.424,78.926,-1.954,-31.648,0.391,16.020,13.675,14.457
'[13:43:04.426 06/11/2076]',6.642,5.470,29.304,19.145,-45.714,64.078,24.225,18.755,20.708,43.370,-2.735,3.516,3.126,24.615,14.847,21.490,67.204,-0.781,-28.523,5.470,0.781,10.940,14.847
'[13:43:04.430 06/11/2076]',8.596,3.516,29.304,16.020,-41.026,62.906,23.053,12.894,26.178,35.556,-1.172,7.033,10.549,13.675,16.410,26.960,54.701,7.814,-28.523,12.503,-9.768,8.205,16.410
'[13:43:04.434 06/11/2076]',5.861,5.079,25.788,14.847,-37.900,60.562,20.708,9.377,28.913,29.304,-1.563,-1.172,5.470,11.331,17.973,19.927,45.324,7.033,-25.006,9.768,-14.457,7.814,17.973
'[13:43:04.438 06/11/2076]',3.516,5.861,22.662,14.066,-32.430,57.045,16.020,6.642,35.556,26.178,-6.252,1.954,2.735,11.722,21.490,21.490,43.370,-1.172,-21.880,1.172,-12.112,9.377,21.490
'[13:43:04.441 06/11/2076]',1.172,3.516,21.490,10.549,-27.350,52.747,13.675,-1.172,43.370,25.397,-12.112,6.252,7.814,7.424,21.880,25.397,48.449,-12.503,-20.708,0.000,-9.377,9.768,21.880
'[13:43:04.445 06/11/2076]',-1.563,2.735,18.755,6.252,-24.225,49.621,12.112,-9.768,47.277,20.708,-12.894,-12.894,6.642,5.470,21.099,8.596,50.012,-21.490,-17.973,-0.391,-7.424,9.377,21.099
'[13:43:04.449 06/11/2076]',-6.252,-0.781,16.410,4.689,-24.225,42.979,7.424,-11.331,48.449,12.112,-13.284,-27.350,0.781,6.642,18.755,-6.642,41.807,-23.443,-15.629,-2.344,-3.907,8.596,18.755
'[13:43:04.453 06/11/2076]',-6.252,-5.861,16.020,4.689,-22.271,34.774,8.596,-11.331,50.403,6.642,-15.238,-8.205,9.768,-2.344,14.066,10.940,30.867,-17.582,-15.238,3.126,-2.344,8.205,14.066
'[13:43:04.457 06/11/2076]',-6.252,-11.722,15.629,3.907,-21.880,26.960,12.112,-14.066,51.184,2.735,-12.894,-1.954,18.364,-12.894,11.331,21.880,21.490,-10.549,-14.847,10.549,-5.079,7.424,11.331
'[13:43:04.461 06/11/2076]',-9.768,-10.940,12.503,3.516,-26.178,24.225,8.987,-11.722,47.277,-1.954,-10.940,-27.350,1.954,-6.642,13.284,-2.735,12.503,-13.284,-11.722,5.861,-6.642,9.377,13.284
'[13:43:04.465 06/11/2076]',-15.238,-11.331,8.987,3.126,-30.476,20.708,3.516,-7.033,39.463,-3.907,-14.847,-36.337,-13.675,-1.172,14.457,-16.020,8.596,-20.708,-8.205,0.781,-6.252,11.331,14.457
'[13:43:04.469 06/11/2076]',-17.582,-14.457,5.861,3.907,-33.211,14.847,4.689,-7.814,32.821,0.000,-15.238,-26.178,-8.205,-13.284,17.582,-5.079,9.768,-20.317,-5.079,8.596,-7.814,6.252,17.582
'[13:43:04.473 06/11/2076]',-21.099,-16.410,3.516,3.516,-39.072,10.940,6.252,-7.033,21.490,5.079,-13.284,-28.132,-12.112,-13.284,17.973,-7.424,10.549,-21.099,-2.735,8.596,-3.516,3.907,17.973
'[13:43:04.477 06/11/2076]',-31.258,-15.629,4.689,6.642,-50.794,0.781,5.470,9.377,5.079,8.596,-19.536,-30.085,-34.383,8.596,17.582,-28.913,7.424,-28.523,-3.907,-8.987,12.112,12.503,17.582
'[13:43:04.480 06/11/2076]',-31.258,-12.503,7.033,4.298,-52.747,-3.516,11.331,12.894,-1.563,17.192,-14.847,-26.178,-33.993,15.629,22.271,-30.085,6.642,-22.271,-6.252,-12.112,13.675,14.847,22.271
'[13:43:04.484 06/11/2076]',-26.960,-10.159,4.298,1.954,-50.794,0.000,15.629,4.689,-1.563,25.006,-6.642,-32.430,-25.006,13.675,20.317,-26.178,5.861,-12.503,-3.516,1.954,-0.781,10.549,20.317
'[13:43:04.488 06/11/2076]',-23.443,-11.331,-0.781,5.470,-48.449,3.126,7.424,6.642,-1.954,26.569,-6.642,-30.085,-26.960,15.238,18.755,-20.317,-1.172,-12.503,1.563,10.940,-16.801,11.722,18.755
'[13:43:04.492 06/11/2076]',-19.145,-11.331,-6.252,3.516,-44.933,4.689,0.391,4.298,0.391,28.132,-9.377,-17.582,-20.708,13.284,19.536,-10.940,-3.907,-12.503,7.033,16.410,-25.397,10.940,19.536
'[13:43:04.496 06/11/2076]',-15.629,-9.768,-12.112,1.172,-41.807,7.033,-1.563,0.000,1.954,30.476,-10.549,-15.629,-17.973,16.020,18.364,-10.159,-1.563,-10.159,12.894,22.662,-33.211,10.159,18.364
'[13:43:04.500 06/11/2076]',-14.847,-8.987,-16.410,0.391,-43.370,7.424,-4.298,0.391,3.126,30.085,-11.722,-22.271,-21.490,25.006,15.238,-20.317,1.563,-12.503,17.192,17.973,-33.993,11.331,15.238
'[13:43:04.504 06/11/2076]',-11.331,-6.642,-18.364,-3.907,-41.026,6.642,-5.861,-0.781,7.033,28.913,-11.331,-11.331,-17.582,30.085,15.629,-14.847,5.079,-14.457,19.145,12.894,-34.383,14.066,15.629
'[13:43:04.508 06/11/2076]',-3.907,-4.298,-19.145,-5.470,-33.602,8.987,-4.689,-3.907,15.238,25.788,-6.642,0.391,-6.642,26.960,16.410,-3.126,9.768,-11.331,19.927,15.238,-41.026,13.675,16.410
'[13:43:04.512 06/11/2076]',-1.563,-1.954,-20.708,-3.516,-32.039,11.722,-6.642,-1.563,21.490,17.192,-5.470,-13.284,-7.033,28.913,16.020,-18.364,10.159,-15.238,21.490,14.457,-42.589,14.457,16.020
'[13:43:04.516 06/11/2076]',-0.391,-1.563,-21.490,-0.391,-31.258,12.503,-7.424,1.563,28.913,7.814,-8.987,-21.490,-9.768,31.648,16.410,-31.648,9.377,-19.927,22.271,9.768,-37.900,15.629,16.410
'[13:43:04.520 06/11/2076]',8.205,-0.781,-20.317,-0.391,-23.053,16.410,-5.079,-1.954,43.370,0.781,-10.549,-1.172,8.596,19.536,13.284,-10.159,15.238,-17.192,21.099,14.847,-36.337,14.066,13.284
'[13:43:04.523 06/11/2076]',14.457,-0.781,-23.443,0.781,-17.973,20.708,-3.516,-8.205,56.654,-5.861,-11.331,7.424,25.788,8.596,7.424,4.689,16.801,-16.410,24.225,21.880,-36.728,10.159,7.424
'[13:43:04.527 06/11/2076]',14.066,-2.344,-30.085,3.126,-20.317,17.973,-8.596,-3.516,59.780,-17.582,-13.675,-8.205,15.629,15.629,1.563,-14.457,10.549,-23.834,30.867,16.410,-30.476,10.940,1.563
'[13:43:04.531 06/11/2076]',14.066,-3.126,-35.556,3.126,-21.490,11.722,-10.549,-1.172,57.827,-23.834,-15.238,-13.675,10.549,22.271,-0.781,-27.741,8.205,-25.006,36.337,12.894,-23.834,11.722,-0.781
'[13:43:04.535 06/11/2076]',17.582,-8.596,-41.416,3.907,-22.271,3.907,-5.079,-4.689,52.747,-26.569,-12.503,-10.549,18.755,12.894,-5.861,-23.443,3.907,-16.801,42.198,23.443,-22.662,6.642,-5.861
'[13:43:04.539 06/11/2076]',14.066,-15.238,-43.370,7.424,-30.867,-6.642,-0.391,1.954,39.853,-27.741,-14.066,-5.079,12.894,14.066,-8.596,-26.178,0.000,-14.847,44.151,23.053,-15.238,7.814,-8.596
'[13:43:04.543 06/11/2076]',13.284,-11.722,-39.463,0.000,-35.946,-8.205,2.344,2.344,24.225,-24.615,-7.814,-15.629,-3.126,28.523,-4.298,-46.105,-0.391,-13.284,40.244,11.722,-10.159,12.894,-4.298
'[13:43:04.547 06/11/2076]',17.973,-8.987,-39.853,-4.298,-32.430,-4.689,3.516,-0.781,10.159,-21.880,1.172,-12.112,-6.252,26.569,-3.516,-39.853,-1.563,-4.689,40.635,15.238,-21.490,12.503,-3.516
'[13:43:04.551 06/11/2076]',17.973,-10.159,-41.807,0.391,-32.821,-2.344,2.344,0.391,-6.252,-16.410,10.159,-11.331,-12.112,21.880,-6.642,-28.132,-7.033,0.391,42.589,28.132,-39.072,5.861,-6.642
'[13:43:04.555 06/11/2076]',16.410,-10.940,-41.026,3.516,-34.383,-2.344,2.344,2.344,-22.662,-8.987,16.410,-10.549,-21.099,26.960,-9.377,-23.053,-10.159,1.563,41.807,31.648,-44.542,3.126,-9.377
'[13:43:04.559 06/11/2076]',14.457,-11.722,-40.244,7.033,-33.602,-4.298,3.516,3.907,-37.509,-1.172,17.973,6.252,-22.271,24.615,-8.987,-7.424,-11.722,4.689,41.026,36.337,-48.840,0.000,-8.987
'[13:43:04.563 06/11/2076]',9.768,-12.894,-38.291,14.066,-37.509,-7.424,9.768,7.424,-48.840,7.424,20.317,7.814,-26.960,28.913,-7.814,-5.861,-12.503,9.377,39.072,39.072,-46.886,-3.126,-7.814
'[13:43:04.566 06/11/2076]',5.079,-12.112,-35.946,20.317,-43.370,-7.814,14.847,13.284,-54.310,16.801,21.880,1.563,-33.211,41.416,-5.470,-16.020,-8.205,13.284,36.728,34.383,-39.853,-0.781,-5.470
'[13:43:04.570 06/11/2076]',4.689,-8.596,-32.430,22.271,-42.979,-3.516,19.536,12.894,-52.357,24.615,25.788,17.192,-26.960,45.714,-1.563,-0.781,-2.344,18.364,33.211,33.993,-37.118,0.781,-1.563
'[13:43:04.574 06/11/2076]',6.642,-7.424,-30.867,25.788,-41.807,0.000,20.708,15.629,-45.714,28.523,29.695,35.946,-13.284,44.933,-4.298,21.099,3.907,24.615,31.648,38.291,-37.509,1.563,-4.298
'[13:43:04.578 06/11/2076]',5.861,-4.298,-28.132,31.258,-44.933,3.516,21.099,25.006,-37.900,28.523,32.430,21.880,-14.457,57.827,-5.079,7.033,9.768,21.099,28.913,31.648,-31.648,3.126,-5.079
'[13:43:04.582 06/11/2076]',6.252,0.000,-25.006,33.993,-44.542,7.033,20.708,30.867,-26.569,26.569,32.039,17.582,-15.238,69.158,-5.861,1.172,16.020,17.582,25.788,25.788,-29.304,5.861,-5.861
'[13:43:04.586 06/11/2076]',12.503,0.000,-23.053,35.556,-37.509,10.940,21.490,28.913,-8.205,25.788,30.476,41.026,6.642,57.436,-6.642,31.258,23.443,19.536,23.834,34.383,-36.728,3.126,-6.642
'[13:43:04.590 06/11/2076]',18.755,-3.907,-22.271,42.979,-30.476,12.894,21.099,31.258,9.377,25.397,25.788,54.701,24.225,47.668,-5.861,50.403,26.178,17.973,23.053,38.291,-38.291,3.516,-5.861
'[13:43:04.594 06/11/2076]',15.629,-3.126,-19.927,48.449,-25.788,7.814,17.582,39.853,19.927,19.927,19.536,46.105,15.238,57.827,-1.954,35.165,24.225,5.861,20.708,25.006,-27.350,10.159,-1.954
'[13:43:04.598 06/11/2076]',14.457,-2.344,-16.410,47.668,-19.536,2.735,15.238,44.151,30.085,12.112,14.457,48.840,16.020,59.389,0.781,30.085,22.271,0.391,17.192,16.020,-18.364,14.847,0.781
'[13:43:04.602 06/11/2076]',13.284,-8.205,-10.940,56.264,-14.457,-5.470,20.708,49.621,37.118,3.907,10.159,60.952,25.788,48.059,-0.391,39.853,19.145,-1.172,11.722,16.410,-6.642,14.847,-0.391
'[13:43:04.605 06/11/2076]',10.159,-4.298,-3.907,54.701,-9.377,-9.768,24.225,51.184,42.979,-6.642,10.940,51.966,25.397,45.714,-0.391,29.304,14.066,-6.252,4.689,8.987,3.907,16.410,-0.391
'[13:43:04.609 06/11/2076]',10.159,3.907,1.563,41.807,-2.344,-5.079,19.145,46.496,50.012,-21.099,8.205,46.886,21.490,40.244,0.391,21.880,7.424,-10.940,-0.781,3.516,4.298,16.410,0.391
'[13:43:04.613 06/11/2076]',13.284,6.642,0.781,39.853,7.424,-3.907,13.675,44.151,54.310,-35.556,6.252,53.919,27.350,16.801,-1.172,36.337,-2.735,-13.284,0.000,10.940,-7.814,12.894,-1.172
'[13:43:04.617 06/11/2076]',14.066,6.252,1.563,35.556,15.238,-7.424,8.205,41.807,52.747,-45.324,2.735,41.416,21.880,3.907,-5.079,31.648,-14.847,-19.927,-0.781,14.066,-10.549,6.642,-5.079
'[13:43:04.621 06/11/2076]',16.020,6.252,0.000,30.085,23.834,-12.112,1.172,38.681,47.277,-53.138,-1.172,41.026,13.675,-4.689,-9.377,34.774,-24.615,-28.132,0.781,12.894,-14.457,4.298,-9.377
'[13:43:04.625 06/11/2076]',16.801,0.000,-0.391,26.569,29.304,-20.317,-1.954,36.337,35.165,-55.873,-3.907,50.403,7.814,-16.020,-12.112,45.714,-31.648,-34.774,1.172,14.066,-17.973,0.391,-12.112
'[13:43:04.629 06/11/2076]',14.066,-4.689,0.000,20.708,29.304,-28.523,-3.516,32.430,15.629,-51.966,-3.516,35.165,-7.814,-13.675,-13.675,31.258,-35.946,-38.681,0.781,14.066,-21.099,-3.516,-13.675
'[13:43:04.633 06/11/2076]',9.768,-4.689,-1.563,12.112,26.960,-32.821,-7.033,28.132,-3.126,-46.105,0.391,19.536,-27.741,-4.689,-11.722,14.847,-36.337,-40.244,2.344,9.768,-26.569,-5.079,-11.722
'[13:43:04.637 06/11/2076]',9.768,-8.596,-3.907,5.861,26.960,-37.509,-10.549,23.834,-20.317,-35.946,2.735,33.602,-34.383,-3.907,-10.549,29.695,-35.165,-39.463,4.689,12.503,-35.165,-7.814,-10.549
'[13:43:04.641 06/11/2076]',9.768,-13.284,-5.470,2.735,25.788,-39.853,-12.894,20.317,-33.602,-23.053,5.861,42.589,-35.556,-3.126,-10.940,42.979,-30.476,-36.337,6.252,16.801,-41.416,-10.159,-10.940
'[13:43:04.645 06/11/2076]',5.470,-10.940,-8.205,1.954,22.271,-38.291,-16.020,19.536,-43.761,-11.331,9.768,16.410,-52.747,14.066,-10.549,20.317,-25.006,-39.463,8.987,9.768,-42.198,-10.159,-10.549
'[13:43:04.648 06/11/2076]',6.642,-8.205,-10.159,0.391,21.880,-31.648,-20.708,17.973,-44.933,-1.172,10.549,3.907,-57.436,26.960,-12.894,12.112,-16.020,-41.416,10.940,3.126,-42.979,-9.377,-12.894
'[13:43:04.652 06/11/2076]',10.940,-7.033,-9.768,2.344,25.006,-23.834,-17.973,12.894,-36.337,12.112,8.205,15.629,-36.337,22.662,-18.364,32.430,-1.172,-36.337,10.549,8.205,-44.933,-11.722,-18.364
'[13:43:04.656 06/11/2076]',12.112,-3.516,-6.252,1.172,25.788,-16.020,-14.847,9.377,-26.960,25.006,4.298,16.020,-20.708,26.569,-24.225,37.509,14.457,-35.946,7.033,7.033,-39.072,-10.159,-24.225
'[13:43:04.660 06/11/2076]',8.987,4.298,-1.172,-0.781,23.834,-9.768,-16.020,13.284,-16.410,30.476,-1.172,3.516,-21.099,44.933,-24.615,16.410,27.741,-44.542,1.954,-10.940,-25.397,0.391,-24.615
'[13:43:04.664 06/11/2076]',5.861,7.033,2.735,3.907,21.880,-12.503,-12.112,23.443,-2.735,34.383,-12.503,3.126,-14.847,57.827,-23.834,3.126,39.853,-48.059,-1.954,-26.960,-5.861,8.987,-23.834
'[13:43:04.668 06/11/2076]',7.033,8.987,8.987,1.563,23.834,-8.205,-3.126,15.629,12.112,37.118,-8.987,-3.516,5.079,53.529,-25.788,4.298,48.840,-42.589,-8.205,-21.490,1.172,7.814,-25.788
'[13:43:04.672 06/11/2076]',10.940,10.940,10.159,1.563,31.258,-1.954,-4.298,10.159,32.039,31.648,-5.079,-13.675,19.145,47.277,-24.225,2.344,49.621,-41.026,-9.377,-20.317,0.391,9.768,-24.225
'[13:43:04.676 06/11/2076]',17.582,10.159,8.987,3.126,39.072,3.907,-10.940,8.987,50.403,19.145,-5.861,0.391,30.867,34.383,-19.536,18.364,43.370,-39.853,-8.205,-16.410,-8.205,8.987,-19.536
'[13:43:04.680 06/11/2076]',22.271,8.987,9.768,2.344,45.714,7.424,-12.112,3.516,66.422,7.814,-3.907,2.735,44.151,20.708,-15.629,25.006,37.118,-31.648,-8.987,-9.768,-15.629,7.424,-15.629
'[13:43:04.684 06/11/2076]',22.271,8.987,8.596,2.344,48.449,7.814,-13.284,0.391,78.535,-5.470,-3.126,-3.126,44.151,13.284,-10.549,19.927,30.085,-27.741,-7.814,-11.722,-21.490,9.377,-10.549
'[13:43:04.688 06/11/2076]',20.317,10.159,10.549,2.344,50.403,4.298,-13.675,2.735,87.912,-19.145,-4.689,2.735,42.198,7.424,-3.907,21.099,22.662,-26.960,-9.768,-17.973,-23.053,13.675,-3.907
'[13:43:04.691 06/11/2076]',16.410,10.159,11.722,1.563,51.966,0.000,-10.159,0.000,89.866,-27.350,-4.298,9.377,42.589,-1.563,0.391,27.350,16.801,-21.880,-10.940,-20.317,-20.317,14.457,0.391
'[13:43:04.695 06/11/2076]',10.159,10.159,10.549,1.954,51.575,-3.907,-9.768,-1.954,84.005,-34.383,0.391,-10.159,30.476,-5.079,3.907,9.377,8.205,-18.364,-9.768,-22.271,-19.536,14.066,3.907
'[13:43:04.699 06/11/2076]',1.954,8.205,5.470,3.126,47.277,-9.768,-14.066,-1.954,73.846,-39.072,0.000,-23.834,14.066,-3.516,5.470,-5.470,-0.781,-19.536,-4.689,-26.960,-18.364,16.020,5.470
'[13:43:04.703 06/11/2076]',-1.954,0.391,0.781,0.781,46.496,-18.755,-16.801,-9.377,60.562,-39.853,-3.126,-6.642,9.768,-13.675,5.079,9.768,-10.159,-17.192,0.000,-21.490,-18.755,13.675,5.079
'[13:43:04.707 06/11/2076]',-6.252,-6.642,-3.516,-1.172,44.542,-26.569,-16.410,-19.536,44.542,-35.165,-1.172,0.391,7.424,-21.880,2.735,18.755,-17.582,-14.066,4.298,-14.457,-21.880,11.331,2.735
'[13:43:04.711 06/11/2076]',-17.582,-6.252,-10.549,-3.907,35.556,-29.695,-23.053,-21.880,18.364,-31.258,3.907,-21.099,-20.317,-10.940,7.424,-5.470,-25.006,-18.364,11.331,-19.927,-25.397,12.112,7.424
'[13:43:04.715 06/11/2076]',-27.350,-5.861,-15.238,-5.470,25.788,-30.867,-27.741,-21.880,-9.377,-23.443,8.205,-27.350,-45.324,-0.781,13.284,-19.145,-27.350,-19.145,16.020,-25.006,-27.350,12.503,13.284
'[13:43:04.719 06/11/2076]',-34.383,-8.596,-17.192,-1.563,16.801,-32.039,-22.662,-24.225,-33.993,-5.861,14.847,-14.847,-45.714,-3.126,16.801,-8.205,-19.927,-11.722,17.973,-16.410,-29.695,7.033,16.801
'[13:43:04.723 06/11/2076]',-42.198,-10.940,-17.192,2.344,3.516,-30.867,-19.927,-20.317,-53.138,8.596,22.662,-10.940,-50.012,5.470,19.927,-8.987,-8.205,-8.987,17.973,-14.066,-24.615,7.033,19.927
'[13:43:04.727 06/11/2076]',-54.701,-14.066,-17.973,6.642,-15.238,-35.556,-21.880,-6.252,-70.330,19.536,17.582,-14.847,-67.985,31.648,23.443,-34.774,3.516,-17.973,18.755,-27.350,-3.907,14.066,23.443
'[13:43:04.730 06/11/2076]',-58.608,-19.536,-18.364,6.252,-23.443,-39.072,-18.364,-8.596,-70.720,30.867,16.410,-9.768,-57.045,37.509,20.317,-33.993,19.536,-20.708,19.145,-23.834,7.424,16.410,20.317
'[13:43:04.734 06/11/2076]',-60.171,-26.178,-19.927,5.079,-28.523,-37.118,-14.847,-18.755,-61.734,35.165,21.880,-23.053,-40.244,33.602,13.284,-33.602,28.913,-17.582,20.708,-6.252,8.987,10.549,13.284
'[13:43:04.738 06/11/2076]',-58.217,-32.430,-24.615,7.033,-30.867,-32.430,-22.662,-20.708,-50.012,30.085,19.536,-24.615,-30.476,24.225,5.470,-23.443,28.132,-21.490,25.397,5.861,3.126,5.079,5.470
'[13:43:04.742 06/11/2076]',-55.092,-35.946,-24.225,6.252,-28.913,-28.132,-26.178,-24.225,-33.211,19.536,15.238,-13.675,-14.847,11.331,0.781,-8.596,25.006,-19.927,25.006,12.894,2.735,0.781,0.781
'[13:43:04.746 06/11/2076]',-52.747,-37.509,-21.490,7.424,-29.304,-23.443,-26.178,-23.834,-14.847,6.642,11.331,-13.675,0.391,-1.172,-4.298,-4.298,18.364,-12.503,22.271,19.927,3.126,-6.642,-4.298
'[13:43:04.750 06/11/2076]',-52.747,-38.681,-22.662,10.549,-30.867,-22.271,-28.523,-19.145,2.735,-9.377,3.516,-17.582,5.470,-7.033,-8.596,-10.159,10.940,-10.159,23.443,18.364,7.033,-8.205,-8.596
'[13:43:04.754 06/11/2076]',-51.184,-39.463,-22.271,9.377,-28.913,-24.225,-30.085,-18.755,23.053,-26.178,-6.642,-5.861,16.801,-15.238,-14.457,-1.563,3.907,-12.112,23.053,16.020,14.847,-8.987,-14.457
'[13:43:04.758 06/11/2076]',-51.184,-43.370,-24.225,7.424,-24.615,-30.867,-30.476,-23.443,44.542,-44.933,-16.801,2.344,28.913,-32.039,-23.053,11.331,-7.033,-13.675,25.006,21.880,17.192,-12.112,-23.053
'[13:43:04.762 06/11/2076]',-55.873,-48.840,-28.913,10.159,-24.615,-39.072,-34.383,-23.834,59.389,-67.595,-24.225,-16.801,22.662,-39.853,-26.960,-4.689,-23.053,-21.880,29.695,24.225,20.708,-14.457,-26.960
'[13:43:04.766 06/11/2076]',-60.952,-55.482,-30.867,10.940,-23.053,-50.403,-39.853,-21.490,71.111,-90.647,-33.993,-26.569,11.722,-44.542,-30.085,-16.410,-41.416,-30.867,31.648,21.490,24.615,-14.066,-30.085
'[13:43:04.770 06/11/2076]',-62.515,-62.906,-30.085,6.642,-15.629,-61.734,-42.198,-27.741,84.786,-109.011,-41.807,-14.847,17.973,-66.422,-32.821,0.000,-56.654,-35.946,30.867,28.913,22.271,-17.582,-32.821
'[13:43:04.773 06/11/2076]',-61.734,-70.330,-33.993,4.298,-9.768,-69.158,-46.105,-35.556,94.554,-121.514,-44.151,-16.410,22.271,-84.786,-33.211,7.814,-70.720,-41.807,34.774,36.728,16.410,-20.708,-33.211
'[13:43:04.777 06/11/2076]',-67.595,-72.283,-36.337,-1.172,-6.642,-79.707,-55.482,-34.774,92.601,-132.454,-51.966,-35.946,0.781,-81.270,-32.821,-13.675,-84.786,-55.482,37.118,25.397,16.801,-17.192,-32.821
'[13:43:04.781 06/11/2076]',-73.065,-74.628,-35.946,-9.377,-5.079,-91.038,-60.171,-36.728,86.740,-137.534,-56.654,-46.496,-14.457,-79.707,-30.085,-28.913,-94.945,-64.860,36.728,17.192,18.364,-12.112,-30.085
'[13:43:04.785 06/11/2076]',-76.190,-82.442,-35.556,-10.549,-2.344,-103.150,-56.654,-42.979,79.316,-132.845,-55.873,-46.886,-15.629,-85.958,-28.132,-24.615,-100.806,-65.250,36.337,21.490,19.927,-13.284,-28.132
'[13:43:04.789 06/11/2076]',-82.051,-89.475,-33.211,-8.205,-2.735,-114.872,-54.701,-40.244,64.078,-126.984,-58.999,-39.853,-26.569,-83.223,-26.569,-24.615,-103.541,-68.376,33.993,17.973,27.741,-10.159,-26.569
'[13:43:04.793 06/11/2076]',-87.912,-88.694,-28.913,-13.675,-3.126,-121.123,-55.092,-40.244,48.840,-123.077,-55.873,-53.529,-48.840,-66.032,-19.927,-46.886,-105.885,-77.753,29.695,5.470,36.337,-4.689,-19.927
'[13:43:04.797 06/11/2076]',-85.568,-87.912,-29.695,-22.662,4.689,-119.170,-57.045,-53.529,37.118,-114.872,-46.886,-62.515,-58.217,-62.125,-14.847,-50.794,-104.322,-79.316,30.476,9.768,26.569,-6.252,-14.847
'[13:43:04.801 06/11/2076]',-81.661,-88.694,-32.821,-23.053,9.768,-112.918,-60.562,-62.906,22.662,-106.667,-38.291,-72.674,-67.204,-63.297,-13.284,-49.621,-105.885,-78.144,33.602,23.053,7.814,-13.284,-13.284
'[13:43:04.805 06/11/2076]',-78.144,-86.740,-33.993,-28.132,12.503,-106.276,-60.562,-72.674,10.940,-96.899,-28.523,-80.098,-75.800,-55.482,-7.814,-55.482,-105.104,-76.581,34.774,22.662,1.172,-13.675,-7.814
'[13:43:04.809 06/11/2076]',-73.846,-85.958,-33.211,-33.211,14.066,-102.369,-58.608,-78.926,1.954,-85.958,-21.099,-73.065,-74.237,-51.966,-1.954,-48.840,-102.369,-68.376,33.993,28.132,-5.861,-12.112,-1.954
'[13:43:04.813 06/11/2076]',-72.674,-84.786,-30.867,-32.039,10.159,-101.587,-50.403,-80.098,-5.470,-77.753,-14.457,-75.018,-74.628,-46.105,0.391,-53.529,-100.806,-58.217,31.648,31.258,-7.033,-12.112,0.391
'[13:43:04.816 06/11/2076]',-75.800,-80.488,-28.523,-33.211,5.470,-101.197,-44.151,-77.753,-11.331,-73.455,-10.940,-79.316,-78.926,-35.946,2.344,-64.078,-98.852,-50.794,29.304,26.569,-0.781,-9.768,2.344
'[13:43:04.820 06/11/2076]',-74.628,-77.753,-24.225,-34.774,3.907,-98.852,-39.072,-77.753,-11.331,-71.111,-8.205,-60.171,-71.893,-35.556,2.735,-46.886,-98.852,-43.761,25.006,26.960,1.172,-8.596,2.735
'[13:43:04.824 06/11/2076]',-73.065,-76.190,-19.145,-30.867,5.470,-93.773,-34.774,-76.581,-7.033,-69.548,-6.252,-39.853,-56.654,-43.761,0.391,-23.053,-96.508,-35.556,19.927,31.258,1.172,-10.159,0.391
'[13:43:04.828 06/11/2076]',-76.190,-72.674,-17.192,-25.006,1.954,-89.475,-33.602,-70.720,-2.735,-69.548,-5.079,-53.919,-57.436,-38.681,0.000,-36.337,-95.726,-33.993,17.973,23.053,10.159,-9.768,0.000
'[13:43:04.832 06/11/2076]',-77.753,-68.767,-16.020,-21.880,-1.563,-83.223,-33.211,-67.204,3.907,-71.502,-5.079,-63.687,-56.654,-35.165,2.344,-48.059,-92.601,-32.430,16.801,16.801,16.801,-8.987,2.344
'[13:43:04.836 06/11/2076]',-69.548,-67.985,-13.675,-19.145,2.735,-78.144,-26.960,-68.376,18.755,-73.065,-6.642,-44.151,-30.476,-51.184,-0.781,-21.099,-87.131,-24.225,14.457,28.132,11.722,-13.675,-0.781
'[13:43:04.840 06/11/2076]',-63.687,-68.376,-14.847,-14.066,4.689,-77.363,-24.225,-66.032,33.211,-81.661,-10.549,-34.383,-13.675,-66.032,-9.377,-4.298,-85.958,-22.662,15.629,36.728,8.596,-17.973,-9.377
'[13:43:04.844 06/11/2076]',-65.641,-65.250,-14.457,-10.549,0.781,-79.316,-24.615,-53.529,38.681,-96.508,-18.755,-39.072,-22.271,-60.952,-15.238,-15.629,-87.521,-34.383,15.238,25.788,15.238,-15.238,-15.238
'[13:43:04.848 06/11/2076]',-66.422,-62.125,-10.940,-8.205,0.000,-84.005,-19.927,-43.761,44.151,-106.667,-26.569,-32.430,-22.271,-61.343,-22.662,-14.066,-87.912,-37.118,11.722,19.145,21.099,-12.112,-22.662
'[13:43:04.852 06/11/2076]',-69.548,-65.250,-9.768,3.907,-4.298,-89.866,-12.503,-33.211,47.668,-109.792,-35.165,-14.847,-8.596,-73.846,-33.993,4.689,-85.568,-34.383,10.549,21.099,30.476,-13.675,-33.993
'[13:43:04.855 06/11/2076]',-71.893,-61.734,-6.252,4.689,-8.205,-87.521,-10.940,-28.132,45.324,-106.667,-38.291,-25.788,-9.768,-69.548,-37.900,-7.814,-80.879,-38.291,7.033,12.112,42.198,-9.768,-37.900
'[13:43:04.859 06/11/2076]',-67.595,-54.310,-4.298,-4.298,-6.252,-80.098,-10.549,-33.602,41.026,-98.071,-36.728,-29.304,-7.424,-65.641,-37.118,-11.722,-75.800,-35.556,5.079,8.987,44.151,-6.642,-37.118
'[13:43:04.863 06/11/2076]',-57.045,-50.794,-7.424,-4.689,0.000,-69.158,-16.020,-35.165,31.258,-88.694,-30.867,-24.615,2.344,-77.753,-35.946,-1.563,-71.502,-28.132,8.205,19.536,30.476,-10.549,-35.946
'[13:43:04.867 06/11/2076]',-50.794,-46.105,-9.377,-3.907,3.516,-62.515,-17.582,-34.383,11.331,-75.800,-20.708,-35.165,-1.563,-76.190,-34.383,-7.033,-66.422,-25.006,10.159,22.271,26.569,-12.894,-34.383
'[13:43:04.871 06/11/2076]',-44.151,-42.589,-10.549,-5.470,9.377,-59.780,-18.755,-33.602,-9.768,-62.906,-11.331,-30.085,-5.861,-76.581,-30.867,-0.781,-60.952,-24.615,11.331,22.662,21.490,-14.457,-30.867
'[13:43:04.875 06/11/2076]',-37.509,-42.589,-10.940,-0.391,14.847,-57.436,-21.099,-28.523,-32.821,-48.840,-4.298,-16.410,-7.033,-79.707,-28.913,13.284,-55.482,-22.662,11.722,24.615,18.364,-17.973,-28.913
'[13:43:04.879 06/11/2076]',-35.946,-41.026,-8.205,1.563,17.192,-58.217,-19.145,-24.615,-55.092,-32.430,1.563,-28.132,-18.755,-69.158,-26.569,0.781,-50.403,-21.880,8.987,23.053,21.490,-17.582,-26.569
'[13:43:04.883 06/11/2076]',-34.774,-36.337,-7.033,-1.563,18.755,-56.264,-18.755,-24.615,-68.376,-17.582,4.689,-40.244,-30.476,-52.357,-23.834,-13.284,-42.979,-23.834,7.814,19.927,20.317,-15.238,-23.834
'[13:43:04.887 06/11/2076]',-28.523,-31.648,-7.033,-4.298,23.443,-51.184,-19.145,-25.788,-75.409,-0.781,5.470,-20.708,-29.304,-44.542,-21.099,4.689,-33.993,-19.145,7.814,20.317,15.238,-14.066,-21.099
'[13:43:04.891 06/11/2076]',-23.443,-28.523,-6.642,-6.252,25.788,-47.277,-17.973,-26.960,-81.661,13.675,8.205,-5.861,-28.913,-36.728,-17.192,18.755,-26.178,-15.238,7.424,21.490,10.549,-11.722,-17.192
'[13:43:04.895 06/11/2076]',-22.662,-20.317,-9.377,-8.987,23.443,-42.589,-18.364,-25.788,-86.740,23.834,11.331,-23.443,-44.933,-14.847,-10.940,-2.344,-21.099,-16.410,10.159,11.331,6.642,-8.205,-10.940
'[13:43:04.898 06/11/2076]',-18.364,-15.238,-12.112,-9.768,24.615,-35.165,-21.099,-25.006,-87.521,32.430,13.675,-28.523,-52.357,-3.126,-4.689,-8.596,-16.410,-14.457,12.894,5.470,-2.735,-6.642,-4.689
'[13:43:04.902 06/11/2076]',-9.377,-18.755,-12.894,-8.596,26.960,-32.430,-18.364,-27.350,-79.707,37.509,12.112,-14.066,-36.337,-9.377,-5.861,9.377,-10.549,-7.424,13.675,15.238,-12.894,-9.768,-5.861
'[13:43:04.906 06/11/2076]',-6.252,-19.927,-11.331,-9.768,27.350,-32.039,-14.457,-29.695,-62.906,40.635,8.987,-12.894,-21.099,-9.377,-7.814,13.284,-5.470,-3.516,12.112,17.582,-15.629,-7.424,-7.814
'[13:43:04.910 06/11/2076]',-5.861,-16.020,-9.377,-9.377,25.397,-30.476,-14.457,-22.662,-46.496,37.118,2.344,-19.145,-22.662,5.861,-6.642,-1.563,-0.391,-7.424,10.159,2.344,-7.814,0.391,-6.642
'[13:43:04.914 06/11/2076]',-8.205,-13.284,-6.252,-6.642,22.662,-33.993,-10.940,-14.457,-30.085,28.913,-7.424,-16.020,-25.006,19.145,-6.642,-11.722,3.516,-9.768,7.033,-14.066,3.516,10.940,-6.642
'[13:43:04.918 06/11/2076]',-3.126,-10.940,-3.907,-11.331,28.913,-33.211,-2.735,-24.615,-11.331,23.834,-6.252,-19.927,-11.722,13.675,-7.424,-8.205,6.642,-7.033,4.689,-12.112,5.861,9.768,-7.424
'[13:43:04.922 06/11/2076]',5.079,-7.424,-4.689,-17.192,39.463,-24.225,-5.861,-35.556,7.033,12.503,-7.814,-26.960,-6.642,8.205,-7.424,-8.596,6.642,-9.377,5.470,-9.377,-4.298,11.331,-7.424
'[13:43:04.926 06/11/2076]',16.801,-7.424,-6.252,-17.973,54.310,-16.801,-14.847,-38.681,21.490,0.391,-10.940,-17.973,-3.126,-2.344,-7.424,6.252,2.735,-13.675,7.033,-6.252,-16.410,11.331,-7.424
'[13:43:04.930 06/11/2076]',26.178,-8.596,-5.079,-19.927,66.032,-11.331,-17.973,-44.151,35.165,-4.689,-11.722,-22.271,6.642,-12.503,-7.814,10.159,2.735,-12.112,5.861,0.781,-21.880,11.331,-7.814
'[13:43:04.934 06/11/2076]',31.648,-6.252,-7.033,-16.410,71.502,-5.861,-21.099,-42.979,44.151,-10.940,-11.331,-35.556,8.205,-12.503,-10.549,1.563,1.954,-10.549,7.814,0.000,-22.271,14.066,-10.549
'[13:43:04.938 06/11/2076]',35.556,-4.689,-5.470,-12.503,73.455,-0.781,-20.708,-39.072,50.012,-14.847,-12.894,-30.476,10.159,-9.377,-11.722,3.516,2.735,-12.894,6.252,-7.424,-12.112,18.755,-11.722
'[13:43:04.941 06/11/2076]',38.291,-1.954,-5.470,-11.722,74.237,1.172,-17.192,-40.244,53.529,-17.582,-12.894,-22.662,19.536,-11.722,-15.238,7.814,3.126,-10.940,6.252,-10.159,-1.172,21.490,-15.238
'[13:43:04.945 06/11/2076]',38.681,3.126,-7.814,-13.284,72.283,5.861,-14.457,-42.979,51.575,-21.099,-12.503,-41.026,18.364,-7.424,-19.927,-13.675,1.954,-12.503,8.596,-12.503,3.516,22.662,-19.927
'[13:43:04.949 06/11/2076]',38.291,7.424,-10.159,-11.331,69.939,8.205,-14.066,-40.635,44.933,-21.880,-15.238,-55.092,9.377,0.391,-24.615,-32.039,-2.735,-13.284,10.940,-16.801,10.940,23.053,-24.615
'[13:43:04.953 06/11/2076]',41.416,5.861,-12.112,-8.987,71.502,6.642,-12.894,-39.463,38.291,-18.755,-18.364,-30.085,15.629,-3.907,-28.913,-12.112,-5.079,-10.940,12.894,-13.675,15.629,21.490,-28.913
'[13:43:04.957 06/11/2076]',42.979,5.861,-13.675,-5.861,72.283,5.470,-10.940,-38.681,31.648,-16.020,-16.020,-14.847,24.225,-9.768,-32.039,1.563,-7.814,-8.205,14.457,-5.470,16.410,16.410,-32.039
'[13:43:04.961 06/11/2076]',39.853,7.033,-15.238,-3.126,66.032,7.033,-13.284,-32.039,20.317,-18.755,-10.549,-27.741,9.768,0.391,-30.085,-17.192,-14.457,-12.503,16.020,-10.159,20.708,12.894,-30.085
'[13:43:04.965 06/11/2076]',36.728,9.768,-16.020,-3.516,59.389,7.814,-16.801,-24.225,7.424,-19.927,-6.252,-27.741,-1.563,8.596,-25.788,-27.741,-19.927,-12.112,16.801,-14.847,22.271,11.722,-25.788
'[13:43:04.969 06/11/2076]',35.165,9.377,-15.238,-2.344,51.966,6.252,-11.331,-20.708,-3.516,-16.020,-4.298,-11.331,4.298,2.344,-26.569,-16.410,-21.490,-5.079,16.020,-5.079,19.927,4.689,-26.569
'[13:43:04.973 06/11/2076]',30.476,12.112,-13.675,-1.954,39.072,6.642,-3.907,-14.847,-17.973,-10.549,-2.735,-10.549,-0.781,6.642,-26.960,-21.880,-21.880,0.391,14.457,-5.861,22.271,3.126,-26.960
'[13:43:04.977 06/11/2076]',19.536,17.973,-14.066,0.391,20.708,0.781,-2.735,4.689,-37.900,-9.377,-11.331,-12.894,-29.304,30.085,-26.178,-46.886,-21.099,-4.298,14.847,-26.178,35.165,8.987,-26.178
'[13:43:04.980 06/11/2076]',19.536,18.755,-18.364,-0.781,13.284,-0.781,0.781,5.861,-46.496,-8.596,-13.284,6.252,-31.648,29.304,-26.178,-33.993,-15.238,-1.954,19.145,-25.397,31.648,7.033,-26.178
'[13:43:04.984 06/11/2076]',21.490,20.708,-22.271,-2.344,7.814,1.954,8.205,-1.563,-49.231,-4.689,-4.298,2.344,-28.913,26.178,-27.741,-27.350,-9.377,4.689,23.053,-16.020,23.834,-0.781,-27.741
'[13:43:04.988 06/11/2076]',26.178,21.490,-28.913,-6.642,7.424,9.377,1.954,-7.033,-49.231,-7.424,-1.172,4.298,-29.695,21.099,-30.085,-14.457,-9.377,5.079,29.695,-6.642,5.079,-5.470,-30.085
'[13:43:04.992 06/11/2076]',33.211,19.145,-30.867,-11.722,10.940,12.503,-2.735,-12.112,-43.761,-5.470,-3.907,15.238,-23.443,16.020,-32.039,0.391,-9.377,3.907,31.648,0.000,-6.252,-5.470,-32.039
'[13:43:04.996 06/11/2076]',37.509,17.192,-30.867,-16.020,12.894,13.675,-2.344,-16.020,-37.118,-2.735,-5.470,6.642,-16.801,15.238,-33.993,-3.516,-8.205,3.126,31.648,6.642,-12.894,-7.814,-33.993
'[13:43:05.000 06/11/2076]',39.072,16.801,-31.258,-16.410,12.503,12.112,-5.470,-11.331,-32.039,-0.781,-11.722,-5.079,-17.973,19.536,-36.728,-15.629,-5.470,-2.344,32.039,2.344,-15.629,-5.079,-36.728
'[13:43:05.004 06/11/2076]',42.198,14.066,-30.476,-19.927,15.629,8.987,-9.768,-9.768,-22.271,0.391,-17.582,4.298,-7.424,16.410,-35.946,-8.205,-0.781,-8.205,31.258,0.000,-14.847,-3.907,-35.946
'[13:43:05.008 06/11/2076]',46.105,12.503,-33.993,-21.880,19.145,8.987,-12.112,-13.284,-10.940,0.781,-18.364,16.020,10.940,5.470,-35.556,5.861,4.689,-10.549,34.774,2.344,-13.675,-5.861,-35.556
'[13:43:05.012 06/11/2076]',42.979,13.675,-35.165,-20.708,14.457,10.940,-16.410,-8.987,-5.470,-2.344,-17.973,0.391,14.457,1.563,-33.993,-8.205,7.424,-16.410,35.946,0.000,-8.596,-9.377,-33.993
'[13:43:05.016 06/11/2076]',38.681,14.847,-36.337,-17.973,9.768,9.768,-19.536,-1.954,0.000,-5.470,-20.317,-10.940,16.801,-0.391,-33.602,-19.927,7.424,-21.880,37.118,-4.689,-0.781,-10.940,-33.602
'[13:43:05.020 06/11/2076]',39.072,12.503,-37.509,-16.801,7.424,9.377,-17.582,-2.344,7.033,-6.252,-21.880,2.344,37.118,-17.973,-37.900,-0.391,9.768,-21.099,38.291,3.516,3.516,-16.020,-37.900
'[13:43:05.023 06/11/2076]',41.807,10.549,-37.118,-12.503,4.689,14.457,-12.894,-5.079,10.159,-5.861,-17.192,4.689,53.138,-33.993,-39.853,11.722,11.722,-13.284,37.900,13.675,3.126,-21.880,-39.853
'[13:43:05.027 06/11/2076]',39.072,11.331,-36.728,-9.377,-2.735,18.364,-14.066,1.954,4.689,-4.689,-14.457,-7.424,46.496,-29.695,-36.337,-1.954,11.722,-10.159,37.509,7.033,8.205,-22.271,-36.337
'[13:43:05.031 06/11/2076]',38.291,12.894,-36.337,-8.596,-12.112,24.615,-12.112,6.642,-4.298,1.954,-12.112,-4.689,44.933,-25.397,-32.039,-7.814,18.755,0.391,37.118,1.563,14.457,-20.708,-32.039
'[13:43:05.035 06/11/2076]',38.291,12.503,-32.821,-5.470,-22.271,30.867,-1.563,5.470,-14.457,14.457,-3.907,3.126,55.873,-29.695,-25.397,-1.172,30.476,16.801,33.602,8.987,15.629,-25.788,-25.397
'[13:43:05.039 06/11/2076]',32.430,14.066,-25.788,0.391,-35.946,32.430,8.596,14.847,-28.913,30.867,-2.344,19.536,55.482,-23.053,-18.755,5.861,41.807,25.788,26.569,2.735,24.225,-24.615,-18.755
'[13:43:05.043 06/11/2076]',28.913,19.927,-19.536,0.391,-43.370,36.337,13.284,22.662,-42.589,44.151,1.954,14.457,38.681,-1.563,-11.331,-6.642,51.575,31.648,20.317,-10.549,30.085,-18.755,-11.331
'[13:43:05.047 06/11/2076]',28.523,29.304,-10.159,-7.033,-44.542,44.542,23.834,14.457,-52.357,60.562,17.192,7.424,31.648,9.377,-2.344,-4.689,62.906,44.151,10.940,-11.722,22.662,-17.973,-2.344
'[13:43:05.051 06/11/2076]',31.258,32.821,-6.642,-1.954,-42.198,57.045,26.960,12.894,-61.734,73.455,33.602,3.907,23.834,10.940,3.907,9.768,68.767,55.873,7.424,-3.516,3.516,-21.490,3.907
'[13:43:05.055 06/11/2076]',33.993,35.946,-2.735,-1.563,-41.807,67.204,28.523,11.722,-67.985,86.349,42.979,0.781,13.675,24.615,9.768,12.894,73.455,62.906,3.516,-7.033,-3.126,-18.755,9.768
'[13:43:05.059 06/11/2076]',35.946,35.165,-0.391,-1.172,-43.761,71.893,30.867,10.159,-71.111,96.508,46.886,12.894,15.629,27.741,14.847,26.178,80.098,67.595,1.172,-2.344,-12.112,-19.536,14.847
'[13:43:05.063 06/11/2076]',32.430,32.430,-0.781,0.391,-49.621,70.330,32.430,10.549,-74.628,101.197,47.668,10.940,13.675,32.039,15.238,23.834,81.661,70.330,1.563,1.172,-17.973,-21.490,15.238
'[13:43:05.066 06/11/2076]',27.350,30.085,-1.563,-1.172,-57.436,67.595,33.602,9.768,-76.581,101.978,42.198,5.079,7.424,41.026,11.331,12.503,81.661,67.985,2.344,-2.344,-16.020,-23.053,11.331
'[13:43:05.070 06/11/2076]',27.350,28.523,0.000,-6.642,-58.217,66.813,34.774,4.689,-73.455,99.243,39.853,20.708,12.503,35.946,6.642,30.476,82.442,67.595,0.781,-0.391,-19.927,-27.741,6.642
'[13:43:05.074 06/11/2076]',27.741,26.960,1.172,-7.424,-56.264,67.985,37.900,-0.781,-67.595,92.601,38.291,37.118,20.317,23.053,2.344,54.310,82.051,67.595,-0.391,5.470,-27.741,-33.993,2.344
'[13:43:05.078 06/11/2076]',25.788,29.695,4.689,-4.298,-59.780,72.283,40.635,3.126,-61.734,83.614,35.165,21.490,10.159,25.788,4.298,38.291,78.144,63.297,-3.907,-0.391,-30.867,-33.993,4.298
'[13:43:05.082 06/11/2076]',27.350,37.118,8.987,-3.516,-60.562,78.926,43.761,8.205,-49.621,74.628,31.648,14.457,3.126,31.648,11.331,24.225,76.972,61.734,-8.205,-7.814,-36.337,-30.476,11.331
'[13:43:05.086 06/11/2076]',34.774,39.853,12.503,-3.126,-55.482,85.177,48.449,7.033,-31.648,66.032,31.258,34.383,19.536,15.629,18.364,45.324,77.753,66.422,-11.722,2.344,-53.138,-32.430,18.364
'[13:43:05.090 06/11/2076]',40.244,43.370,14.457,-0.781,-50.403,87.131,51.575,9.377,-16.020,59.780,30.476,46.105,30.867,4.298,23.443,61.734,75.409,67.204,-13.675,6.252,-66.032,-30.476,23.443
'[13:43:05.094 06/11/2076]',39.463,48.059,16.410,2.735,-47.668,87.521,46.886,19.536,-8.596,53.919,25.397,39.072,17.192,12.503,32.039,48.059,76.972,53.919,-15.629,-8.596,-63.687,-21.490,32.039
'[13:43:05.098 06/11/2076]',40.635,49.231,17.192,2.735,-42.198,83.223,44.933,24.615,-0.781,47.668,19.536,40.635,12.112,11.331,37.118,46.496,81.270,44.151,-16.410,-19.927,-56.654,-17.973,37.118
'[13:43:05.102 06/11/2076]',37.509,42.979,18.364,10.549,-40.244,72.283,50.403,28.132,3.907,46.496,12.894,46.496,20.708,-3.516,36.728,56.654,85.568,35.165,-17.582,-15.629,-47.668,-18.755,36.728
'[13:43:05.105 06/11/2076]',35.556,44.542,17.973,10.549,-36.337,69.548,46.496,28.523,7.424,43.761,8.987,28.132,16.020,0.391,37.900,35.165,88.694,22.271,-17.192,-23.053,-34.383,-14.066,37.900
'[13:43:05.109 06/11/2076]',37.118,46.886,16.801,2.735,-32.430,71.893,42.198,21.880,10.159,41.416,9.377,19.145,14.066,0.781,42.589,21.880,89.084,17.582,-16.020,-22.662,-29.695,-13.284,42.589
'[13:43:05.113 06/11/2076]',41.416,44.542,10.159,5.079,-26.178,73.455,36.728,17.582,6.252,39.853,14.847,18.755,21.880,-13.675,42.589,30.085,84.005,20.708,-9.377,-6.252,-42.589,-16.410,42.589
'[13:43:05.117 06/11/2076]',38.681,44.933,5.079,10.549,-25.397,72.674,35.165,16.410,-3.907,42.198,22.271,5.079,12.112,-10.549,41.026,23.053,78.535,25.006,-4.298,-1.563,-46.496,-15.238,41.026
'[13:43:05.121 06/11/2076]',37.509,43.761,5.079,13.675,-26.569,72.674,38.291,16.801,-17.582,47.277,29.695,12.112,2.344,-7.033,43.370,32.821,76.190,32.039,-4.298,-1.172,-48.449,-12.894,43.370
'[13:43:05.125 06/11/2076]',34.383,40.635,4.689,18.364,-28.913,69.939,40.244,17.582,-31.648,53.919,33.993,28.523,0.000,-10.549,44.542,51.184,76.581,38.291,-3.907,1.563,-49.621,-12.503,44.542
'[13:43:05.129 06/11/2076]',27.350,40.635,7.424,17.192,-35.165,68.767,44.151,16.801,-45.714,61.343,38.291,15.629,-11.331,-0.391,46.105,36.337,80.879,39.463,-6.642,0.391,-47.668,-9.768,46.105
'[13:43:05.133 06/11/2076]',25.397,43.761,10.159,13.675,-39.853,73.846,44.151,16.410,-57.827,72.674,42.589,6.642,-20.708,12.503,49.621,21.880,87.912,40.635,-9.377,-3.907,-46.886,-6.252,49.621
'[13:43:05.137 06/11/2076]',27.741,45.324,13.284,10.549,-40.244,79.316,43.370,15.238,-63.687,82.833,44.151,27.350,-12.112,12.503,51.966,37.900,96.508,42.589,-12.503,0.000,-49.621,-6.642,51.966
'[13:43:05.141 06/11/2076]',28.132,45.714,15.629,9.768,-42.589,83.223,45.714,14.847,-67.204,91.429,46.496,39.853,-3.516,15.629,49.621,48.840,101.587,45.324,-14.847,3.516,-52.747,-4.298,49.621
'[13:43:05.145 06/11/2076]',22.662,52.747,20.317,7.814,-48.840,89.084,47.277,17.973,-73.065,94.945,50.012,23.053,-18.755,37.118,50.012,26.569,104.713,44.542,-19.536,-5.470,-48.840,0.391,50.012
'[13:43:05.148 06/11/2076]',24.615,56.264,21.880,5.470,-50.403,95.726,46.496,19.145,-71.502,96.899,51.966,19.145,-28.132,51.966,51.966,20.708,109.011,42.979,-21.099,-11.331,-50.403,4.298,51.966
'[13:43:05.152 06/11/2076]',26.569,53.919,21.880,5.861,-50.794,96.117,46.496,17.973,-61.734,99.243,48.840,30.085,-16.801,48.449,47.668,37.900,113.700,45.714,-21.099,-1.563,-58.608,2.735,47.668
'[13:43:05.156 06/11/2076]',27.350,53.138,23.053,7.424,-52.357,95.336,48.059,21.880,-50.403,101.978,42.589,32.039,-10.940,48.449,44.542,43.761,119.951,41.807,-22.271,0.391,-61.343,3.907,44.542
'[13:43:05.160 06/11/2076]',25.006,54.701,23.834,8.596,-53.138,90.647,44.151,32.039,-38.681,99.243,32.821,25.397,-18.755,60.171,46.886,30.085,123.468,28.523,-23.053,-14.457,-53.529,11.331,46.886
'[13:43:05.164 06/11/2076]',16.020,54.310,24.225,12.894,-56.654,79.316,42.198,44.542,-27.350,91.819,19.927,23.443,-25.006,64.078,48.840,18.755,123.077,18.364,-23.443,-28.523,-40.635,15.238,48.840
'[13:43:05.168 06/11/2076]',13.675,54.701,27.741,11.331,-51.966,76.972,46.886,37.118,-12.112,85.958,15.238,22.271,-13.675,54.310,47.277,23.053,123.077,16.801,-26.960,-25.788,-36.337,14.457,47.277
'[13:43:05.172 06/11/2076]',10.940,57.045,31.258,5.470,-44.933,80.879,45.324,25.006,1.563,77.753,14.457,8.987,-12.112,51.575,46.105,17.582,116.825,12.503,-30.476,-26.569,-32.821,18.364,46.105
'[13:43:05.176 06/11/2076]',14.066,58.608,29.304,1.954,-33.993,87.131,33.211,18.364,13.284,63.687,8.987,16.801,-10.940,41.026,45.324,27.741,102.759,9.377,-28.523,-21.099,-40.244,19.145,45.324
'[13:43:05.180 06/11/2076]',14.847,58.217,30.085,-1.563,-28.523,90.647,29.695,10.549,25.006,53.138,5.861,14.066,-2.344,30.085,43.370,28.523,94.164,10.159,-29.304,-11.722,-42.198,17.582,43.370
'[13:43:05.184 06/11/2076]',12.112,57.045,30.085,2.344,-26.569,90.647,28.132,10.940,30.867,43.761,4.298,2.344,-5.079,27.350,40.244,20.317,86.349,8.205,-29.304,-10.549,-36.728,20.317,40.244
'[13:43:05.188 06/11/2076]',8.596,53.529,31.258,8.205,-25.006,87.521,26.569,13.675,36.728,32.821,1.563,10.159,-4.689,20.708,40.244,26.178,79.316,4.689,-30.476,-10.940,-26.569,21.099,40.244
'[13:43:05.191 06/11/2076]',4.689,46.886,32.430,12.112,-21.880,80.098,30.085,10.940,39.853,26.569,-0.781,18.755,1.172,8.596,37.509,36.728,75.800,2.735,-31.648,-8.596,-13.284,20.708,37.509
'[13:43:05.195 06/11/2076]',0.391,40.635,35.556,17.582,-18.364,73.846,33.211,7.814,37.118,23.053,1.954,-1.954,-4.298,8.205,34.383,21.490,70.330,1.563,-34.774,-7.424,-3.907,23.443,34.383
'[13:43:05.199 06/11/2076]',-3.907,36.337,36.728,23.053,-14.066,68.767,31.648,6.642,30.476,22.271,2.344,-17.192,-13.675,11.722,33.993,5.861,60.952,0.781,-35.946,-10.940,7.424,24.225,33.993
'[13:43:05.203 06/11/2076]',-1.954,32.430,36.337,23.053,-5.470,64.078,32.821,0.781,24.615,23.834,1.954,0.000,-5.861,2.344,30.476,24.225,56.654,8.987,-35.556,-8.205,14.066,23.053,30.476
'[13:43:05.207 06/11/2076]',0.391,30.476,36.337,21.880,-0.391,62.125,34.383,-4.689,17.973,26.960,7.033,7.033,5.079,-6.642,26.960,35.165,54.310,16.020,-35.556,-1.563,17.582,21.490,26.960
'[13:43:05.211 06/11/2076]',-0.391,34.774,34.774,19.536,-0.391,64.078,30.476,-3.907,3.907,27.741,14.066,-14.457,-8.205,4.689,27.741,8.205,48.840,14.457,-33.993,-11.331,23.053,24.615,27.741
'[13:43:05.215 06/11/2076]',-1.563,38.681,34.383,16.801,-3.126,65.250,28.132,-0.391,-11.722,30.867,18.755,-21.099,-21.880,14.847,29.304,-4.689,46.496,16.801,-33.602,-21.490,26.178,28.523,29.304
'[13:43:05.219 06/11/2076]',-0.391,37.118,36.728,18.364,-3.907,64.078,32.430,0.781,-19.536,39.853,21.490,-8.987,-14.457,11.722,29.304,6.642,48.840,23.443,-35.946,-16.801,23.834,28.132,29.304
'[13:43:05.223 06/11/2076]',-1.172,35.556,41.807,18.755,-4.298,61.343,36.337,2.344,-26.569,49.621,23.443,-8.596,-17.973,19.927,30.085,5.861,51.575,23.834,-41.026,-20.708,25.006,30.085,30.085
'[13:43:05.227 06/11/2076]',-11.722,39.463,47.277,18.364,-10.549,55.092,34.383,15.629,-33.602,52.747,15.629,-10.940,-40.244,44.542,32.430,-12.503,50.794,14.847,-46.496,-45.324,39.072,38.291,32.430
'[13:43:05.230 06/11/2076]',-8.987,39.853,49.231,16.410,-3.126,51.575,34.774,14.457,-30.085,53.919,10.549,8.205,-35.946,42.198,30.867,5.470,54.310,16.410,-48.449,-47.277,37.118,37.118,30.867
'[13:43:05.234 06/11/2076]',-5.079,43.370,50.794,10.940,4.689,55.092,35.946,5.470,-21.880,56.264,16.020,-5.470,-29.695,39.072,30.085,4.689,55.092,17.192,-50.012,-39.853,25.788,30.476,30.085
'[13:43:05.238 06/11/2076]',0.391,43.370,47.277,12.503,10.159,59.780,26.569,7.424,-15.238,51.184,17.973,-4.689,-30.085,35.556,30.476,12.894,48.449,11.331,-46.496,-35.556,9.377,27.350,30.476
'[13:43:05.242 06/11/2076]',7.424,40.635,44.933,13.284,17.192,59.780,19.145,10.940,-5.861,46.886,14.847,10.159,-20.708,26.178,32.430,28.523,43.370,8.596,-44.151,-28.523,-1.563,24.225,32.430
'[13:43:05.246 06/11/2076]',12.112,36.728,44.151,12.112,19.927,58.999,13.675,14.066,6.252,40.635,13.284,6.252,-10.940,21.099,32.039,24.615,37.118,7.033,-43.370,-20.708,-9.768,21.880,32.039
'[13:43:05.250 06/11/2076]',10.549,35.165,41.807,10.549,20.317,51.575,6.642,20.317,15.629,28.523,5.470,0.391,-11.722,22.271,28.523,12.112,28.913,-0.391,-41.026,-23.443,-4.689,19.927,28.523
'[13:43:05.254 06/11/2076]',10.549,32.821,40.635,5.470,23.053,44.542,1.954,20.317,27.350,15.238,-3.907,16.020,-1.172,12.112,23.053,21.490,21.099,-6.642,-39.853,-23.053,0.781,16.801,23.053
'[13:43:05.258 06/11/2076]',12.503,30.476,40.635,1.563,30.085,42.198,0.000,14.457,41.807,4.298,-9.377,25.788,11.722,-0.391,16.801,35.165,17.582,-10.159,-39.853,-18.755,3.907,13.284,16.801
'[13:43:05.262 06/11/2076]',6.252,30.476,39.853,3.907,29.695,40.244,-0.781,12.503,49.231,-4.689,-13.284,2.735,5.470,-1.172,15.238,14.066,11.331,-19.145,-39.072,-23.443,10.940,12.503,15.238
'[13:43:05.266 06/11/2076]',0.391,31.258,38.681,8.205,28.913,37.900,-1.563,14.457,55.482,-14.457,-18.755,-4.689,-2.735,-1.172,17.973,1.563,5.470,-23.834,-37.900,-30.867,17.582,13.675,17.973
'[13:43:05.270 06/11/2076]',1.172,28.523,38.291,10.549,34.383,36.728,0.391,7.814,69.158,-19.536,-22.662,11.331,12.112,-17.582,17.582,23.443,1.954,-21.490,-37.509,-24.225,19.536,12.112,17.582
'[13:43:05.273 06/11/2076]',0.391,27.350,36.728,7.814,40.244,35.556,0.391,-1.954,80.879,-26.178,-23.834,15.238,23.053,-30.085,16.801,34.774,-5.079,-19.536,-35.946,-17.973,18.364,11.331,16.801
'[13:43:05.277 06/11/2076]',-6.642,28.132,31.648,7.424,40.244,25.788,-5.470,0.781,80.488,-39.853,-25.397,3.907,9.377,-25.788,17.582,17.192,-17.192,-28.523,-30.867,-26.569,25.397,13.284,17.582
'[13:43:05.281 06/11/2076]',-9.377,21.880,28.523,7.814,42.198,9.768,-9.377,6.642,72.283,-46.105,-27.741,3.516,1.954,-26.569,15.629,10.159,-27.741,-30.867,-27.741,-30.867,32.039,17.192,15.629
'[13:43:05.285 06/11/2076]',-11.722,11.331,25.397,9.377,41.807,-5.861,-5.470,5.470,57.045,-44.933,-25.006,3.907,4.298,-34.774,11.722,10.159,-33.602,-28.913,-24.615,-23.443,36.728,14.066,11.722
'[13:43:05.289 06/11/2076]',-18.755,2.735,23.053,17.582,34.383,-23.443,-3.516,17.582,31.648,-38.681,-25.397,14.847,-1.954,-36.728,12.112,7.814,-37.900,-28.523,-22.271,-25.397,49.231,13.675,12.112
'[13:43:05.293 06/11/2076]',-23.053,2.344,21.490,15.629,28.523,-32.430,-3.516,24.615,6.252,-31.648,-23.834,15.629,-19.536,-25.397,15.629,-3.907,-36.728,-27.741,-20.708,-35.165,55.482,16.020,15.629
'[13:43:05.297 06/11/2076]',-22.271,5.861,19.536,8.205,26.960,-29.695,-0.391,14.847,-12.894,-18.755,-13.675,16.020,-22.662,-24.225,18.755,-1.954,-32.821,-18.364,-18.755,-30.476,46.496,12.112,18.755
'[13:43:05.301 06/11/2076]',-22.271,7.814,15.238,11.722,22.662,-21.880,-0.781,14.066,-32.821,-10.940,-0.781,17.582,-30.085,-25.397,17.582,10.940,-31.648,-8.987,-14.457,-18.364,25.397,4.689,17.582
'[13:43:05.305 06/11/2076]',-23.053,8.596,14.457,13.284,18.755,-18.364,0.781,14.066,-50.403,-0.781,9.377,22.271,-42.589,-16.801,19.145,20.708,-25.397,-7.424,-13.675,-15.238,15.629,1.563,19.145
'[13:43:05.309 06/11/2076]',-21.880,4.298,15.629,14.847,14.457,-18.755,2.735,15.629,-64.078,8.596,15.238,35.556,-44.933,-13.675,19.536,35.165,-21.490,-3.516,-14.847,-9.768,6.642,0.781,19.536
'[13:43:05.313 06/11/2076]',-25.006,-1.563,16.801,19.536,5.470,-21.490,4.689,22.271,-72.283,14.457,17.582,32.821,-48.449,-7.033,19.536,30.085,-19.927,0.391,-16.020,-2.735,4.298,-1.563,19.536
'[13:43:05.316 06/11/2076]',-29.304,-4.689,19.145,19.536,-2.344,-26.569,5.861,28.913,-72.674,17.582,15.238,27.741,-53.529,4.298,21.490,15.629,-16.410,0.000,-18.364,-3.907,6.252,-0.781,21.490
'[13:43:05.320 06/11/2076]',-27.741,-8.987,19.927,18.755,-5.470,-30.085,7.033,31.258,-62.125,17.192,10.940,46.496,-40.635,4.689,18.755,30.085,-15.629,0.781,-19.145,0.391,4.689,-1.563,18.755
'[13:43:05.324 06/11/2076]',-25.006,-13.675,19.145,18.755,-5.861,-31.648,6.642,30.867,-43.761,12.112,7.033,63.297,-21.099,-3.907,14.457,49.621,-18.364,3.126,-18.364,9.377,0.391,-6.642,14.457
'[13:43:05.328 06/11/2076]',-27.350,-14.066,17.582,19.145,-9.768,-34.774,5.470,35.556,-31.258,3.907,1.954,44.542,-23.053,0.781,11.722,29.304,-22.662,-3.516,-16.801,5.470,3.126,-8.596,11.722
'[13:43:05.332 06/11/2076]',-28.523,-11.331,14.066,16.801,-12.503,-37.509,3.516,37.900,-14.066,-7.033,-6.252,32.039,-23.443,3.516,5.861,16.410,-26.960,-12.894,-13.284,-1.954,8.596,-8.596,5.861
'[13:43:05.336 06/11/2076]',-22.271,-14.457,10.549,14.847,-8.987,-39.463,2.735,34.383,6.642,-17.192,-13.675,41.807,1.172,-17.973,0.781,32.039,-32.039,-11.722,-9.768,10.549,4.298,-14.847,0.781
'[13:43:05.340 06/11/2076]',-18.364,-17.973,7.814,15.629,-8.596,-40.635,2.735,33.602,26.960,-27.350,-19.927,46.105,20.708,-33.602,-3.516,41.026,-36.728,-12.112,-7.033,19.536,4.298,-16.801,-3.516
'[13:43:05.344 06/11/2076]',-18.755,-19.536,4.689,18.364,-11.331,-44.933,0.391,42.198,43.761,-41.807,-29.695,40.244,17.973,-28.913,-3.907,26.569,-43.370,-21.880,-3.907,8.596,12.503,-8.987,-3.907
'[13:43:05.348 06/11/2076]',-17.582,-21.099,5.861,21.099,-10.159,-51.184,2.344,48.059,58.217,-50.403,-35.556,43.761,23.053,-29.304,-2.344,22.662,-48.059,-23.443,-5.079,3.516,20.708,-3.907,-2.344
'[13:43:05.352 06/11/2076]',-16.020,-29.695,7.424,30.476,-7.814,-61.734,10.940,51.184,71.111,-54.701,-41.807,53.529,37.118,-41.807,-4.298,36.728,-51.575,-21.490,-6.642,7.814,30.476,-4.298,-4.298
'[13:43:05.355 06/11/2076]',-16.020,-26.960,10.549,29.695,-4.298,-63.297,13.284,51.184,80.098,-63.687,-44.151,40.244,33.993,-40.244,-4.689,23.053,-57.436,-27.741,-9.768,0.000,37.900,-1.954,-4.689
'[13:43:05.359 06/11/2076]',-12.112,-19.927,14.847,22.271,5.079,-61.343,12.503,47.668,86.740,-72.283,-41.807,32.039,30.476,-41.416,-0.781,14.847,-62.515,-29.304,-14.066,-4.689,37.509,-1.954,-0.781
'[13:43:05.363 06/11/2076]',-1.954,-17.582,12.503,20.708,17.582,-55.092,8.987,42.589,87.912,-81.270,-34.383,32.039,37.118,-58.999,1.172,24.225,-71.111,-20.708,-11.722,7.033,21.099,-10.549,1.172
'[13:43:05.367 06/11/2076]',2.735,-12.503,11.331,20.317,22.662,-48.840,7.424,39.853,81.270,-85.177,-25.397,22.271,30.476,-62.125,4.298,19.536,-76.190,-15.629,-10.549,7.033,13.675,-12.112,4.298
'[13:43:05.371 06/11/2076]',8.596,-8.596,11.331,18.755,28.132,-42.979,8.987,36.728,70.330,-82.051,-17.192,29.304,25.006,-61.734,9.768,26.178,-77.363,-8.205,-10.549,4.298,8.205,-10.940,9.768
'[13:43:05.375 06/11/2076]',13.675,-10.159,11.331,21.490,28.913,-39.463,11.331,35.556,54.310,-74.237,-8.987,47.277,23.053,-64.469,12.112,45.714,-73.455,-1.954,-10.549,6.642,4.298,-11.722,12.112
'[13:43:05.379 06/11/2076]',12.112,-9.377,14.457,21.490,24.615,-35.556,14.457,35.165,32.039,-60.562,-0.781,35.946,7.814,-53.529,17.973,34.383,-66.032,1.954,-13.675,4.689,0.781,-12.112,17.973
'[13:43:05.383 06/11/2076]',12.112,-6.252,19.536,18.364,21.099,-30.476,18.364,34.383,11.722,-44.933,9.377,24.225,-9.377,-37.509,25.006,22.662,-54.701,7.424,-18.755,0.391,-5.470,-10.940,25.006
'[13:43:05.387 06/11/2076]',14.847,-5.861,24.615,16.801,21.490,-25.006,21.880,32.821,-5.470,-26.178,19.145,48.449,-8.987,-32.821,31.648,45.324,-40.244,19.145,-23.834,6.252,-14.457,-14.457,31.648
'[13:43:05.391 06/11/2076]',18.755,-4.689,29.304,17.582,20.317,-18.755,25.397,34.383,-22.271,-7.033,28.132,65.250,-3.907,-27.741,36.337,59.389,-26.178,29.304,-28.523,12.112,-21.880,-16.410,36.337
'[13:43:05.395 06/11/2076]',18.755,0.391,30.867,14.066,12.503,-9.377,25.397,37.118,-37.118,3.907,37.509,48.449,-16.801,-3.907,41.026,32.430,-15.629,31.258,-30.085,3.907,-21.490,-12.894,41.026
'[13:43:05.398 06/11/2076]',22.271,6.252,30.085,8.987,6.642,0.391,23.443,38.291,-46.105,10.940,40.635,47.277,-21.490,11.331,42.589,21.490,-5.079,31.258,-29.304,0.781,-23.053,-13.284,42.589
'[13:43:05.402 06/11/2076]',28.132,3.907,26.569,12.112,2.344,5.470,23.443,38.681,-43.761,16.410,40.244,61.343,-4.298,6.252,37.900,34.774,3.126,34.383,-25.788,12.503,-31.258,-18.755,37.900
'[13:43:05.406 06/11/2076]',32.039,0.391,22.271,15.238,-2.735,8.205,24.615,40.244,-37.509,16.801,38.681,66.422,2.735,7.814,31.648,41.807,9.768,32.821,-21.490,16.410,-33.602,-19.536,31.648
'[13:43:05.410 06/11/2076]',29.304,0.781,21.880,15.238,-6.642,6.642,21.099,46.886,-30.085,12.894,29.695,67.204,-1.563,20.317,29.304,31.258,9.768,26.960,-21.099,6.642,-27.350,-14.847,29.304
'[13:43:05.414 06/11/2076]',23.443,-0.781,19.145,23.053,-13.284,-0.391,21.099,58.217,-20.317,7.033,19.145,72.283,-0.781,27.741,28.523,21.880,8.987,24.615,-18.364,-3.907,-15.238,-9.377,28.523
'[13:43:05.418 06/11/2076]',26.569,-3.126,18.755,22.662,-10.549,0.391,25.397,51.184,-5.470,4.298,13.284,72.674,15.629,19.927,22.662,26.569,7.424,26.960,-17.973,3.126,-10.940,-10.940,22.662
'[13:43:05.422 06/11/2076]',32.821,0.391,18.755,12.894,-1.954,4.689,24.225,38.291,13.284,-0.391,10.940,57.436,27.741,14.847,21.490,17.582,2.735,26.178,-17.973,5.470,-12.503,-10.159,21.490
'[13:43:05.426 06/11/2076]',42.979,0.391,13.284,11.722,11.331,10.159,12.894,33.993,32.039,-7.424,2.735,62.125,39.853,0.391,22.662,26.178,-3.907,20.317,-12.503,9.768,-21.099,-11.331,22.662
'[13:43:05.430 06/11/2076]',53.138,-3.907,8.987,14.066,27.350,9.768,7.424,27.350,51.184,-11.722,-3.516,54.310,53.138,-14.066,20.708,29.695,-10.159,17.973,-8.205,18.364,-25.788,-12.894,20.708
'[13:43:05.434 06/11/2076]',54.310,-5.861,5.470,18.364,38.681,5.861,0.391,26.960,65.641,-21.099,-7.814,39.853,53.529,-19.536,20.317,20.317,-17.973,12.894,-4.689,17.973,-24.615,-10.549,20.317
'[13:43:05.438 06/11/2076]',51.966,-8.596,4.298,25.788,46.105,0.391,-3.126,30.085,76.972,-31.258,-15.238,46.496,56.654,-26.960,18.755,26.960,-25.788,10.159,-3.516,14.847,-16.020,-8.205,18.755
'[13:43:05.441 06/11/2076]',47.277,-12.112,7.033,29.695,50.403,-6.252,-0.391,29.304,85.177,-42.979,-17.973,56.654,64.860,-39.853,13.675,40.635,-34.383,11.722,-6.252,15.238,-6.642,-6.642,13.675
'[13:43:05.445 06/11/2076]',39.463,-9.377,10.159,31.648,48.059,-9.768,3.907,29.695,86.349,-57.436,-14.066,37.118,57.436,-42.589,14.066,22.662,-44.933,16.410,-9.377,11.331,2.344,-7.033,14.066
'[13:43:05.449 06/11/2076]',31.648,-5.861,14.066,31.258,45.324,-10.549,7.033,30.867,83.223,-67.985,-11.722,25.788,44.542,-40.635,15.238,8.987,-53.919,19.927,-13.284,4.298,11.722,-5.079,15.238
'[13:43:05.453 06/11/2076]',27.741,-6.252,19.536,30.867,45.324,-13.284,13.675,26.960,77.363,-73.065,-9.768,48.059,45.324,-51.575,13.284,33.993,-61.734,32.821,-18.755,7.814,16.410,-5.079,13.284
'[13:43:05.457 06/11/2076]',22.271,-7.424,25.397,30.867,43.761,-13.284,21.880,19.536,66.422,-72.283,-3.907,57.827,43.761,-56.264,11.331,48.449,-67.985,44.151,-24.615,13.284,19.927,-4.689,11.331
'[13:43:05.461 06/11/2076]',11.722,-5.079,28.913,29.695,35.556,-10.549,23.834,17.192,43.761,-69.548,4.298,38.291,15.238,-39.853,13.284,26.569,-72.283,46.496,-28.132,6.642,22.271,-0.391,13.284
'[13:43:05.465 06/11/2076]',3.126,-3.516,29.695,31.258,23.443,-9.377,26.569,20.317,18.364,-62.906,10.159,37.118,-5.470,-25.788,14.847,19.145,-69.548,50.012,-28.913,0.781,21.490,3.907,14.847
'[13:43:05.469 06/11/2076]',-1.172,-5.470,31.258,33.993,9.768,-8.596,34.774,21.880,-3.516,-49.231,18.755,44.933,-7.033,-24.225,15.238,25.397,-60.171,54.701,-30.476,8.596,17.582,1.172,15.238
'[13:43:05.473 06/11/2076]',-5.470,-4.689,30.085,31.258,-3.516,-6.642,37.900,24.225,-26.569,-33.993,23.834,43.761,-17.582,-12.112,16.020,19.536,-47.668,53.919,-29.304,8.205,15.238,0.391,16.020
'[13:43:05.477 06/11/2076]',-10.159,-1.172,27.350,27.350,-21.490,-5.861,34.383,37.509,-51.966,-18.755,16.410,48.059,-41.416,14.066,16.801,2.735,-30.476,44.542,-26.569,-7.424,21.880,3.907,16.801
'[13:43:05.480 06/11/2076]',-7.424,0.781,27.350,17.192,-29.304,-2.344,38.291,33.602,-65.641,-2.735,19.536,51.184,-42.979,23.053,14.847,5.079,-12.894,43.370,-26.569,-7.814,21.099,0.781,14.847
'[13:43:05.484 06/11/2076]',0.391,4.689,22.662,6.642,-30.867,7.814,37.118,21.099,-72.674,10.549,25.788,37.509,-38.681,24.615,10.159,4.298,0.000,43.761,-21.880,2.344,5.861,-8.596,10.159
'[13:43:05.488 06/11/2076]',6.642,8.205,18.755,3.516,-31.258,19.927,27.741,22.271,-73.846,19.145,27.741,39.463,-36.337,24.225,10.940,12.503,7.424,35.946,-17.973,7.814,-11.331,-14.066,10.940
'[13:43:05.492 06/11/2076]',13.675,11.722,18.755,2.344,-28.132,27.741,23.834,25.006,-65.641,25.788,29.304,52.357,-19.536,19.927,13.284,26.569,14.066,30.867,-17.973,12.112,-21.880,-14.847,13.284
'[13:43:05.496 06/11/2076]',19.927,14.847,19.536,3.126,-23.443,33.602,19.536,28.913,-51.575,30.085,27.350,48.059,-2.344,18.364,15.238,22.271,18.755,26.178,-18.755,17.973,-28.523,-16.801,15.238
'[13:43:05.500 06/11/2076]',22.271,18.364,19.536,5.470,-19.927,33.211,16.410,38.291,-35.165,32.430,21.099,42.589,7.033,25.788,16.410,10.940,20.708,21.880,-18.755,12.503,-26.569,-12.894,16.410
'[13:43:05.504 06/11/2076]',30.867,19.145,19.536,6.642,-9.768,32.821,15.629,39.853,-11.722,32.430,15.238,54.310,28.913,24.225,14.847,21.099,22.662,20.708,-18.755,8.596,-23.053,-7.814,14.847
'[13:43:05.508 06/11/2076]',42.589,17.973,14.847,5.861,8.205,30.867,12.894,30.476,15.629,28.913,11.331,56.264,53.919,16.410,9.377,33.211,23.443,21.099,-14.066,13.284,-23.834,-5.470,9.377
'[13:43:05.512 06/11/2076]',46.886,18.364,8.205,7.424,21.880,26.569,7.814,25.788,37.509,21.490,5.470,26.960,57.045,17.192,4.298,12.503,17.973,14.847,-7.424,7.424,-19.536,-2.344,4.298
'[13:43:05.516 06/11/2076]',50.794,16.801,3.516,10.940,38.291,20.708,1.954,22.271,59.389,9.377,-0.391,8.596,58.608,16.410,2.735,-1.172,10.549,9.768,-2.735,0.391,-12.894,1.954,2.735
'[13:43:05.520 06/11/2076]',58.608,10.159,1.954,9.768,59.389,12.503,0.391,8.987,83.614,-3.126,-3.907,14.457,78.144,-0.391,-1.172,14.847,3.126,14.457,-1.172,8.596,-12.112,2.344,-1.172
'[13:43:05.523 06/11/2076]',58.608,5.861,1.563,8.205,75.800,3.126,-1.954,-1.172,101.587,-18.755,-5.079,12.894,88.303,-17.582,-3.126,23.053,-11.331,18.755,-0.781,14.457,-12.112,2.344,-3.126
'[13:43:05.527 06/11/2076]',51.575,1.172,2.344,9.768,84.786,-8.596,-8.987,0.391,111.355,-37.900,-9.377,0.391,71.893,-14.457,-1.954,7.814,-32.039,14.066,-1.563,4.298,-6.252,8.987,-1.954
'[13:43:05.531 06/11/2076]',41.807,-1.563,1.563,8.987,92.601,-25.397,-12.112,-1.563,115.263,-53.919,-15.629,-3.126,56.654,-15.629,-1.954,2.735,-48.840,14.847,-0.781,-4.298,0.391,14.066,-1.954
'[13:43:05.535 06/11/2076]',31.258,-8.205,0.000,9.768,97.680,-44.151,-8.596,-10.159,114.872,-64.469,-19.927,-5.079,49.621,-27.741,-5.861,8.987,-63.687,16.410,0.781,0.000,3.907,11.722,-5.861
'[13:43:05.539 06/11/2076]',17.973,-15.238,-1.563,12.894,96.508,-62.515,-6.252,-11.331,105.885,-73.065,-28.913,-0.781,34.774,-32.039,-10.159,9.377,-77.363,13.675,2.344,-7.033,16.410,13.675,-10.159
'[13:43:05.543 06/11/2076]',6.252,-14.457,-1.172,3.516,90.256,-72.674,-5.079,-16.020,91.038,-82.051,-29.304,-12.112,9.768,-23.053,-8.205,-10.549,-84.786,8.205,1.954,-18.755,25.788,16.020,-8.205
'[13:43:05.547 06/11/2076]',2.344,-12.112,-3.126,-9.768,87.521,-71.893,-6.252,-32.430,76.190,-89.084,-21.490,-17.973,1.172,-31.258,-6.642,-15.238,-91.429,12.503,3.907,-12.894,15.238,12.112,-6.642
'[13:43:05.551 06/11/2076]',-5.079,-11.722,-7.033,-13.284,75.800,-67.595,-7.424,-38.291,50.794,-92.991,-12.112,-19.536,-15.238,-39.072,-4.689,-14.457,-104.322,14.066,7.814,-4.689,0.391,4.298,-4.689
'[13:43:05.555 06/11/2076]',-12.112,-10.940,-8.596,-21.099,61.734,-63.687,-9.377,-41.807,25.006,-92.991,-4.689,-16.801,-35.165,-37.900,-1.563,-14.847,-109.011,10.940,9.377,-3.126,-7.814,-1.954,-1.563
'[13:43:05.559 06/11/2076]',-18.364,-8.596,-11.331,-26.960,46.886,-58.608,-8.205,-46.496,0.781,-88.694,-0.391,-1.954,-44.151,-42.198,-0.391,-2.735,-109.402,10.549,12.112,0.391,-15.238,-8.987,-0.391
'[13:43:05.563 06/11/2076]',-25.397,-8.205,-11.722,-28.132,28.132,-54.310,-4.298,-44.151,-21.490,-80.488,3.516,-5.861,-57.045,-36.337,-0.781,-10.940,-106.667,9.377,12.503,0.781,-17.192,-13.675,-0.781
'[13:43:05.566 06/11/2076]',-29.304,-3.907,-12.112,-32.430,12.503,-47.668,-0.391,-41.807,-38.681,-67.595,5.861,-17.973,-69.548,-19.145,0.391,-30.867,-95.336,6.642,12.894,-4.298,-13.675,-15.629,0.391
'[13:43:05.570 06/11/2076]',-26.178,3.126,-9.768,-36.337,5.470,-34.774,3.126,-42.589,-44.933,-49.621,10.159,-2.735,-63.297,-7.814,2.735,-19.145,-76.972,8.596,10.549,-3.907,-17.582,-13.284,2.735
'[13:43:05.574 06/11/2076]',-18.364,8.205,-10.159,-33.211,3.126,-22.662,3.907,-39.072,-45.324,-29.695,16.410,10.940,-48.840,-1.172,2.735,-0.781,-58.608,13.284,10.940,-0.391,-21.880,-10.159,2.735
'[13:43:05.578 06/11/2076]',-16.020,16.020,-11.331,-30.085,-0.781,-12.894,3.126,-29.695,-49.621,-7.424,17.192,-7.424,-55.092,23.053,6.252,-22.662,-41.807,12.112,12.112,-9.377,-20.708,-4.689,6.252
'[13:43:05.582 06/11/2076]',-9.768,22.271,-11.331,-28.523,-1.954,-4.689,1.172,-20.708,-46.496,10.940,18.364,-17.192,-54.701,44.542,10.940,-35.556,-24.615,14.847,12.112,-16.410,-21.490,1.172,10.940
'[13:43:05.586 06/11/2076]',5.079,21.099,-12.503,-27.350,5.861,1.954,0.781,-22.662,-32.821,28.913,19.927,-6.252,-22.271,37.118,9.768,-15.238,-10.549,25.006,13.284,-3.516,-29.695,0.781,9.768
'[13:43:05.590 06/11/2076]',21.099,17.582,-9.768,-25.006,15.238,5.861,2.344,-20.317,-19.927,42.589,19.927,-1.954,4.689,32.821,8.987,-6.252,-0.781,29.695,10.549,6.252,-33.211,0.000,8.987
'[13:43:05.594 06/11/2076]',28.132,20.317,-6.642,-22.662,20.317,6.642,0.000,-7.424,-9.377,50.012,13.284,-8.987,8.987,46.105,9.768,-20.317,8.205,22.271,7.424,-3.516,-26.569,7.033,9.768
'[13:43:05.598 06/11/2076]',35.946,23.443,-1.172,-19.536,27.741,8.596,1.172,0.391,3.516,55.873,8.205,-8.987,21.490,53.529,7.424,-23.834,20.317,18.364,1.954,-10.940,-16.020,14.847,7.424
'[13:43:05.602 06/11/2076]',37.509,19.927,3.126,-5.470,30.476,3.907,10.159,10.159,14.066,63.687,0.391,-2.735,40.244,50.794,-0.781,-14.457,32.039,19.536,-2.344,-9.377,-1.172,17.582,-0.781
'[13:43:05.605 06/11/2076]',31.648,22.271,9.768,-1.563,27.350,3.907,17.192,14.066,19.145,66.032,-1.172,-21.880,35.946,64.078,-5.470,-33.602,39.072,16.801,-8.987,-19.927,14.847,25.006,-5.470
'[13:43:05.609 06/11/2076]',31.258,23.443,17.192,-6.642,29.695,8.987,20.708,7.033,28.132,62.906,-1.172,-30.476,41.026,64.860,-7.424,-38.291,40.244,17.973,-16.410,-18.755,23.834,25.397,-7.424
'[13:43:05.613 06/11/2076]',31.648,17.973,21.490,-3.516,35.165,8.205,20.708,3.516,33.993,53.529,1.172,-31.648,50.012,48.840,-10.549,-30.867,31.648,21.099,-20.708,-3.516,22.271,18.755,-10.549
'[13:43:05.617 06/11/2076]',25.788,14.847,24.225,-0.391,37.118,3.907,20.708,3.126,32.821,42.979,4.689,-41.807,45.324,42.589,-10.549,-36.728,21.490,17.582,-23.443,3.516,26.569,13.675,-10.549
'[13:43:05.621 06/11/2076]',20.317,12.112,26.960,-1.172,39.853,-1.954,18.364,3.516,32.430,30.085,2.735,-32.430,40.635,32.039,-10.159,-28.132,10.159,10.940,-26.178,5.861,29.695,12.503,-10.159
'[13:43:05.625 06/11/2076]',14.066,7.424,26.178,2.735,40.635,-9.768,13.675,7.814,26.178,16.801,0.391,-14.847,35.556,17.582,-12.503,-10.159,-1.563,4.689,-25.397,9.768,30.476,10.940,-12.503
'[13:43:05.629 06/11/2076]',2.735,6.642,24.615,3.907,34.774,-18.755,11.331,12.112,12.112,5.079,1.172,-26.960,15.629,14.847,-11.722,-26.569,-14.457,0.781,-23.834,5.861,33.211,11.331,-11.722
'[13:43:05.633 06/11/2076]',-8.987,8.987,24.225,-2.344,25.397,-24.225,5.861,15.629,-7.033,-3.907,0.391,-36.337,-7.033,14.066,-10.940,-43.761,-28.132,-1.563,-23.443,1.172,31.648,10.159,-10.940
'[13:43:05.637 06/11/2076]',-13.284,7.814,24.225,-8.596,18.755,-28.132,2.344,16.410,-25.397,-8.987,0.781,-14.066,-12.503,1.954,-12.112,-26.178,-36.337,-1.563,-23.443,7.424,23.443,5.470,-12.112
'[13:43:05.641 06/11/2076]',-17.192,6.642,23.053,-10.940,10.940,-34.383,2.344,21.099,-47.668,-8.596,4.689,3.126,-14.847,-6.252,-13.675,-12.503,-37.900,-1.954,-22.271,13.284,20.708,0.000,-13.675
'[13:43:05.645 06/11/2076]',-26.569,9.768,23.834,-17.582,-2.735,-36.337,0.391,29.304,-74.237,-5.861,8.596,-10.159,-38.291,4.298,-11.722,-35.946,-37.118,-11.331,-23.053,7.814,21.490,-2.344,-11.722
'[13:43:05.648 06/11/2076]',-26.178,11.331,23.443,-22.662,-12.112,-31.648,-2.735,33.211,-94.164,0.391,12.894,-12.894,-50.794,10.549,-10.940,-42.589,-30.085,-16.020,-22.662,5.861,16.801,-4.689,-10.940
'[13:43:05.652 06/11/2076]',-22.271,5.861,20.317,-17.973,-18.364,-28.913,-0.391,34.383,-104.713,11.331,14.847,0.391,-42.198,4.298,-12.112,-26.569,-19.145,-12.112,-19.536,17.973,7.814,-10.940,-12.112
'[13:43:05.656 06/11/2076]',-19.927,1.954,17.582,-16.020,-23.834,-26.960,-0.391,35.946,-109.011,26.569,15.629,0.391,-37.509,9.768,-10.940,-26.960,-10.159,-10.549,-16.801,20.317,5.470,-10.549,-10.940
'[13:43:05.660 06/11/2076]',-17.973,2.735,13.675,-15.629,-27.350,-24.225,-3.907,39.463,-106.276,39.853,12.503,-4.689,-39.853,29.695,-6.252,-41.026,0.391,-11.722,-12.894,8.596,7.424,-1.563,-6.252
'[13:43:05.664 06/11/2076]',-17.582,0.391,10.159,-7.424,-27.741,-29.304,-2.344,45.714,-97.680,51.966,7.424,-5.079,-39.463,51.966,-3.126,-51.966,12.894,-9.768,-9.377,-2.344,16.410,6.642,-3.126
'[13:43:05.668 06/11/2076]',-11.722,-0.781,8.596,-7.033,-18.364,-30.085,0.000,37.900,-82.051,63.297,11.722,-9.768,-23.053,55.482,-1.172,-47.277,24.615,-6.642,-7.814,1.563,13.284,7.814,-1.172
'[13:43:05.672 06/11/2076]',-4.689,-0.391,7.424,-10.940,-2.735,-25.006,-4.298,24.615,-60.562,67.985,16.410,-23.834,-12.112,58.999,0.781,-47.668,33.211,-8.205,-6.642,6.252,3.907,10.159,0.781
'[13:43:05.676 06/11/2076]',6.252,-3.907,6.252,-9.377,17.192,-21.099,-12.894,16.801,-39.072,66.032,14.457,-15.238,0.000,48.449,3.907,-27.350,35.946,-14.066,-5.470,13.675,-13.284,8.596,3.907
'[13:43:05.680 06/11/2076]',16.020,-4.298,7.424,-10.940,36.728,-17.192,-15.629,5.079,-16.410,64.469,13.284,-22.271,14.066,38.291,5.079,-18.364,39.853,-15.629,-6.642,17.192,-24.615,8.596,5.079
'[13:43:05.684 06/11/2076]',23.053,-1.563,7.814,-11.331,55.092,-15.629,-17.582,-2.344,3.907,62.515,10.940,-36.728,20.317,35.556,6.642,-21.490,41.026,-15.629,-7.033,10.940,-29.695,12.503,6.642
'[13:43:05.688 06/11/2076]',28.523,0.391,10.940,-11.331,72.283,-18.364,-15.629,-8.205,22.271,59.389,5.079,-29.695,27.741,30.476,6.642,-7.814,39.072,-16.410,-10.159,1.172,-26.178,16.801,6.642
'[13:43:05.691 06/11/2076]',30.476,1.563,15.238,-12.894,86.740,-19.536,-12.112,-17.973,36.728,55.873,1.172,-25.397,37.509,20.317,5.079,5.861,33.993,-14.457,-14.457,-3.516,-20.317,19.145,5.079
'[13:43:05.695 06/11/2076]',25.788,3.907,17.192,-15.238,93.382,-22.271,-10.549,-25.788,44.542,48.059,-0.391,-53.529,29.695,18.755,5.079,-15.629,24.615,-15.629,-16.410,-9.377,-13.284,21.880,5.079
'[13:43:05.699 06/11/2076]',19.145,4.689,16.020,-18.364,96.899,-27.350,-13.284,-31.258,45.714,35.946,-5.079,-70.720,15.629,17.582,5.861,-33.602,9.377,-19.536,-15.238,-14.847,-9.377,22.662,5.861
'[13:43:05.703 06/11/2076]',17.192,1.563,16.801,-23.053,98.071,-31.258,-12.112,-39.853,44.933,23.053,-10.549,-51.575,20.317,-0.781,2.344,-15.629,-1.954,-17.582,-16.020,-9.768,-8.987,19.145,2.344
'[13:43:05.707 06/11/2076]',14.457,0.391,14.847,-28.523,94.945,-33.211,-9.768,-48.840,42.979,10.940,-9.768,-48.059,25.397,-13.675,-3.907,-10.549,-11.331,-13.284,-14.066,-5.861,-8.987,16.410,-3.907
'[13:43:05.711 06/11/2076]',7.033,2.735,9.768,-35.165,84.396,-35.946,-12.503,-48.449,31.258,-2.344,-7.814,-63.297,7.424,-10.549,-4.689,-34.383,-26.960,-13.675,-8.987,-13.284,-6.642,16.410,-4.689
'[13:43:05.715 06/11/2076]',0.391,3.126,3.516,-37.509,69.548,-38.681,-15.238,-43.370,15.629,-17.192,-7.814,-61.343,-5.861,-11.722,-7.424,-44.933,-39.463,-12.112,-2.735,-18.364,-5.470,14.457,-7.424
'[13:43:05.719 06/11/2076]',-8.596,-1.954,0.391,-35.946,48.449,-44.542,-10.549,-39.463,-0.391,-24.225,-6.252,-52.747,-5.861,-24.225,-13.675,-40.635,-48.840,-6.642,0.391,-6.642,-5.861,7.424,-13.675
'[13:43:05.723 06/11/2076]',-17.582,-5.470,-3.516,-38.291,25.006,-50.012,-8.205,-32.430,-25.006,-29.304,-5.470,-51.184,-18.755,-25.397,-18.364,-48.449,-57.827,-6.642,4.298,-5.861,-3.516,4.298,-18.364
'[13:43:05.727 06/11/2076]',-29.695,-7.814,-5.079,-39.853,-2.735,-58.217,-11.722,-9.768,-54.310,-37.509,-13.675,-42.589,-48.840,-10.549,-20.708,-67.595,-63.297,-17.582,5.861,-17.582,4.689,3.907,-20.708
'[13:43:05.730 06/11/2076]',-30.476,-12.503,-5.861,-44.933,-18.364,-60.562,-10.940,-3.516,-71.893,-32.430,-13.284,-32.039,-52.357,-10.549,-24.225,-63.687,-60.952,-18.755,6.642,-13.675,0.391,0.391,-24.225
'[13:43:05.734 06/11/2076]',-28.132,-11.722,-8.987,-51.966,-29.304,-56.654,-9.768,-5.079,-83.614,-21.880,-5.470,-44.151,-54.701,-4.689,-26.178,-69.158,-52.747,-19.145,9.768,-2.344,-15.238,-5.861,-26.178
'[13:43:05.738 06/11/2076]',-22.271,-14.457,-16.410,-48.449,-35.165,-47.277,-19.927,1.172,-88.694,-13.284,-1.172,-35.556,-54.310,-1.172,-22.271,-58.999,-46.105,-23.053,17.192,7.814,-35.556,-11.331,-22.271
'[13:43:05.742 06/11/2076]',-16.801,-17.973,-21.490,-44.542,-38.291,-39.463,-25.006,2.344,-84.786,-0.391,1.954,-19.536,-42.979,1.172,-16.801,-42.979,-32.821,-23.443,22.271,17.973,-49.621,-12.112,-16.801
'[13:43:05.746 06/11/2076]',-13.284,-19.536,-22.662,-39.853,-42.198,-31.648,-24.615,2.344,-79.316,14.847,6.642,-25.006,-35.556,11.722,-9.768,-46.886,-18.364,-21.099,23.443,25.397,-58.608,-10.940,-9.768
'[13:43:05.750 06/11/2076]',-10.549,-18.755,-23.443,-32.430,-46.496,-24.225,-24.615,9.377,-74.628,28.913,8.596,-30.476,-33.993,28.132,-5.079,-55.092,-3.516,-19.927,24.225,23.053,-58.999,-7.033,-5.079
'[13:43:05.754 06/11/2076]',-3.907,-19.536,-19.145,-29.304,-44.151,-17.192,-20.708,11.331,-63.297,45.324,6.642,-15.238,-18.755,36.337,-1.954,-41.416,10.549,-16.410,19.927,22.271,-55.092,-1.563,-1.954
'[13:43:05.758 06/11/2076]',5.861,-18.364,-17.192,-26.178,-38.291,-9.377,-16.801,9.377,-46.886,58.608,7.033,-9.377,1.563,37.509,-2.344,-26.960,23.443,-9.768,17.973,25.006,-55.092,1.954,-2.344
'[13:43:05.762 06/11/2076]',7.814,-12.112,-16.020,-21.099,-35.556,-1.954,-13.675,10.549,-31.258,61.734,6.642,-31.258,5.861,47.277,-3.126,-42.979,31.258,-11.331,16.801,18.364,-48.449,5.470,-3.126
'[13:43:05.766 06/11/2076]',9.768,-8.596,-14.457,-13.675,-33.211,2.735,-10.549,13.675,-14.457,61.734,3.126,-41.026,9.377,56.654,-2.735,-52.357,35.556,-9.768,15.238,9.377,-40.635,12.894,-2.735
'[13:43:05.770 06/11/2076]',15.629,-7.814,-12.894,-10.940,-24.225,8.205,-4.689,5.079,5.470,59.780,0.781,-26.960,33.211,44.151,-6.252,-30.085,41.416,-1.954,13.675,15.629,-37.118,12.894,-6.252
'[13:43:05.773 06/11/2076]',20.708,-6.252,-11.331,-9.377,-15.629,14.066,-1.172,-4.298,21.880,55.873,0.000,-26.960,48.059,34.383,-11.722,-18.755,42.589,0.391,12.112,19.927,-36.728,13.284,-11.722
'[13:43:05.777 06/11/2076]',19.536,-2.735,-10.940,-7.033,-12.894,18.755,-4.689,-1.563,30.085,47.668,-5.470,-35.946,40.244,39.463,-12.112,-30.867,36.337,-3.516,11.722,8.596,-27.741,19.145,-12.112
'[13:43:05.781 06/11/2076]',19.927,-2.344,-9.768,-7.424,-7.814,17.582,-6.642,-1.954,37.118,37.118,-13.284,-35.165,37.509,37.118,-13.675,-33.993,29.695,-1.954,10.549,1.954,-18.364,21.099,-13.675
'[13:43:05.785 06/11/2076]',17.582,-5.470,-8.205,-6.642,-5.861,10.549,-1.954,-6.252,42.979,26.569,-17.192,-36.337,42.589,23.834,-18.364,-30.867,21.490,0.781,8.987,7.033,-12.894,16.801,-18.364
'[13:43:05.789 06/11/2076]',8.205,-10.159,-7.814,-3.126,-12.112,-1.563,0.000,1.954,41.416,12.894,-25.788,-28.523,41.026,17.192,-25.397,-31.648,7.033,-1.172,8.596,1.954,2.344,16.410,-25.397
'[13:43:05.793 06/11/2076]',0.000,-9.377,-5.079,-10.940,-19.145,-10.159,-0.391,3.516,35.165,0.391,-28.913,-35.556,26.569,20.317,-26.569,-48.840,-1.954,-6.252,5.861,-7.033,12.894,17.582,-26.569
'[13:43:05.797 06/11/2076]',-3.126,-9.377,-7.424,-20.708,-26.178,-7.814,-4.298,-2.344,30.867,-10.549,-28.132,-36.728,28.523,5.079,-31.258,-46.496,-11.722,-4.298,8.205,0.000,7.033,10.549,-31.258
'[13:43:05.801 06/11/2076]',-7.814,-10.940,-15.238,-20.317,-37.509,-3.516,-12.503,-1.172,22.271,-22.271,-26.569,-37.900,22.662,-8.987,-37.118,-39.853,-26.178,-9.768,16.020,8.205,-5.470,2.735,-37.118
'[13:43:05.805 06/11/2076]',-10.549,-12.894,-21.099,-25.006,-47.668,0.781,-21.099,-2.344,14.457,-33.211,-28.523,-31.648,12.503,-20.708,-37.900,-32.430,-35.946,-17.582,21.880,10.549,-12.112,-2.735,-37.900
'[13:43:05.809 06/11/2076]',-10.549,-16.801,-28.913,-28.132,-55.873,2.344,-27.350,-5.470,6.642,-42.589,-32.039,-17.582,10.159,-39.853,-40.635,-14.847,-43.370,-24.225,29.695,17.973,-18.364,-11.722,-40.635
'[13:43:05.813 06/11/2076]',-12.503,-22.271,-36.337,-25.397,-61.734,-1.954,-32.430,-1.563,-3.516,-50.403,-35.165,-27.741,-0.781,-48.059,-41.807,-25.788,-50.012,-33.993,37.118,20.317,-17.582,-17.582,-41.807
'[13:43:05.816 06/11/2076]',-16.020,-22.662,-40.635,-24.615,-67.595,-4.689,-37.118,3.126,-15.629,-51.966,-37.900,-40.244,-15.629,-46.105,-38.291,-44.933,-54.701,-40.635,41.416,16.020,-12.112,-19.927,-38.291
'[13:43:05.820 06/11/2076]',-10.159,-23.053,-42.979,-24.615,-62.515,-3.516,-37.900,1.954,-21.099,-47.277,-35.946,-26.960,-13.675,-52.747,-34.774,-31.648,-52.747,-39.853,43.761,19.145,-10.159,-22.662,-34.774
'[13:43:05.824 06/11/2076]',-7.033,-24.615,-42.198,-19.927,-57.045,-0.781,-37.118,0.391,-22.662,-41.026,-33.211,-12.503,-6.252,-58.608,-30.867,-14.066,-49.621,-35.946,42.979,26.178,-10.159,-23.443,-30.867
'[13:43:05.828 06/11/2076]',-10.159,-21.490,-41.807,-16.410,-58.217,0.781,-37.509,2.735,-28.523,-37.509,-29.304,-29.695,-23.053,-42.979,-26.569,-32.821,-46.496,-39.072,42.589,18.755,-3.907,-19.927,-26.569
'[13:43:05.832 06/11/2076]',-11.331,-19.536,-42.979,-15.629,-56.264,2.735,-37.509,0.391,-30.867,-34.383,-24.615,-40.635,-33.602,-30.867,-21.099,-44.542,-39.463,-41.416,43.761,14.457,0.391,-16.801,-21.099
'[13:43:05.836 06/11/2076]',-5.079,-21.099,-43.761,-12.894,-47.277,5.861,-34.774,-8.205,-24.615,-24.615,-20.317,-30.085,-17.192,-35.165,-22.271,-24.225,-26.960,-35.165,44.542,26.569,-3.126,-18.755,-22.271
'[13:43:05.840 06/11/2076]',0.000,-24.225,-46.496,-7.814,-37.900,8.205,-35.556,-13.675,-18.364,-15.238,-17.973,-27.741,-6.252,-33.993,-23.834,-14.847,-19.927,-33.993,47.277,32.821,-6.252,-17.582,-23.834
'[13:43:05.844 06/11/2076]',0.391,-23.834,-46.105,0.391,-31.648,7.424,-38.291,-6.642,-12.894,-6.642,-20.708,-31.258,-11.722,-14.457,-19.536,-24.615,-14.066,-39.072,46.886,20.708,-1.172,-7.814,-19.536
'[13:43:05.848 06/11/2076]',3.126,-22.662,-41.026,5.079,-19.536,5.861,-31.648,-10.159,-0.781,5.470,-22.662,-30.867,-7.814,-1.563,-16.020,-23.443,-7.814,-32.821,41.807,12.503,4.689,0.781,-16.020
'[13:43:05.852 06/11/2076]',2.344,-22.662,-34.774,17.192,-11.722,3.907,-17.973,-12.112,12.112,16.410,-22.662,-22.662,4.298,2.344,-14.847,-8.205,-2.344,-18.364,35.556,11.331,9.377,5.079,-14.847
'[13:43:05.855 06/11/2076]',1.172,-16.410,-25.788,16.801,-5.861,7.033,-10.159,-16.020,21.099,22.271,-18.755,-38.681,0.781,17.973,-10.549,-21.490,1.563,-12.503,26.569,-0.391,14.457,12.894,-10.549
'[13:43:05.859 06/11/2076]',8.205,-5.079,-18.364,4.298,7.033,15.629,-5.079,-28.913,32.821,24.225,-12.894,-42.979,5.079,24.225,-4.689,-23.053,9.377,-7.424,19.145,-7.424,14.847,16.410,-4.689
'[13:43:05.863 06/11/2076]',18.364,1.954,-17.192,-1.563,21.099,24.615,-8.205,-35.165,40.244,17.973,-9.377,-41.807,13.675,15.238,-7.814,-14.457,10.159,-4.298,17.973,-2.344,0.781,12.503,-7.814
'[13:43:05.867 06/11/2076]',23.834,9.377,-16.020,-9.768,27.741,25.788,-10.159,-36.337,38.681,9.377,-9.377,-50.794,10.159,16.410,-12.894,-24.225,7.033,-9.377,16.801,-6.252,-2.344,12.112,-12.894
'[13:43:05.871 06/11/2076]',29.304,15.629,-16.801,-17.192,34.383,22.271,-11.722,-34.774,38.681,-1.172,-12.503,-35.946,10.549,13.284,-18.755,-16.410,2.344,-14.066,17.582,-11.722,-2.344,12.503,-18.755
'[13:43:05.875 06/11/2076]',31.648,18.364,-15.629,-18.755,34.774,16.410,-9.768,-26.178,36.337,-10.940,-16.020,-12.503,17.582,3.126,-26.178,1.172,-4.689,-14.457,16.410,-10.940,-1.954,9.377,-26.178
'[13:43:05.879 06/11/2076]',28.913,23.053,-14.066,-20.708,26.960,10.940,-6.642,-14.066,28.523,-19.927,-17.192,-20.708,11.722,3.516,-29.695,-14.847,-12.112,-16.410,14.847,-14.066,1.172,5.470,-29.695
'[13:43:05.883 06/11/2076]',25.006,28.523,-15.238,-25.788,16.410,9.768,-8.205,-5.861,20.317,-25.788,-17.192,-26.569,6.642,1.563,-28.523,-28.913,-13.284,-20.317,16.020,-17.973,3.516,1.563,-28.523
'[13:43:05.887 06/11/2076]',27.350,27.350,-16.020,-27.350,9.377,12.112,-10.549,0.000,14.847,-28.132,-17.582,-3.126,19.145,-13.675,-29.304,-9.768,-8.205,-23.834,16.801,-10.159,2.735,-4.689,-29.304
'[13:43:05.891 06/11/2076]',27.741,24.615,-19.145,-25.788,1.563,13.284,-12.503,4.298,8.205,-28.132,-17.973,6.252,29.304,-26.178,-32.430,-1.172,-5.861,-25.006,19.927,-1.954,5.470,-10.940,-32.430
'[13:43:05.895 06/11/2076]',22.662,25.006,-25.397,-22.662,-8.205,14.066,-16.020,10.159,-2.344,-26.960,-15.629,-11.331,15.629,-17.192,-30.476,-24.615,-5.470,-30.867,26.178,-7.033,12.112,-8.987,-30.476
'[13:43:05.898 06/11/2076]',23.834,21.490,-28.913,-17.192,-14.066,17.192,-19.536,16.020,-8.987,-25.397,-13.284,-14.457,8.205,-12.112,-29.304,-29.695,-6.252,-31.648,29.695,-6.252,15.629,-8.987,-29.304
'[13:43:05.902 06/11/2076]',27.350,15.238,-35.165,-5.079,-16.020,17.973,-19.145,19.536,-13.675,-20.708,-11.331,-2.344,14.847,-19.927,-31.258,-12.894,-7.424,-23.053,35.946,9.377,10.940,-14.847,-31.258
'[13:43:05.906 06/11/2076]',26.960,9.768,-38.291,0.391,-21.490,18.364,-17.582,19.927,-21.880,-12.503,-10.940,-1.563,11.331,-19.536,-30.476,-8.987,-7.033,-21.490,39.072,14.066,12.894,-16.801,-30.476
'[13:43:05.910 06/11/2076]',23.053,7.814,-38.291,3.516,-26.960,20.708,-21.099,23.443,-31.648,-3.126,-15.238,-4.298,-5.470,-3.126,-26.178,-20.317,-1.563,-26.178,39.072,5.079,19.927,-8.987,-26.178
'[13:43:05.914 06/11/2076]',15.629,5.861,-38.291,9.768,-33.211,16.020,-19.145,30.476,-43.370,8.987,-20.708,-9.377,-20.708,14.457,-22.271,-35.946,5.861,-26.569,39.072,-5.470,37.900,-3.516,-22.271
'[13:43:05.918 06/11/2076]',10.940,4.689,-35.165,12.894,-34.383,16.020,-9.377,22.271,-44.542,24.225,-15.629,-19.145,-16.801,21.099,-19.927,-39.072,17.973,-21.880,35.946,-0.781,44.542,-1.172,-19.927
'[13:43:05.922 06/11/2076]',9.377,8.596,-31.258,12.503,-30.085,23.834,-6.642,12.894,-39.463,37.118,-7.424,-32.821,-15.238,30.867,-16.410,-42.979,29.304,-19.536,32.039,1.563,43.370,1.172,-16.410
'[13:43:05.926 06/11/2076]',15.238,8.205,-31.648,17.973,-20.317,33.993,-11.331,9.377,-31.258,40.635,-1.563,-27.350,-5.470,27.350,-13.284,-27.741,36.337,-18.755,32.430,8.205,33.211,0.781,-13.284
'[13:43:05.930 06/11/2076]',14.847,10.549,-28.913,20.708,-14.457,42.198,-10.549,1.172,-21.099,45.324,3.126,-30.085,5.470,22.662,-10.549,-20.317,45.324,-14.457,29.695,14.847,25.006,-1.563,-10.549
'[13:43:05.934 06/11/2076]',14.066,13.675,-25.788,22.662,-10.159,48.449,-10.159,-1.954,-13.284,45.324,3.907,-37.509,7.033,23.834,-8.596,-23.053,48.449,-12.894,26.569,10.940,22.271,-0.781,-8.596
'[13:43:05.938 06/11/2076]',12.112,14.457,-19.145,18.755,-7.814,50.794,-8.596,-5.861,-3.907,42.979,0.781,-24.615,14.457,20.317,-7.033,-11.722,48.059,-11.722,19.927,4.689,25.788,0.391,-7.033
'[13:43:05.941 06/11/2076]',6.642,15.238,-11.722,14.847,-9.377,49.231,-2.735,-11.722,5.861,40.244,-1.563,-12.894,27.741,14.847,-7.814,-1.563,46.886,-8.987,12.503,4.298,32.039,0.781,-7.814
'[13:43:05.945 06/11/2076]',0.781,19.145,-8.205,8.987,-13.284,48.840,0.391,-14.457,15.629,33.602,-2.735,-35.556,30.085,19.145,-8.596,-29.695,41.026,-11.722,8.987,-1.563,37.509,3.126,-8.596
'[13:43:05.949 06/11/2076]',-3.516,24.615,-6.642,0.781,-18.755,50.794,-1.563,-14.847,24.615,25.006,-5.470,-49.231,30.476,25.006,-10.940,-48.449,37.118,-17.192,7.424,-8.205,38.681,6.252,-10.940
'[13:43:05.953 06/11/2076]',-1.563,25.006,-4.689,-3.126,-21.490,52.747,-0.781,-15.238,34.383,17.192,-10.549,-23.443,46.496,14.457,-14.847,-28.132,35.556,-16.020,5.470,-1.954,34.774,4.689,-14.847
'[13:43:05.957 06/11/2076]',0.781,27.741,-1.954,-8.987,-25.397,58.217,0.391,-15.629,43.370,8.987,-14.066,-10.159,59.780,5.079,-20.708,-16.020,33.993,-16.801,2.735,2.344,29.304,3.516,-20.708
'[13:43:05.961 06/11/2076]',1.954,32.821,0.781,-14.847,-31.648,63.687,-2.735,-7.424,45.714,-2.735,-16.410,-17.973,46.886,13.675,-22.662,-29.695,28.523,-23.053,0.000,-4.689,27.741,3.907,-22.662
'[13:43:05.965 06/11/2076]',5.470,32.039,0.781,-13.284,-35.165,63.687,-5.470,1.563,44.542,-11.722,-20.317,-13.284,39.072,16.020,-23.053,-33.211,22.271,-25.397,0.000,-7.033,25.397,4.689,-23.053
'[13:43:05.969 06/11/2076]',11.722,25.788,1.172,-8.596,-33.211,60.171,-1.563,5.079,47.668,-13.675,-21.880,-5.470,50.403,7.424,-26.178,-25.397,19.536,-21.490,-0.391,0.781,27.741,2.735,-26.178
'[13:43:05.973 06/11/2076]',16.020,23.053,0.000,-6.252,-28.132,55.482,-1.172,6.642,48.059,-14.066,-21.880,-9.377,51.966,8.205,-26.569,-31.648,16.410,-23.053,0.781,-1.954,36.728,5.079,-26.569
'[13:43:05.977 06/11/2076]',14.457,20.317,-1.954,-1.954,-21.880,44.933,-7.033,16.020,43.370,-16.801,-29.304,-11.331,35.946,19.145,-20.317,-49.231,12.503,-30.085,2.735,-16.410,53.919,12.112,-20.317
'[13:43:05.980 06/11/2076]',16.020,19.145,-0.781,-3.516,-11.331,39.853,-5.470,7.814,45.714,-17.973,-30.476,-4.689,42.589,11.331,-18.364,-42.589,13.675,-26.569,1.563,-16.801,62.125,13.675,-18.364
'[13:43:05.984 06/11/2076]',17.192,18.364,-1.172,-7.424,0.391,42.589,-6.642,-8.205,48.059,-20.317,-24.225,-24.615,41.416,0.781,-17.973,-46.105,11.722,-24.225,1.954,-7.033,57.827,7.424,-17.973
'[13:43:05.988 06/11/2076]',17.192,12.894,-4.689,-2.735,12.112,42.589,-17.192,-15.238,47.277,-27.350,-21.490,-29.304,34.383,-12.894,-15.629,-36.728,5.079,-28.132,5.470,0.391,46.886,3.907,-15.629
'[13:43:05.992 06/11/2076]',16.020,3.907,-5.079,-1.954,21.490,39.853,-24.225,-25.006,48.449,-31.648,-21.099,-22.662,35.165,-28.523,-14.066,-19.536,3.126,-31.258,5.861,7.814,42.198,0.391,-14.066
'[13:43:05.996 06/11/2076]',9.377,-5.861,-7.033,0.781,26.569,33.993,-28.913,-34.383,42.979,-32.821,-17.582,-37.509,25.397,-35.165,-10.940,-23.053,2.344,-34.774,7.814,13.675,39.072,-2.735,-10.940
'[13:43:06.000 06/11/2076]',0.391,-12.112,-8.596,3.516,28.523,25.788,-32.430,-39.463,31.648,-28.913,-13.284,-50.794,4.298,-30.476,-3.126,-31.258,0.781,-35.556,9.377,7.424,39.853,0.391,-3.126
'[13:43:06.004 06/11/2076]',-8.205,-15.629,-3.516,1.954,32.039,19.927,-29.304,-48.449,22.662,-17.973,-6.642,-37.900,-6.642,-24.615,6.252,-15.238,5.079,-32.039,4.298,3.126,42.589,3.907,6.252
'[13:43:06.008 06/11/2076]',-16.410,-12.894,0.000,3.516,36.728,18.755,-20.708,-60.171,12.503,-3.516,2.344,-30.867,-13.284,-21.490,16.410,0.391,10.549,-25.006,0.781,2.344,37.509,6.642,16.410
'[13:43:06.012 06/11/2076]',-26.960,-6.642,6.252,7.424,35.165,19.927,-13.284,-62.125,-1.954,11.331,14.066,-53.919,-38.291,-0.391,28.132,-20.317,12.112,-20.708,-5.470,-7.814,37.118,12.112,28.132
'[13:43:06.016 06/11/2076]',-37.118,0.781,11.331,8.596,30.476,19.536,-4.298,-60.171,-14.066,24.615,20.317,-61.343,-57.436,19.927,39.853,-32.821,15.238,-16.410,-10.549,-19.927,33.211,19.145,39.853
'[13:43:06.020 06/11/2076]',-38.291,7.033,15.629,4.689,26.960,21.880,5.470,-64.860,-17.582,34.774,23.834,-42.198,-45.714,16.020,43.370,-14.066,21.099,-6.252,-14.847,-13.675,22.271,14.457,43.370
'[13:43:06.023 06/11/2076]',-36.728,12.894,16.801,-3.907,18.755,26.569,10.549,-66.813,-21.099,39.072,29.695,-34.383,-37.509,14.847,41.807,-6.252,21.099,3.907,-16.020,-8.596,9.768,9.768,41.807
'[13:43:06.027 06/11/2076]',-39.463,23.053,14.847,-14.847,1.172,28.523,8.987,-55.482,-30.085,35.946,29.304,-33.602,-44.151,26.960,39.853,-20.708,16.410,4.689,-14.066,-19.145,1.954,10.159,39.853
'[13:43:06.031 06/11/2076]',-37.118,31.648,14.457,-26.178,-11.722,27.741,11.331,-43.761,-36.337,31.648,26.960,-25.006,-40.244,33.602,33.993,-30.085,15.629,7.033,-13.675,-23.834,0.781,7.424,33.993
'[13:43:06.035 06/11/2076]',-29.304,35.946,12.503,-31.258,-23.834,27.350,17.973,-33.602,-38.291,30.867,25.006,-18.755,-21.880,30.867,23.443,-32.821,16.020,12.112,-11.722,-17.582,2.344,0.781,23.443
'[13:43:06.039 06/11/2076]',-23.834,36.728,11.331,-31.258,-35.165,23.443,21.099,-15.238,-37.900,30.867,13.284,-6.642,-6.642,33.993,13.284,-41.807,17.973,3.516,-10.549,-19.145,12.503,1.172,13.284
'[13:43:06.043 06/11/2076]',-14.066,42.589,11.722,-42.589,-38.681,23.443,20.708,-8.205,-31.258,27.741,3.907,-8.987,2.344,43.370,9.768,-63.687,24.615,-5.861,-10.940,-23.053,22.662,2.344,9.768
'[13:43:06.047 06/11/2076]',3.516,43.761,5.470,-53.529,-30.476,29.695,13.675,-14.066,-16.410,21.490,0.000,-10.159,27.350,33.993,2.735,-69.548,28.523,-8.205,-4.689,-10.549,17.582,-1.563,2.735
'[13:43:06.051 06/11/2076]',16.801,38.291,-3.907,-53.919,-21.880,34.383,2.344,-17.192,-5.079,12.894,-2.344,-18.364,41.026,26.178,-3.907,-76.190,25.397,-14.847,4.689,2.344,8.596,-2.344,-3.907
'[13:43:06.055 06/11/2076]',26.178,32.039,-13.675,-57.436,-12.112,35.946,-9.377,-26.960,4.298,8.205,-6.642,-23.834,48.449,23.443,-8.205,-80.098,24.615,-20.708,14.457,6.252,8.596,0.391,-8.205
'[13:43:06.059 06/11/2076]',35.165,22.271,-23.053,-55.873,0.781,36.337,-19.927,-38.291,18.755,5.470,-13.284,-19.145,61.734,13.675,-13.675,-69.548,27.741,-27.350,23.834,12.894,10.940,1.563,-13.675
'[13:43:06.063 06/11/2076]',37.118,10.940,-31.258,-48.840,11.331,33.211,-28.523,-48.449,31.258,4.298,-24.225,-39.072,63.297,8.596,-19.927,-80.488,30.867,-39.463,32.039,17.582,18.364,3.126,-19.927
'[13:43:06.066 06/11/2076]',35.556,2.344,-38.681,-45.714,19.927,29.695,-36.728,-59.389,44.933,5.079,-36.337,-60.952,58.608,8.987,-22.271,-93.382,37.509,-54.310,39.463,14.066,28.523,5.861,-22.271
'[13:43:06.070 06/11/2076]',39.072,-5.470,-42.198,-44.933,37.900,28.132,-43.370,-76.190,64.078,3.516,-46.105,-50.794,69.158,-2.735,-26.569,-67.985,46.496,-61.734,42.979,17.582,34.383,7.424,-26.569
'[13:43:06.074 06/11/2076]',39.853,-15.629,-45.324,-37.900,54.310,24.225,-46.105,-92.210,76.972,1.954,-51.575,-44.933,77.363,-18.364,-31.258,-44.542,46.496,-62.906,46.105,24.615,38.681,7.814,-31.258
'[13:43:06.078 06/11/2076]',29.695,-21.099,-48.059,-28.523,61.343,18.364,-50.012,-98.071,78.144,-1.954,-53.919,-71.111,55.873,-11.722,-32.430,-60.562,41.807,-66.422,48.840,13.284,50.403,14.066,-32.430
'[13:43:06.082 06/11/2076]',19.927,-25.788,-46.105,-20.708,69.548,12.503,-51.184,-103.932,76.972,-8.205,-53.138,-87.521,35.556,-7.814,-30.085,-69.158,37.509,-64.078,46.886,3.907,62.515,20.317,-30.085
'[13:43:06.086 06/11/2076]',12.894,-32.821,-46.105,-12.894,78.535,6.252,-48.840,-116.435,73.846,-12.112,-48.840,-83.223,33.211,-23.443,-31.648,-48.449,33.211,-58.999,46.886,14.066,63.687,16.020,-31.648
'[13:43:06.090 06/11/2076]',3.126,-37.900,-43.761,-7.033,80.488,1.563,-49.231,-120.342,64.469,-17.973,-44.151,-81.270,20.317,-33.211,-32.821,-33.602,25.006,-57.436,44.542,17.582,60.952,12.894,-32.821
'[13:43:06.094 06/11/2076]',-8.205,-35.556,-42.979,-5.861,76.190,-3.126,-52.747,-114.090,48.059,-26.960,-42.589,-80.098,-10.940,-23.834,-30.085,-35.556,19.536,-64.860,43.761,2.344,61.343,15.238,-30.085
'[13:43:06.098 06/11/2076]',-20.317,-30.476,-41.026,-10.940,66.813,-8.596,-51.966,-110.965,31.258,-30.476,-41.807,-71.111,-32.821,-16.801,-29.695,-32.039,14.457,-65.641,41.807,-7.033,56.264,14.847,-29.695
'[13:43:06.102 06/11/2076]',-35.556,-30.476,-40.635,-6.642,46.105,-18.364,-41.807,-100.415,10.159,-26.960,-42.979,-52.357,-44.933,-15.629,-32.430,-18.755,7.033,-58.608,41.416,-5.861,48.059,8.987,-32.430
'[13:43:06.105 06/11/2076]',-50.012,-23.834,-41.026,-8.987,23.443,-21.490,-37.900,-88.694,-7.814,-26.569,-43.370,-54.310,-68.767,0.391,-30.085,-33.993,0.781,-58.999,41.807,-16.410,40.635,9.768,-30.085
'[13:43:06.109 06/11/2076]',-57.045,-19.145,-38.291,-19.927,4.689,-19.145,-35.165,-86.349,-19.927,-24.225,-38.681,-46.496,-76.190,8.205,-26.569,-35.556,-1.563,-57.827,39.072,-14.066,23.834,6.252,-26.569
'[13:43:06.113 06/11/2076]',-58.608,-19.536,-42.198,-21.099,-11.722,-13.284,-36.337,-80.488,-31.258,-25.397,-34.383,-33.211,-76.581,2.735,-26.178,-24.615,-7.424,-53.919,42.979,0.391,-4.298,-2.344,-26.178
'[13:43:06.117 06/11/2076]',-61.734,-16.020,-46.496,-21.880,-27.350,-6.642,-38.291,-75.018,-39.463,-26.178,-28.913,-32.430,-82.833,6.252,-26.178,-25.397,-9.768,-53.138,47.277,2.344,-23.053,-5.861,-26.178
'[13:43:06.121 06/11/2076]',-60.171,-12.112,-48.449,-23.834,-34.774,0.000,-38.291,-72.674,-39.463,-23.053,-25.397,-14.847,-77.363,7.424,-26.178,-7.424,-7.424,-51.184,49.231,2.735,-37.118,-7.424,-26.178
'[13:43:06.125 06/11/2076]',-56.654,-8.205,-50.012,-20.708,-36.337,4.689,-35.556,-68.767,-34.383,-17.582,-26.178,5.861,-66.032,3.126,-27.741,17.582,-3.907,-45.714,50.794,2.735,-46.105,-8.205,-27.741
'[13:43:06.129 06/11/2076]',-52.747,-1.954,-50.403,-15.238,-34.774,10.549,-32.821,-64.469,-25.788,-12.112,-26.569,-8.205,-64.078,7.424,-24.225,7.033,0.391,-42.198,51.184,-3.126,-47.277,-7.814,-24.225
'[13:43:06.133 06/11/2076]',-45.714,5.470,-50.012,-14.066,-28.523,17.192,-31.258,-62.125,-13.675,-8.987,-28.132,-21.099,-62.906,13.284,-20.317,-2.344,5.470,-38.681,50.794,-10.940,-49.621,-3.907,-20.317
'[13:43:06.137 06/11/2076]',-30.085,6.252,-46.496,-10.940,-15.629,24.615,-26.960,-64.078,1.172,-4.689,-29.304,-1.172,-41.416,1.172,-14.847,21.490,13.675,-30.867,47.277,-7.424,-54.310,-3.907,-14.847
'[13:43:06.141 06/11/2076]',-18.755,8.596,-43.370,-5.470,-4.689,31.258,-23.834,-62.906,15.629,0.391,-28.132,6.252,-21.880,-7.424,-9.768,33.993,22.271,-25.788,44.151,-4.689,-53.138,-1.563,-9.768
'[13:43:06.145 06/11/2076]',-15.238,15.238,-38.681,-4.298,1.563,36.728,-22.662,-60.562,25.788,4.689,-22.271,-16.020,-22.662,3.516,0.000,10.549,31.648,-26.569,39.463,-16.020,-42.979,5.861,0.000
'[13:43:06.148 06/11/2076]',-10.159,21.490,-32.039,-4.689,13.675,43.370,-22.662,-60.171,40.244,9.768,-17.582,-22.662,-14.847,9.768,8.205,5.470,40.244,-22.662,32.821,-24.225,-35.165,14.066,8.205
'[13:43:06.152 06/11/2076]',-2.344,21.880,-25.788,2.735,30.476,44.151,-18.755,-60.562,57.436,17.973,-12.894,-16.410,10.159,0.391,11.331,22.271,45.714,-8.596,26.569,-17.973,-28.913,17.582,11.331
'[13:43:06.156 06/11/2076]',3.126,20.708,-17.582,10.549,49.621,39.072,-12.503,-59.389,73.846,20.708,-6.252,-18.755,26.178,1.172,15.238,25.788,45.714,2.735,18.364,-22.662,-14.847,25.397,15.238
'[13:43:06.160 06/11/2076]',6.252,19.536,-10.549,17.192,66.032,30.085,-10.549,-52.747,84.786,13.284,-3.907,-18.364,25.397,9.768,21.490,18.364,38.681,11.722,11.331,-38.291,5.470,36.337,21.490
'[13:43:06.164 06/11/2076]',4.689,12.894,-3.907,30.085,75.800,11.722,-3.126,-41.026,89.475,3.126,-3.126,-13.675,23.053,14.847,25.006,11.331,26.178,25.788,4.689,-50.403,32.430,43.370,25.006
'[13:43:06.168 06/11/2076]',0.781,10.940,1.954,31.648,82.833,1.563,9.377,-48.449,92.601,-3.907,9.768,-29.695,24.225,15.238,25.397,2.735,18.755,42.198,-1.172,-47.668,48.059,41.416,25.397
'[13:43:06.172 06/11/2076]',-2.344,10.549,5.861,25.006,87.521,0.781,11.331,-60.171,89.475,-16.410,19.536,-36.728,15.238,12.112,27.741,0.000,5.470,52.747,-5.079,-43.370,48.840,37.118,27.741
'[13:43:06.176 06/11/2076]',-4.689,11.722,7.033,17.973,88.694,2.344,6.642,-65.250,76.972,-26.569,24.615,-23.053,5.079,3.126,28.132,14.457,-9.377,60.171,-6.252,-33.993,32.039,29.695,28.132
'[13:43:06.180 06/11/2076]',-9.377,16.020,10.549,10.549,80.488,4.689,10.940,-68.376,54.310,-27.350,32.430,-22.271,-8.987,0.781,29.695,15.238,-17.582,66.032,-9.768,-26.178,12.503,21.880,29.695
'[13:43:06.184 06/11/2076]',-17.973,19.927,14.066,4.298,61.343,5.079,14.847,-59.780,24.225,-26.569,37.118,-16.020,-33.993,7.814,35.165,8.987,-25.788,67.595,-13.284,-25.006,-5.470,16.410,35.165
'[13:43:06.188 06/11/2076]',-26.178,23.443,17.582,0.391,32.039,6.252,19.536,-42.979,-8.205,-21.099,38.291,15.238,-50.403,12.112,40.635,20.708,-29.304,67.595,-16.801,-25.006,-18.755,10.940,40.635
'[13:43:06.191 06/11/2076]',-32.821,26.569,19.536,-1.954,-1.563,10.549,28.523,-26.960,-37.900,-10.940,42.979,40.635,-55.482,17.973,40.635,30.867,-26.569,73.065,-18.755,-20.708,-29.304,6.642,40.635
'[13:43:06.195 06/11/2076]',-39.072,29.695,18.755,-7.424,-37.509,18.364,33.602,-12.503,-64.860,-1.954,46.886,32.821,-70.720,33.602,42.198,8.205,-21.490,72.283,-17.973,-17.973,-35.556,0.000,42.198
'[13:43:06.199 06/11/2076]',-37.509,32.039,14.066,-12.894,-66.032,27.350,31.258,1.563,-84.005,6.252,44.933,32.430,-77.363,46.496,34.774,-5.079,-15.238,68.376,-13.284,-16.410,-41.026,-3.516,34.774
'[13:43:06.203 06/11/2076]',-28.132,29.304,9.768,-17.582,-83.223,33.993,30.867,10.549,-91.038,19.145,38.681,57.045,-56.264,40.244,23.834,16.020,-0.391,68.767,-8.987,-1.563,-50.403,-10.549,23.834
'[13:43:06.207 06/11/2076]',-15.238,26.569,7.814,-23.443,-91.819,41.026,32.039,14.066,-89.084,33.211,34.774,61.734,-35.165,36.728,12.894,25.397,16.801,62.515,-7.033,13.284,-55.092,-15.238,12.894
'[13:43:06.211 06/11/2076]',-5.861,29.695,3.907,-26.960,-94.945,47.668,23.443,23.053,-84.005,40.635,30.085,39.853,-31.648,43.370,8.205,6.252,28.523,49.621,-3.126,12.112,-55.873,-15.238,8.205
'[13:43:06.215 06/11/2076]',5.861,27.741,0.391,-23.053,-87.521,49.621,14.066,33.211,-70.330,47.277,21.490,34.383,-21.099,44.933,5.861,3.126,41.026,38.681,0.391,12.894,-54.310,-14.066,5.861
'[13:43:06.219 06/11/2076]',19.536,21.099,-1.172,-12.503,-71.893,46.496,14.066,37.118,-48.840,54.701,16.801,31.648,3.907,37.118,1.954,12.112,53.919,34.383,1.954,23.053,-49.231,-14.457,1.954
'[13:43:06.223 06/11/2076]',32.430,14.066,-1.563,-1.954,-50.794,41.026,10.159,41.026,-23.443,60.171,11.331,23.053,20.708,38.681,0.781,10.159,62.515,25.788,2.344,22.271,-36.728,-10.159,0.781
'[13:43:06.227 06/11/2076]',39.463,7.814,-1.563,11.722,-25.397,28.132,1.563,52.747,2.344,62.515,-3.126,25.788,29.695,49.621,3.516,4.689,67.595,14.457,2.344,5.079,-10.940,1.954,3.516
'[13:43:06.230 06/11/2076]',47.277,3.907,2.735,16.801,4.689,19.927,2.735,44.933,30.476,65.250,-3.907,24.615,48.449,48.449,8.205,10.159,72.283,15.238,-1.954,3.126,5.079,9.768,8.205
'[13:43:06.234 06/11/2076]',55.092,2.344,8.596,22.662,39.072,16.801,4.298,28.132,60.952,62.515,4.298,5.079,64.078,42.198,16.020,10.549,69.158,19.927,-7.814,7.033,11.331,12.112,16.020
'[13:43:06.238 06/11/2076]',58.999,-1.172,10.549,33.993,74.628,11.722,-1.954,17.973,89.084,48.840,8.205,1.172,70.720,28.132,23.443,25.788,55.873,19.536,-9.768,6.642,13.675,16.801,23.443
'[13:43:06.242 06/11/2076]',56.264,-5.861,16.801,40.635,103.932,1.563,-2.735,5.861,115.653,30.476,10.549,3.516,77.753,11.331,29.695,41.807,43.761,18.755,-16.020,8.205,18.364,22.271,29.695
'[13:43:06.246 06/11/2076]',49.621,-10.940,20.708,46.886,124.249,-13.675,-2.344,-1.563,134.799,7.033,11.331,-14.847,74.237,-0.391,30.867,33.993,27.741,16.801,-19.927,7.033,26.178,27.741,30.867
'[13:43:06.250 06/11/2076]',36.337,-16.410,21.099,48.059,134.799,-33.993,-6.252,-4.689,145.348,-20.317,3.126,-28.913,60.171,-6.642,28.132,16.801,4.689,10.159,-20.317,-1.954,39.853,33.211,28.132
'[13:43:06.254 06/11/2076]',25.397,-21.880,19.927,41.416,140.659,-57.827,-8.205,-8.205,148.083,-47.668,-5.861,-15.238,53.138,-18.755,22.271,20.317,-19.536,6.642,-19.145,-6.252,50.012,35.946,22.271
'[13:43:06.258 06/11/2076]',14.847,-28.523,16.801,33.211,140.269,-84.005,-7.033,-10.940,137.924,-74.237,-10.940,-4.689,44.933,-35.946,14.066,22.662,-51.575,7.033,-16.020,-3.516,53.529,31.258,14.066
'[13:43:06.262 06/11/2076]',-1.172,-33.993,10.159,28.913,125.812,-108.230,-10.159,-3.516,114.090,-103.150,-16.410,-17.973,14.066,-38.291,6.252,-6.252,-90.256,2.735,-9.377,-6.252,56.264,26.178,6.252
'[13:43:06.266 06/11/2076]',-18.364,-40.244,2.344,27.741,102.759,-130.110,-11.722,10.159,86.349,-128.547,-23.053,-17.582,-14.066,-42.589,-1.563,-25.397,-121.514,-0.781,-1.563,-9.377,60.952,19.927,-1.563
'[13:43:06.270 06/11/2076]',-28.523,-48.059,-2.344,23.834,79.707,-142.613,-7.424,14.066,63.297,-146.129,-28.132,3.907,-17.192,-61.734,-11.331,-14.457,-142.613,0.000,3.126,5.470,56.654,7.033,-11.331
'[13:43:06.273 06/11/2076]',-39.463,-55.092,-8.205,19.536,49.621,-145.739,-5.861,17.192,41.416,-160.195,-32.039,14.457,-24.225,-75.800,-23.053,-12.503,-157.460,-2.344,8.987,21.490,47.277,-2.344,-23.053
'[13:43:06.277 06/11/2076]',-52.747,-55.482,-15.238,17.582,13.284,-141.832,-8.596,30.476,19.536,-168.010,-37.900,15.629,-46.496,-67.204,-27.741,-27.350,-164.103,-12.894,16.020,16.801,45.714,-3.907,-27.741
'[13:43:06.281 06/11/2076]',-62.125,-54.701,-18.755,12.894,-20.317,-135.580,-5.470,37.509,0.781,-165.275,-42.979,21.880,-58.608,-58.608,-32.430,-34.383,-161.758,-15.629,19.536,17.973,43.761,-5.079,-32.430
'[13:43:06.285 06/11/2076]',-71.111,-55.873,-21.099,13.284,-51.575,-128.547,3.126,41.416,-15.238,-151.990,-42.589,20.317,-59.389,-53.138,-39.463,-36.337,-154.335,-10.159,21.880,26.960,42.198,-8.987,-39.463
'[13:43:06.289 06/11/2076]',-82.442,-55.873,-22.271,19.536,-83.614,-123.077,11.331,53.529,-29.304,-133.626,-46.496,26.569,-62.906,-40.244,-42.979,-37.509,-143.394,-11.722,23.053,26.960,52.357,-7.814,-42.979
'[13:43:06.293 06/11/2076]',-86.740,-46.886,-19.536,15.629,-101.587,-111.355,16.410,56.654,-38.681,-116.435,-47.668,16.801,-72.674,-20.708,-39.463,-52.747,-124.249,-15.629,20.317,20.708,59.389,-4.689,-39.463
'[13:43:06.297 06/11/2076]',-80.879,-38.681,-18.755,9.377,-103.150,-90.256,16.801,45.324,-39.463,-98.071,-43.370,4.298,-68.767,-18.755,-35.946,-52.747,-98.852,-14.457,19.536,30.476,47.277,-8.987,-35.946
'[13:43:06.301 06/11/2076]',-73.065,-30.867,-20.708,14.066,-99.634,-65.641,12.503,40.244,-41.026,-78.926,-36.728,-8.205,-75.018,-14.457,-30.085,-45.714,-72.674,-21.880,21.490,35.946,27.350,-9.768,-30.085
'[13:43:06.305 06/11/2076]',-59.389,-19.145,-17.973,11.331,-85.958,-40.244,9.377,30.867,-35.165,-55.482,-31.648,-16.801,-78.144,-3.126,-21.880,-35.556,-43.370,-24.615,18.755,30.476,16.410,-5.079,-21.880
'[13:43:06.309 06/11/2076]',-42.979,-13.284,-14.847,12.503,-64.469,-20.317,6.642,17.973,-26.178,-30.085,-27.350,-19.536,-72.283,0.781,-14.457,-17.973,-16.801,-23.443,15.629,29.695,6.642,-1.172,-14.457
'[13:43:06.313 06/11/2076]',-32.039,-8.205,-9.377,16.801,-45.714,-7.033,9.768,9.768,-16.020,-6.642,-21.880,-43.370,-73.455,14.847,-5.079,-25.397,2.344,-20.708,10.159,23.443,4.298,7.814,-5.079
'[13:43:06.316 06/11/2076]',-19.536,-1.563,-3.516,19.927,-21.880,0.000,12.503,3.516,-3.126,13.284,-18.755,-66.032,-74.237,30.867,5.861,-38.291,21.099,-17.973,4.298,10.549,7.424,19.145,5.861
'[13:43:06.320 06/11/2076]',-1.563,0.391,1.563,20.317,8.205,7.424,14.066,-10.940,10.940,29.695,-16.020,-58.217,-60.171,31.258,14.457,-19.927,36.728,-13.284,-0.781,7.424,6.252,26.960,14.457
'[13:43:06.324 06/11/2076]',12.894,0.781,7.033,23.053,37.509,12.112,15.629,-21.880,25.397,40.635,-10.549,-49.621,-41.416,26.960,19.536,0.000,48.449,-8.205,-6.252,7.424,4.689,32.821,19.536
'[13:43:06.328 06/11/2076]',17.192,7.814,13.675,24.225,55.482,12.894,13.675,-18.755,28.132,44.542,-5.861,-68.767,-47.277,44.151,23.053,-22.271,49.621,-8.205,-12.894,-9.377,16.020,43.761,23.053
'[13:43:06.332 06/11/2076]',22.271,18.364,21.490,16.020,69.158,12.503,16.020,-18.755,30.476,45.324,-1.172,-75.800,-46.105,57.827,26.569,-39.463,44.933,-2.344,-20.708,-26.960,28.913,50.794,26.569
'[13:43:06.336 06/11/2076]',25.788,24.225,32.430,5.079,76.972,9.768,25.006,-23.053,33.993,42.979,4.298,-59.389,-21.099,45.714,23.443,-25.397,33.993,12.894,-31.648,-19.536,29.304,47.277,23.443
'[13:43:06.340 06/11/2076]',24.225,29.304,39.072,-2.344,69.548,1.563,34.774,-15.629,30.867,34.383,8.205,-42.589,-4.298,36.337,16.801,-17.973,14.066,25.397,-38.291,-18.755,31.258,44.933,16.801
'[13:43:06.344 06/11/2076]',16.020,34.774,46.105,-9.768,52.357,-7.033,39.853,1.563,19.536,20.708,4.298,-24.225,-7.814,39.463,12.894,-24.615,-5.470,28.913,-45.324,-31.258,40.244,47.668,12.894
'[13:43:06.348 06/11/2076]',5.470,34.383,53.529,-16.410,26.178,-17.582,49.231,17.582,4.689,7.814,5.079,-1.954,-4.298,33.211,7.814,-20.708,-20.708,36.728,-52.747,-33.993,44.933,44.151,7.814
'[13:43:06.352 06/11/2076]',-8.205,26.569,58.217,-8.205,-8.596,-29.695,63.687,42.589,-14.457,0.000,5.470,26.960,1.563,22.271,-1.954,-4.689,-32.430,51.966,-57.436,-26.569,49.231,34.774,-1.954
'[13:43:06.355 06/11/2076]',-21.490,25.397,61.343,-6.252,-43.761,-30.476,69.939,63.687,-35.165,-6.252,10.159,30.085,-9.768,28.913,-5.079,-14.847,-37.118,59.780,-60.562,-31.648,51.575,31.258,-5.079
'[13:43:06.359 06/11/2076]',-28.523,26.960,65.250,-16.410,-76.581,-19.536,73.455,69.158,-51.575,-6.642,20.708,39.072,-12.503,25.788,-2.735,-9.377,-33.211,70.720,-64.469,-24.225,41.026,19.927,-2.735
'[13:43:06.363 06/11/2076]',-30.476,23.443,60.952,-14.847,-102.759,-3.907,70.330,75.409,-66.422,-7.033,28.913,49.621,-10.159,10.549,-4.298,9.377,-28.523,82.442,-60.171,-4.689,17.192,2.344,-4.298
'[13:43:06.367 06/11/2076]',-32.430,22.271,53.919,-13.675,-123.858,7.424,65.250,80.488,-82.442,-1.954,33.993,43.761,-20.708,9.377,-5.470,9.768,-17.973,83.223,-53.138,1.954,3.907,-6.252,-5.470
'[13:43:06.371 06/11/2076]',-30.476,18.755,50.012,-11.722,-132.454,17.973,57.045,82.442,-93.773,7.424,35.946,57.827,-21.099,4.689,-4.689,30.085,-1.954,78.926,-49.231,10.159,-5.861,-14.066,-4.689
'[13:43:06.375 06/11/2076]',-24.225,13.284,46.886,-1.563,-130.501,25.006,52.357,86.740,-100.415,20.317,35.946,76.581,-15.238,-1.563,-6.252,57.436,15.238,74.628,-46.105,19.536,-12.503,-20.317,-6.252
'[13:43:06.379 06/11/2076]',-21.099,11.722,45.324,8.205,-125.421,28.132,47.668,92.601,-104.713,35.556,36.728,59.780,-22.662,8.596,-2.735,44.933,31.648,64.469,-44.542,19.927,-13.675,-20.317,-2.735
'[13:43:06.383 06/11/2076]',-12.894,11.722,45.714,16.801,-113.700,37.118,43.370,93.382,-99.634,53.919,36.337,47.668,-27.350,18.364,7.814,39.463,50.403,56.264,-44.933,17.192,-15.629,-21.099,7.814
'[13:43:06.387 06/11/2076]',0.781,8.596,46.886,28.913,-92.991,47.668,42.589,88.303,-81.270,71.502,34.774,66.032,-9.377,10.549,19.145,70.720,69.158,56.654,-46.105,24.615,-23.834,-21.099,19.145
'[13:43:06.391 06/11/2076]',13.284,3.126,47.277,41.416,-70.720,51.575,41.416,83.223,-58.608,87.521,32.039,68.376,7.033,3.907,28.523,89.475,83.223,54.310,-46.496,28.523,-24.615,-19.145,28.523
'[13:43:06.395 06/11/2076]',20.708,3.516,49.231,48.840,-50.012,55.482,40.244,77.753,-37.118,95.726,33.993,39.853,2.344,13.675,43.761,72.674,92.210,46.496,-48.449,16.410,-22.271,-9.377,43.761
'[13:43:06.398 06/11/2076]',31.258,3.516,51.575,57.827,-22.271,57.436,39.853,70.330,-10.940,98.462,37.118,32.039,10.159,13.675,55.873,76.972,97.289,48.449,-50.794,10.549,-23.053,-1.172,55.873
'[13:43:06.402 06/11/2076]',40.635,-1.563,53.529,69.939,2.735,51.575,43.370,63.297,14.457,96.508,41.416,33.602,31.258,0.000,60.171,94.554,93.382,58.608,-52.747,16.020,-23.834,1.172,60.171
