'Time and date','FP1-F7','F7-T7','T7-P7','P7-O1','FP1-F3','F3-C3','C3-P3','P3-O1','FP2-F4','F4-C4','C4-P4','P4-O2','FP2-F8','F8-T8','T8-P8','P8-O2','FZ-CZ','CZ-PZ','P7-T7','T7-FT9','FT9-FT10','FT10-T8','T8-P8'
'hh:mm:ss.mmm dd/mm/yyyy','uV','uV','uV','uV','uV','uV','uV','uV','uV','uV','uV','uV','uV','uV','uV','uV','uV','uV','uV','uV','uV','uV','uV'
'[15:43:19.000 06/11/2076]',-23.834,39.463,95.726,-196.142,-31.648,177.778,-207.473,-23.443,-28.913,1.172,-81.270,5.470,9.768,9.768,-90.256,-32.821,-21.490,-77.753,-94.945,2.344,37.118,16.801,-90.256
'[15:43:19.004 06/11/2076]',0.391,0.391,0.391,0.391,0.391,0.391,0.391,0.391,0.391,0.391,0.391,0.391,0.391,0.391,0.391,0.391,0.391,0.391,0.391,0.391,0.391,0.391,0.391
'[15:43:19.008 06/11/2076]',0.391,0.391,0.391,0.391,0.781,0.391,0.391,0.391,0.391,0.391,0.391,0.391,0.391,0.391,0.391,0.781,0.391,0.391,0.391,0.391,0.391,0.391,0.391
'[15:43:19.012 06/11/2076]',1.172,0.391,0.391,0.391,1.172,0.391,1.172,0.000,0.391,0.391,0.391,1.563,1.172,-0.391,0.391,1.954,0.391,0.391,0.391,0.781,0.391,0.391,0.391
'[15:43:19.016 06/11/2076]',-1.563,0.781,0.391,0.000,-2.344,1.172,-1.172,1.954,0.391,0.391,0.000,-1.172,-1.172,1.954,0.781,-2.735,0.391,-0.391,0.391,-1.563,0.781,0.781,0.781
'[15:43:19.020 06/11/2076]',-3.516,1.563,0.391,-0.391,-3.907,1.563,-2.735,3.126,0.391,0.000,-0.391,-5.861,-3.126,3.907,0.391,-8.205,0.000,-0.781,0.391,-2.344,1.563,0.391,0.391
'[15:43:19.023 06/11/2076]',2.344,-0.391,0.391,0.391,3.516,-0.781,1.954,-1.563,1.172,0.391,0.391,-0.391,2.735,-1.563,-1.172,1.563,0.391,1.954,0.391,3.516,-0.391,-1.172,-1.172
'[15:43:19.027 06/11/2076]',8.596,-2.735,0.781,1.172,9.768,-1.563,5.470,-5.079,1.954,1.172,1.563,10.159,8.987,-7.814,-1.172,15.629,0.781,3.516,0.000,7.814,-2.344,-1.172,-1.172
'[15:43:19.031 06/11/2076]',0.781,0.000,0.781,0.391,0.391,1.172,-1.954,1.954,0.391,0.000,0.000,3.516,-0.391,0.781,1.172,1.172,0.000,-1.954,0.000,-1.563,1.563,2.344,1.172
'[15:43:19.035 06/11/2076]',-8.205,3.126,-0.781,0.000,-8.987,1.563,-7.033,8.205,-1.954,-1.563,-1.954,-13.284,-12.503,11.722,2.344,-21.490,-2.344,-4.689,1.563,-9.377,5.079,3.126,2.344
'[15:43:19.039 06/11/2076]',-10.159,2.344,-0.391,-0.781,-11.331,1.954,-6.252,5.861,-1.172,-0.781,-1.954,-17.582,-9.377,8.987,-0.781,-21.880,-1.172,-1.172,1.172,-3.907,1.954,0.000,-0.781
'[15:43:19.043 06/11/2076]',-25.397,2.735,3.516,-6.252,-26.960,10.940,-22.271,14.066,2.735,-3.516,-8.205,-31.648,-10.549,14.457,-4.689,-41.026,-3.907,-6.642,-2.735,-7.814,4.298,0.391,-4.689
'[15:43:19.047 06/11/2076]',-3.907,-3.907,1.954,-2.344,2.735,0.391,-14.457,2.344,8.596,-5.861,-7.424,-32.430,4.298,0.781,-13.284,-30.476,-7.033,-0.391,-1.172,8.205,2.735,-9.377,-13.284
'[15:43:19.051 06/11/2076]',19.536,-16.020,5.861,0.391,30.867,-7.033,-8.205,-4.689,8.596,-9.377,-7.033,-18.755,13.675,-15.238,-18.755,-6.642,-10.940,1.954,-5.079,25.006,-0.781,-12.894,-18.755
'[15:43:19.055 06/11/2076]',25.006,-22.662,4.298,3.907,35.946,-8.205,-13.675,-1.563,10.159,-12.894,-8.596,-13.284,7.814,-11.722,-14.066,-7.033,-15.629,-1.954,-3.516,23.834,-3.126,-5.079,-14.066
'[15:43:19.059 06/11/2076]',22.271,-23.834,-4.298,11.331,32.821,-12.503,-15.629,0.781,9.377,-13.675,-10.159,-22.662,-1.954,0.391,-11.722,-23.443,-18.364,-3.126,5.079,19.145,1.563,-1.172,-11.722
'[15:43:19.063 06/11/2076]',13.675,-26.569,-14.457,16.801,21.099,-15.629,-14.847,-1.172,2.735,-14.066,-10.159,-30.867,-8.205,0.781,-13.675,-32.430,-19.536,-1.563,15.238,21.099,5.079,-4.689,-13.675
'[15:43:19.066 06/11/2076]',0.000,-32.430,-22.271,14.457,1.954,-16.020,-17.192,-8.596,-4.689,-13.675,-11.331,-26.960,-3.907,-9.377,-17.582,-26.569,-17.192,-3.126,23.053,25.397,7.424,-10.549,-17.582
'[15:43:19.070 06/11/2076]',-5.079,-36.728,-28.913,14.066,-5.470,-16.410,-19.536,-14.066,-3.126,-15.238,-14.847,-23.443,10.159,-21.880,-24.225,-21.880,-15.629,-7.424,29.695,28.132,13.675,-17.973,-24.225
'[15:43:19.074 06/11/2076]',10.549,-38.291,-32.039,7.814,7.424,-19.927,-21.880,-16.410,-8.596,-21.099,-16.410,-36.337,8.205,-28.523,-28.523,-34.774,-17.582,-15.629,32.821,24.225,19.145,-25.788,-28.523
'[15:43:19.078 06/11/2076]',14.457,-40.635,-33.211,4.298,6.252,-21.490,-24.615,-14.847,-17.582,-21.099,-16.410,-42.589,-10.159,-22.662,-23.834,-42.198,-17.582,-19.927,33.993,21.880,1.563,-19.927,-23.834
'[15:43:19.082 06/11/2076]',32.039,-42.198,-33.602,3.907,17.973,-13.284,-21.880,-21.490,9.768,-14.066,-15.629,-26.569,7.424,-13.675,-15.238,-25.397,-10.549,-14.457,34.383,27.741,-21.490,-7.424,-15.238
'[15:43:19.086 06/11/2076]',43.370,-40.244,-33.211,4.689,27.741,-8.205,-18.755,-26.569,14.847,-7.033,-14.066,-21.099,3.516,-1.172,-9.768,-19.536,-3.516,-11.331,33.993,29.304,-33.602,1.954,-9.768
'[15:43:19.090 06/11/2076]',31.258,-45.324,-42.979,8.205,10.159,-11.331,-25.397,-21.490,3.516,-4.298,-14.847,-30.085,-22.271,19.145,-3.516,-39.463,-2.735,-19.927,43.761,22.662,-36.337,10.940,-3.516
'[15:43:19.094 06/11/2076]',26.569,-54.310,-56.264,7.814,-5.470,-10.159,-33.602,-25.006,7.814,-6.252,-15.238,-30.476,-27.350,28.132,-0.781,-44.542,-4.298,-22.662,57.045,26.960,-52.747,17.582,-0.781
'[15:43:19.098 06/11/2076]',42.589,-63.687,-62.125,6.642,3.516,-11.331,-30.476,-36.337,6.642,-6.642,-10.159,-28.132,-20.317,18.364,-4.298,-32.430,-3.126,-19.145,62.906,43.370,-71.111,13.284,-4.298
'[15:43:19.102 06/11/2076]',50.012,-66.422,-70.720,3.126,11.331,-17.582,-30.476,-45.714,3.907,-3.126,-7.033,-30.476,-16.410,16.410,-7.424,-28.913,-6.642,-21.099,71.502,47.668,-83.614,12.112,-7.424
'[15:43:19.105 06/11/2076]',48.449,-66.422,-56.264,0.781,12.503,-19.536,-30.867,-35.165,17.973,-4.298,-7.424,-26.178,-12.503,22.662,-1.954,-28.913,-4.689,-21.880,57.045,38.291,-82.442,19.145,-1.954
'[15:43:19.109 06/11/2076]',41.026,-58.608,-39.853,-1.172,12.894,-14.847,-25.397,-31.258,16.801,2.344,-6.252,-23.443,-13.284,24.615,3.516,-26.569,5.079,-19.927,40.635,28.523,-68.767,20.708,3.516
'[15:43:19.113 06/11/2076]',27.350,-50.794,-26.960,1.172,5.861,-15.629,-12.503,-26.178,15.238,10.940,-4.689,-30.476,-12.112,32.430,8.596,-37.900,12.894,-17.973,27.741,13.284,-41.807,21.880,8.596
'[15:43:19.117 06/11/2076]',18.755,-48.449,-17.973,8.596,-0.781,-17.192,-7.424,-12.503,14.457,16.020,-5.861,-20.317,-11.331,35.165,13.675,-35.165,18.755,-18.364,18.755,-0.781,-25.788,25.788,13.675
'[15:43:19.121 06/11/2076]',28.132,-45.714,-21.880,5.861,3.126,-3.516,-12.503,-19.145,20.317,11.722,0.391,-17.973,-3.126,23.834,16.801,-23.053,16.801,-13.284,22.662,10.159,-42.198,17.973,16.801
'[15:43:19.125 06/11/2076]',37.509,-50.794,-32.821,5.861,11.722,-5.861,-13.675,-30.867,15.629,8.205,1.563,-24.225,-6.252,15.629,11.722,-19.145,11.331,-11.331,33.602,21.880,-51.575,11.331,11.722
'[15:43:19.129 06/11/2076]',28.523,-51.184,-17.973,5.079,6.252,-6.252,-11.722,-22.662,10.940,5.470,1.954,-25.006,-17.192,10.549,13.284,-13.675,8.596,-10.159,18.755,21.490,-57.827,8.596,13.284
'[15:43:19.133 06/11/2076]',25.788,-53.919,-17.582,2.344,6.642,-6.252,-12.112,-31.258,6.252,1.954,2.344,-21.880,-22.662,-1.563,14.847,-1.172,9.768,-10.549,18.364,26.569,-61.343,3.516,14.847
'[15:43:19.137 06/11/2076]',12.112,-57.045,-14.457,2.735,-3.907,-9.768,-5.470,-36.728,-4.298,3.907,2.344,-14.457,-30.867,-9.768,16.801,10.940,15.238,-11.331,15.238,25.788,-60.562,3.516,16.801
'[15:43:19.141 06/11/2076]',-5.470,-58.217,-7.033,6.642,-24.615,-8.987,-2.344,-26.569,0.000,2.735,5.079,-19.536,-35.165,-2.735,25.006,0.391,17.192,-16.801,7.814,13.675,-55.092,6.252,25.006
'[15:43:19.145 06/11/2076]',-3.907,-50.012,-11.722,8.596,-25.397,-7.033,-3.126,-21.099,3.516,-0.781,10.159,-21.490,-39.853,3.126,31.258,-3.516,15.629,-18.364,12.503,2.344,-57.827,7.033,31.258
'[15:43:19.148 06/11/2076]',2.735,-46.496,-10.940,7.814,-26.569,0.000,5.079,-23.834,3.126,-2.344,19.927,-4.689,-29.304,-5.861,34.383,17.192,16.020,-7.814,11.722,12.112,-72.674,3.516,34.383
'[15:43:19.152 06/11/2076]',-4.689,-42.198,-6.252,12.503,-39.853,3.516,13.675,-18.755,-4.298,-1.954,26.960,7.814,-26.569,-9.768,33.211,32.430,13.675,1.172,7.033,16.020,-76.581,2.344,33.211
'[15:43:19.156 06/11/2076]',-1.563,-32.039,-3.126,15.238,-36.337,-0.391,14.847,0.391,-26.569,1.954,30.476,8.987,-49.231,4.298,36.337,23.053,10.940,2.735,3.907,0.000,-67.595,6.642,36.337
'[15:43:19.160 06/11/2076]',-6.642,-30.085,-1.172,17.582,-41.807,-4.298,19.536,5.861,-43.370,7.424,32.430,12.503,-60.562,14.066,35.556,19.927,12.503,7.814,1.954,-2.735,-59.780,11.331,35.556
'[15:43:19.164 06/11/2076]',-16.801,-40.244,1.563,23.443,-56.654,-10.940,30.085,5.079,-41.416,12.112,29.695,21.099,-44.933,11.331,26.960,28.523,13.284,15.238,-0.781,3.126,-50.403,10.940,26.960
'[15:43:19.168 06/11/2076]',-28.913,-42.979,1.563,19.536,-65.641,-20.708,30.867,5.861,-30.867,11.331,29.304,13.675,-41.807,21.880,25.006,18.364,9.768,12.112,-0.781,-3.126,-44.933,13.675,25.006
'[15:43:19.172 06/11/2076]',-23.053,-38.291,-0.391,6.252,-52.357,-23.443,24.225,-2.735,-16.801,7.033,31.648,7.814,-35.165,23.443,28.523,12.112,6.252,6.642,1.172,-5.079,-51.184,14.066,28.523
'[15:43:19.176 06/11/2076]',-17.973,-36.728,1.172,-3.907,-47.277,-17.973,20.317,-12.112,-10.159,0.781,36.337,12.894,-28.523,10.940,31.648,26.178,-0.781,9.377,-0.391,0.781,-71.111,8.596,31.648
'[15:43:19.180 06/11/2076]',-28.132,-34.383,1.563,-0.391,-57.827,-16.410,17.582,-4.689,-20.708,-1.563,43.761,6.642,-43.761,8.596,37.118,24.615,-6.642,10.159,-0.781,3.126,-83.223,4.689,37.118
'[15:43:19.184 06/11/2076]',-19.145,-33.211,-0.391,-4.689,-53.138,-14.847,14.847,-4.689,-31.648,-3.907,47.668,9.377,-51.575,5.470,38.681,28.523,-10.549,10.940,1.172,4.689,-89.475,4.298,38.681
'[15:43:19.188 06/11/2076]',-17.582,-35.556,0.781,0.000,-58.999,-8.987,15.238,0.391,-40.635,-1.172,47.668,18.364,-51.966,-0.781,38.291,39.072,-10.940,15.629,0.000,9.377,-89.866,3.126,38.291
'[15:43:19.191 06/11/2076]',-17.192,-41.416,-0.391,3.126,-63.297,-10.549,14.457,3.126,-43.370,1.563,47.277,7.033,-53.529,1.563,37.118,26.569,-11.722,17.192,1.172,12.503,-84.786,1.954,37.118
'[15:43:19.195 06/11/2076]',-16.020,-43.370,-5.861,-1.172,-63.687,-12.894,8.596,0.391,-40.635,-0.781,45.324,-2.344,-54.701,5.470,34.383,15.629,-12.894,13.284,6.642,11.331,-78.926,1.954,34.383
'[15:43:19.199 06/11/2076]',-19.145,-43.761,-10.940,-2.344,-67.595,-12.894,6.642,-3.126,-38.291,1.172,43.761,7.424,-44.542,-1.954,35.946,25.006,-15.238,17.582,11.722,12.503,-76.581,1.563,35.946
'[15:43:19.203 06/11/2076]',-25.788,-48.840,-8.596,-1.172,-76.972,-14.847,8.596,-2.344,-39.463,1.954,43.761,13.284,-42.589,-8.205,38.291,31.258,-18.364,22.271,9.377,12.894,-71.893,1.172,38.291
'[15:43:19.207 06/11/2076]',-42.198,-47.668,-10.940,-3.907,-87.912,-20.708,4.689,-1.954,-45.714,-1.172,44.542,-0.391,-56.654,-4.298,39.853,17.192,-27.350,21.490,11.722,5.861,-66.422,2.344,39.853
'[15:43:19.211 06/11/2076]',-38.681,-44.542,-14.457,-6.252,-82.442,-20.708,-0.391,-1.954,-48.840,-1.563,42.979,-8.205,-67.204,-2.344,42.198,10.940,-34.383,22.271,15.238,0.391,-69.158,5.079,42.198
'[15:43:19.215 06/11/2076]',-36.337,-47.277,-8.596,-6.642,-75.409,-21.490,6.252,-8.987,-36.728,2.344,41.026,0.391,-51.575,-12.112,43.370,26.960,-34.774,30.476,9.377,10.940,-77.753,1.954,43.370
'[15:43:19.219 06/11/2076]',-44.151,-49.621,-1.563,-3.126,-77.363,-23.053,10.549,-10.549,-37.509,7.814,40.244,1.563,-48.840,-14.847,40.635,35.165,-32.821,33.602,2.344,16.410,-78.535,0.391,40.635
'[15:43:19.223 06/11/2076]',-43.761,-44.933,-1.563,-0.781,-73.065,-25.788,7.424,-0.391,-33.602,6.252,35.556,0.000,-56.654,0.000,40.244,24.615,-30.476,25.788,2.344,3.516,-72.283,7.033,40.244
'[15:43:19.227 06/11/2076]',-54.701,-45.324,-0.781,7.424,-86.740,-32.039,12.112,13.284,-29.304,7.033,28.913,6.642,-61.734,13.675,43.370,17.582,-25.788,23.834,1.563,-8.987,-57.436,12.894,43.370
'[15:43:19.230 06/11/2076]',-59.780,-46.105,-4.689,9.768,-91.819,-37.509,22.662,4.298,-37.509,10.549,33.993,2.344,-60.952,11.722,39.463,18.364,-21.490,27.741,5.470,-3.126,-50.794,8.596,39.463
'[15:43:19.234 06/11/2076]',-43.761,-45.714,-13.675,3.907,-82.833,-32.430,21.099,-5.470,-36.728,7.814,37.509,-5.861,-60.952,11.722,37.118,14.847,-23.053,28.913,14.457,3.516,-59.780,7.424,37.118
'[15:43:19.238 06/11/2076]',-42.198,-44.151,-16.801,5.470,-84.786,-26.569,14.457,-1.563,-26.960,4.298,40.635,4.689,-52.357,5.861,42.589,26.569,-28.913,32.430,17.582,9.377,-74.237,6.252,42.589
'[15:43:19.242 06/11/2076]',-44.151,-43.761,-13.284,3.907,-89.084,-20.317,15.629,-4.298,-30.867,8.205,43.761,7.814,-46.886,-1.563,45.324,32.039,-27.741,39.853,14.066,18.755,-82.442,1.563,45.324
'[15:43:19.246 06/11/2076]',-39.072,-39.853,-5.079,10.549,-83.223,-13.284,16.410,4.689,-39.072,11.331,48.840,4.298,-54.310,0.781,48.449,30.867,-23.443,44.151,5.861,17.582,-88.303,3.516,48.449
'[15:43:19.250 06/11/2076]',-40.244,-37.509,-0.391,14.847,-80.488,-8.596,17.192,8.596,-32.821,12.894,48.059,11.722,-51.966,4.689,52.357,35.165,-12.894,38.681,1.172,11.331,-82.051,7.033,52.357
'[15:43:19.254 06/11/2076]',-44.542,-37.509,-3.516,19.145,-83.614,-6.252,19.536,3.516,-33.211,15.238,45.714,14.066,-49.621,2.735,47.668,41.026,-3.126,34.383,4.298,14.066,-75.018,5.861,47.668
'[15:43:19.258 06/11/2076]',-42.198,-33.211,-1.563,19.536,-73.846,-5.079,19.927,0.781,-27.741,15.629,45.714,1.563,-49.621,7.814,43.761,32.821,1.563,29.695,2.344,13.675,-68.767,7.424,43.761
'[15:43:19.262 06/11/2076]',-50.794,-29.695,-4.689,21.099,-80.879,-1.954,15.238,3.126,-17.192,11.331,43.370,-3.907,-50.012,12.503,44.933,25.788,0.391,24.615,5.470,12.503,-65.250,7.814,44.933
'[15:43:19.266 06/11/2076]',-53.919,-29.695,-3.126,23.834,-84.786,-0.391,17.973,3.907,-19.927,13.284,41.807,10.159,-43.370,2.735,44.933,41.416,0.391,30.476,3.907,17.582,-64.469,5.079,44.933
'[15:43:19.270 06/11/2076]',-56.654,-26.960,10.940,22.271,-84.005,3.907,26.960,1.954,-24.225,21.880,44.933,16.801,-38.681,-4.298,50.794,51.966,5.079,39.853,-10.159,18.755,-65.250,5.470,50.794
'[15:43:19.273 06/11/2076]',-56.264,-21.099,12.112,19.145,-87.131,11.722,21.490,7.033,-31.258,24.615,46.886,-1.172,-54.310,2.735,54.701,35.946,6.642,34.774,-11.331,10.549,-68.376,4.689,54.701
'[15:43:19.277 06/11/2076]',-57.436,-19.145,10.159,17.192,-85.958,10.549,15.629,10.159,-40.635,25.788,43.370,-7.424,-67.985,7.424,52.357,28.913,7.424,31.648,-9.377,1.563,-66.813,7.424,52.357
'[15:43:19.281 06/11/2076]',-50.012,-18.364,7.424,14.847,-79.707,8.596,20.708,3.516,-27.350,32.039,40.244,-4.689,-48.840,7.424,46.105,34.383,10.549,37.900,-6.642,6.642,-73.846,9.768,46.105
'[15:43:19.285 06/11/2076]',-41.416,-14.847,5.079,10.159,-75.409,7.424,23.834,1.954,-22.271,32.430,37.118,-10.159,-46.105,16.801,37.118,28.523,8.987,38.681,-4.298,3.907,-71.111,13.675,37.118
'[15:43:19.289 06/11/2076]',-46.886,-13.675,7.814,12.894,-84.786,3.907,18.364,20.708,-25.397,32.039,26.569,-7.814,-57.436,36.337,36.337,9.377,7.033,33.993,-7.033,-12.894,-53.529,24.225,36.337
'[15:43:19.293 06/11/2076]',-44.542,-11.722,10.549,10.549,-84.005,6.252,24.225,17.192,-25.397,39.463,26.960,-8.205,-52.747,41.416,39.463,4.298,12.503,38.681,-9.768,-13.284,-51.184,27.741,39.463
'[15:43:19.297 06/11/2076]',-39.072,-7.814,12.503,5.079,-80.098,16.020,32.039,1.563,-25.397,47.668,36.728,-25.788,-50.012,38.681,43.370,0.781,19.145,44.542,-11.722,-5.079,-58.999,22.662,43.370
'[15:43:19.301 06/11/2076]',-38.681,-6.642,8.205,8.987,-77.753,24.225,24.615,0.000,-26.960,50.403,42.979,-30.476,-51.575,32.821,50.012,4.689,23.834,38.291,-7.424,-1.563,-71.893,21.099,50.012
'[15:43:19.305 06/11/2076]',-32.039,-8.205,3.126,11.722,-66.032,28.913,19.145,-7.424,-13.675,58.999,44.151,-28.523,-35.946,30.476,53.138,12.112,32.821,34.774,-2.344,1.172,-76.581,21.490,53.138
'[15:43:19.309 06/11/2076]',-27.350,-2.735,0.391,9.377,-60.562,34.774,19.927,-14.847,-1.954,62.125,42.198,-33.211,-28.132,30.476,53.919,12.112,37.900,33.602,0.391,1.172,-82.442,20.708,53.919
'[15:43:19.313 06/11/2076]',-27.350,-3.516,4.298,12.112,-60.562,41.026,14.847,-10.549,-4.298,64.469,36.337,-35.946,-36.337,36.337,51.966,7.814,40.244,30.085,-3.516,-1.563,-79.316,23.834,51.966
'[15:43:19.316 06/11/2076]',-30.867,-4.298,9.768,12.894,-62.515,44.151,14.066,-8.205,-3.516,66.032,30.867,-25.788,-35.165,39.072,48.449,14.847,41.807,29.304,-8.987,-3.907,-70.720,25.006,48.449
'[15:43:19.320 06/11/2076]',-34.774,-3.126,9.377,10.159,-69.939,48.449,16.410,-13.675,-8.987,62.906,29.695,-19.145,-37.509,32.039,45.324,25.397,41.416,31.648,-8.596,0.391,-75.018,23.053,45.324
'[15:43:19.324 06/11/2076]',-33.602,-1.563,10.549,13.675,-67.985,49.621,16.020,-8.596,-21.490,60.952,32.430,-26.178,-53.529,33.211,49.231,16.801,39.072,29.695,-9.768,-3.516,-71.502,22.271,49.231
'[15:43:19.328 06/11/2076]',-35.165,-3.516,7.814,19.927,-65.250,45.324,13.284,-3.907,-19.927,57.436,31.258,-28.132,-53.138,36.728,47.277,10.159,39.463,23.443,-7.033,-7.814,-60.562,21.490,47.277
'[15:43:19.332 06/11/2076]',-30.476,-8.596,3.126,19.536,-59.389,41.416,14.066,-13.284,-14.457,53.529,28.913,-16.801,-38.681,24.615,41.807,22.271,43.761,22.662,-2.344,1.172,-56.654,13.675,41.807
'[15:43:19.336 06/11/2076]',-22.271,-11.722,-4.298,17.973,-45.324,37.118,11.331,-23.834,-15.629,50.403,26.178,-16.020,-31.648,12.112,34.774,29.304,44.542,16.020,5.079,8.596,-55.482,4.689,34.774
'[15:43:19.340 06/11/2076]',-23.443,-12.503,-12.894,15.238,-39.463,25.788,-1.954,-18.755,-20.708,43.761,18.755,-21.490,-43.370,17.582,28.132,17.192,39.463,-3.516,13.675,1.172,-49.231,0.781,28.132
'[15:43:19.344 06/11/2076]',-25.006,-11.722,-17.582,17.192,-39.853,18.364,-9.377,-6.642,-23.834,39.072,12.503,-14.847,-50.012,20.708,26.178,16.020,38.291,-12.503,18.364,-6.252,-46.886,1.563,26.178
'[15:43:19.348 06/11/2076]',-20.708,-5.470,-19.145,16.410,-33.602,11.722,-1.172,-6.252,-25.006,39.463,12.112,-10.159,-46.886,16.410,26.569,20.317,40.244,-13.675,19.927,-7.424,-53.529,1.563,26.569
'[15:43:19.352 06/11/2076]',-17.582,-6.642,-14.457,18.755,-32.039,4.689,4.689,1.172,-17.192,42.589,6.252,1.563,-39.072,23.443,27.741,21.099,44.542,-16.801,15.238,-12.112,-53.529,12.112,27.741
'[15:43:19.355 06/11/2076]',-20.708,-8.205,-2.344,13.675,-35.165,2.735,4.298,7.424,-6.642,39.072,5.079,-3.126,-38.291,37.118,28.132,7.424,46.105,-19.927,3.126,-17.973,-50.403,25.397,28.132
'[15:43:19.359 06/11/2076]',-13.284,-4.298,-5.470,2.344,-24.225,5.079,3.516,-5.861,2.344,35.556,8.596,-11.722,-31.648,33.602,29.304,2.735,43.761,-15.238,6.252,-15.629,-59.780,25.006,29.304
'[15:43:19.363 06/11/2076]',-4.298,-4.298,-12.112,-3.907,-10.940,3.516,0.000,-18.755,5.861,27.741,10.940,-18.364,-26.569,20.317,22.662,10.549,33.993,-10.940,12.894,-4.298,-75.018,19.536,22.662
'[15:43:19.367 06/11/2076]',-5.861,-3.907,-14.847,-10.159,-16.801,8.987,-7.424,-21.490,6.642,21.880,11.331,-22.662,-26.960,16.410,18.364,10.159,24.615,-8.596,15.629,-5.861,-75.018,17.582,18.364
'[15:43:19.371 06/11/2076]',-4.689,-0.391,-22.271,-13.284,-21.880,14.457,-9.377,-25.006,8.987,16.410,11.331,-19.536,-23.053,8.987,17.582,14.066,18.755,-4.689,23.053,-5.861,-76.972,15.238,17.582
'[15:43:19.375 06/11/2076]',-3.907,2.344,-17.973,-21.099,-24.225,16.020,-7.814,-25.788,2.344,14.457,8.987,-25.788,-26.960,8.205,10.549,9.377,13.675,-3.907,18.755,-7.424,-72.674,14.457,10.549
'[15:43:19.379 06/11/2076]',-10.549,2.344,-16.020,-17.192,-32.821,14.066,-7.033,-17.192,-1.954,12.503,6.252,-31.648,-35.165,14.457,5.470,1.172,9.768,-4.689,16.801,-11.722,-66.813,17.582,5.470
'[15:43:19.383 06/11/2076]',-19.927,2.344,-17.973,-19.536,-43.761,12.112,-5.079,-19.536,-4.689,10.549,6.252,-24.225,-33.993,11.722,2.735,7.814,5.861,-2.735,18.755,-10.549,-69.548,17.582,2.735
'[15:43:19.387 06/11/2076]',-6.642,1.172,-22.271,-19.927,-19.927,0.391,-5.079,-24.225,-7.814,8.205,5.470,-17.192,-30.867,5.079,-3.516,18.755,1.954,-0.391,23.053,-6.642,-73.455,15.629,-3.516
'[15:43:19.391 06/11/2076]',-8.596,0.000,-26.569,-16.410,-21.490,-3.907,-7.814,-19.145,-2.344,4.298,6.252,-28.132,-32.821,13.284,-3.907,3.907,-3.907,-2.344,27.350,-9.377,-71.893,15.629,-3.907
'[15:43:19.395 06/11/2076]',-14.847,-3.126,-26.178,-19.927,-32.821,-4.298,-10.940,-16.801,-7.814,0.391,6.252,-35.946,-42.198,17.192,-3.126,-8.596,-7.814,-2.735,26.960,-10.940,-66.422,12.112,-3.126
'[15:43:19.398 06/11/2076]',-4.689,-6.642,-21.099,-20.317,-24.225,-1.172,-8.205,-19.927,-2.344,-1.954,8.596,-25.788,-28.132,3.516,-0.781,3.516,-5.470,3.516,21.880,3.126,-69.548,5.079,-0.781
'[15:43:19.402 06/11/2076]',-3.907,-10.549,-21.880,-15.629,-26.569,0.391,-5.861,-20.708,-3.516,-5.079,7.814,-19.145,-21.099,-7.424,-6.252,16.020,-5.079,5.861,22.662,11.331,-66.422,-0.781,-6.252
'[15:43:19.406 06/11/2076]',-27.741,-10.549,-28.913,-12.894,-51.966,-5.470,-12.894,-10.159,-13.284,-10.940,2.344,-19.145,-34.774,-3.126,-7.814,4.689,-5.470,-2.735,29.695,4.298,-55.482,-2.344,-7.814
'[15:43:19.410 06/11/2076]',-25.006,-11.722,-35.946,-9.768,-51.184,-10.549,-16.801,-5.079,-10.940,-10.940,-2.735,-14.066,-30.867,-1.563,-6.642,-0.391,-3.126,-6.642,36.728,0.391,-48.449,-2.344,-6.642
'[15:43:19.414 06/11/2076]',-7.814,-20.708,-48.840,0.391,-35.946,-24.615,-12.112,-4.298,-8.987,-10.940,-12.894,-7.033,-20.317,-4.689,-18.755,3.907,-3.516,-9.768,49.621,5.079,-39.072,-4.298,-18.755
'[15:43:19.418 06/11/2076]',-6.642,-28.913,-51.575,1.172,-32.430,-37.118,-14.066,-2.344,-14.457,-8.205,-17.582,-17.192,-26.569,4.298,-23.053,-14.066,-7.424,-18.755,52.357,7.814,-30.085,-2.344,-23.053
'[15:43:19.422 06/11/2076]',-2.344,-30.867,-46.105,-6.642,-24.615,-37.118,-23.053,-1.563,-15.629,-10.940,-21.490,-17.582,-26.569,2.344,-25.006,-17.192,-10.940,-23.053,46.886,15.629,-35.165,-3.516,-25.006
'[15:43:19.426 06/11/2076]',1.954,-34.383,-43.370,0.781,-16.410,-39.853,-27.741,8.205,-20.317,-19.145,-23.053,-9.768,-24.615,-14.066,-32.430,-1.954,-19.927,-23.053,44.151,28.523,-45.714,-9.377,-32.430
'[15:43:19.430 06/11/2076]',-20.708,-34.774,-47.668,2.344,-36.728,-43.761,-30.085,9.377,-21.880,-27.350,-23.443,-12.112,-24.615,-18.364,-38.681,-2.735,-27.741,-25.788,48.449,34.383,-49.231,-14.457,-38.681
'[15:43:19.434 06/11/2076]',-42.979,-35.556,-52.357,1.172,-59.780,-44.151,-33.602,8.596,-16.801,-33.993,-23.834,-7.033,-18.364,-23.834,-41.416,1.172,-32.039,-27.350,53.138,34.774,-47.277,-19.145,-41.416
'[15:43:19.438 06/11/2076]',-16.020,-38.291,-54.310,6.642,-37.118,-44.151,-33.211,13.284,-8.987,-37.509,-25.788,6.252,-6.252,-29.695,-41.026,10.940,-33.602,-29.304,55.092,34.383,-45.714,-19.927,-41.026
'[15:43:19.441 06/11/2076]',6.642,-41.026,-59.780,6.252,-15.238,-48.059,-32.430,8.987,-5.470,-39.463,-27.350,-0.781,-5.079,-23.443,-42.979,-1.172,-34.774,-33.602,60.562,33.993,-39.463,-20.708,-42.979
'[15:43:19.445 06/11/2076]',4.689,-38.291,-59.780,2.344,-17.973,-45.324,-33.211,5.861,-13.284,-41.026,-25.788,-7.033,-16.020,-19.927,-39.853,-11.722,-33.993,-36.728,60.562,31.648,-36.728,-21.490,-39.853
'[15:43:19.449 06/11/2076]',21.880,-33.602,-51.966,5.861,-0.781,-34.774,-31.258,8.987,-10.159,-41.807,-24.615,10.159,-7.814,-21.880,-43.761,6.252,-27.741,-32.430,52.747,31.648,-35.556,-16.801,-43.761
'[15:43:19.453 06/11/2076]',22.662,-27.741,-43.761,8.596,8.596,-36.337,-23.053,10.940,-2.735,-42.589,-23.443,19.145,3.907,-25.397,-47.277,17.973,-25.397,-26.178,44.542,30.476,-32.430,-14.847,-47.277
'[15:43:19.457 06/11/2076]',0.000,-26.960,-44.151,11.331,-19.536,-33.211,-22.662,14.847,-10.159,-45.714,-20.317,5.470,-7.424,-19.536,-48.059,4.298,-30.085,-25.788,44.933,25.006,-28.132,-16.410,-48.059
'[15:43:19.461 06/11/2076]',-1.172,-27.741,-41.416,10.549,-23.834,-29.695,-23.834,16.801,-15.629,-48.059,-17.582,3.907,-15.629,-20.317,-40.635,-1.172,-32.821,-23.834,42.198,22.271,-27.741,-16.410,-40.635
'[15:43:19.465 06/11/2076]',14.457,-32.039,-42.979,13.284,-11.722,-28.132,-16.801,10.159,-9.768,-49.231,-18.364,16.410,-3.907,-32.039,-40.635,15.629,-33.211,-16.410,43.761,32.821,-36.337,-21.099,-40.635
'[15:43:19.469 06/11/2076]',2.344,-33.602,-44.151,13.675,-28.913,-24.615,-12.112,4.689,-14.847,-48.449,-17.192,21.880,-0.781,-43.370,-38.681,22.271,-32.039,-17.582,44.933,34.383,-31.648,-28.132,-38.681
'[15:43:19.473 06/11/2076]',-10.549,-11.722,-35.946,14.457,-30.867,-13.675,-12.894,13.675,-13.284,-46.105,-17.582,23.443,-5.861,-28.913,-33.602,14.847,-23.834,-23.443,36.728,7.033,-5.861,-19.536,-33.602
'[15:43:19.477 06/11/2076]',-3.907,7.424,-20.317,21.490,-10.940,-10.940,-8.596,35.556,4.689,-40.244,-22.271,33.602,7.424,-13.284,-32.039,12.894,-13.284,-24.225,21.099,-16.801,17.582,-11.331,-32.039
'[15:43:19.480 06/11/2076]',2.735,12.503,-14.066,20.317,8.596,-17.973,0.781,29.695,9.377,-35.165,-16.020,26.569,25.397,-18.364,-33.993,12.112,-12.112,-18.364,14.847,-14.066,33.211,-19.145,-33.993
'[15:43:19.484 06/11/2076]',3.126,10.159,-10.940,14.457,11.722,-21.099,0.781,25.788,4.298,-32.821,-10.159,14.847,28.523,-22.271,-33.602,3.516,-14.457,-17.973,11.722,-7.424,34.383,-24.225,-33.602
'[15:43:19.488 06/11/2076]',19.536,5.861,-12.112,10.940,30.085,-21.880,-7.814,24.615,-0.781,-32.430,-10.549,20.317,28.913,-31.648,-33.602,12.112,-19.536,-19.536,12.894,4.298,25.788,-31.258,-33.602
'[15:43:19.492 06/11/2076]',16.410,1.563,-15.629,9.377,28.523,-23.834,-9.768,17.582,-6.252,-31.648,-8.987,17.582,29.304,-42.589,-32.821,16.410,-23.834,-16.410,16.410,17.582,21.099,-39.853,-32.821
'[15:43:19.496 06/11/2076]',8.987,2.735,-12.894,11.722,20.708,-23.053,-10.159,23.053,-17.192,-31.648,-8.987,14.847,17.192,-41.026,-35.556,15.629,-27.741,-16.020,13.675,16.801,27.350,-38.291,-35.556
'[15:43:19.500 06/11/2076]',15.629,9.768,-7.033,19.145,32.039,-22.271,-9.768,39.072,-16.410,-30.867,-10.940,25.788,12.112,-36.337,-33.993,24.225,-30.085,-14.457,7.814,10.940,32.821,-33.211,-33.993
'[15:43:19.504 06/11/2076]',15.238,8.596,-7.424,23.834,31.648,-26.960,-7.033,42.979,-11.331,-28.913,-11.331,32.039,20.317,-36.337,-32.821,28.132,-34.383,-11.722,8.205,11.331,40.244,-32.039,-32.821
'[15:43:19.508 06/11/2076]',4.689,3.126,-5.470,26.960,16.020,-30.867,-3.126,48.449,-16.020,-24.615,-6.642,22.662,12.894,-29.304,-25.788,17.192,-37.118,-9.768,6.252,13.284,39.463,-29.304,-25.788
'[15:43:19.512 06/11/2076]',-3.126,2.735,-9.377,31.648,2.344,-28.913,-5.079,54.701,-7.814,-20.317,-5.079,16.020,14.847,-19.927,-19.536,6.642,-33.602,-12.112,10.159,10.549,37.900,-27.350,-19.536
'[15:43:19.516 06/11/2076]',-10.159,-1.954,-16.020,33.211,-10.549,-27.741,-4.298,48.059,-4.298,-11.722,-5.861,22.662,24.615,-21.099,-19.536,17.192,-25.006,-10.940,16.801,17.192,33.993,-27.350,-19.536
'[15:43:19.520 06/11/2076]',-10.549,-3.516,-13.675,29.695,-14.066,-23.053,1.563,37.118,-5.079,-5.079,-3.907,23.443,29.304,-28.132,-16.020,24.225,-15.629,-9.768,14.457,21.880,30.476,-28.132,-16.020
'[15:43:19.523 06/11/2076]',-0.781,0.000,-15.238,32.039,-1.172,-21.490,-2.735,42.198,6.642,-5.470,-7.424,8.987,27.350,-17.192,-16.801,9.377,-13.284,-16.410,16.020,14.847,31.258,-22.662,-16.801
'[15:43:19.527 06/11/2076]',6.642,-0.781,-20.708,26.569,4.689,-22.271,-9.768,39.463,-0.781,-3.126,-14.066,3.516,17.192,-12.112,-20.708,0.391,-12.894,-24.615,21.490,9.377,33.993,-17.973,-20.708
'[15:43:19.531 06/11/2076]',4.689,0.391,-14.847,20.317,7.814,-24.225,-1.954,28.132,6.642,1.563,-17.582,6.252,32.039,-18.755,-21.099,5.079,-7.424,-23.443,15.629,14.066,33.211,-17.582,-21.099
'[15:43:19.535 06/11/2076]',-0.781,1.563,-16.020,18.364,10.549,-32.821,0.781,25.006,15.238,4.298,-20.708,2.344,38.291,-12.112,-23.443,-0.391,-3.126,-26.569,16.801,8.205,39.463,-15.238,-23.443
'[15:43:19.539 06/11/2076]',-8.596,0.000,-24.615,15.629,-1.172,-37.118,-10.159,30.867,10.549,3.126,-33.602,3.126,24.225,3.907,-25.788,-17.973,-2.344,-40.244,25.397,-8.205,53.919,-7.424,-25.788
'[15:43:19.543 06/11/2076]',3.907,0.391,-23.834,4.298,11.722,-38.681,-8.596,19.536,8.596,6.642,-33.211,-6.252,20.708,8.987,-21.880,-30.867,-1.563,-41.416,24.615,-11.722,55.482,-4.689,-21.880
'[15:43:19.547 06/11/2076]',14.847,-3.907,-31.648,0.000,25.397,-39.853,-10.159,3.907,6.252,6.252,-30.085,-19.145,20.317,3.907,-23.834,-36.337,-7.033,-36.728,32.430,0.391,46.886,-7.814,-23.834
'[15:43:19.551 06/11/2076]',16.020,-12.112,-41.416,-1.954,17.973,-33.211,-19.927,-3.907,-0.781,2.735,-28.913,-21.490,15.238,0.391,-25.397,-38.291,-18.755,-38.291,42.198,11.722,35.556,-8.205,-25.397
'[15:43:19.555 06/11/2076]',20.708,-8.596,-33.602,-10.940,23.053,-26.960,-20.317,-8.205,-3.516,4.689,-23.834,-18.755,19.536,-1.563,-25.788,-32.430,-21.880,-33.993,34.383,17.192,27.350,-4.298,-25.788
'[15:43:19.559 06/11/2076]',15.629,-3.516,-27.350,-10.940,26.569,-30.085,-15.629,-6.642,-2.735,5.470,-18.755,-20.708,29.695,-4.298,-27.350,-34.383,-21.880,-26.178,28.132,20.317,28.913,-5.470,-27.350
'[15:43:19.563 06/11/2076]',-1.954,0.000,-26.178,-8.596,6.642,-28.913,-14.457,-0.781,-0.781,1.563,-17.192,-22.662,30.867,0.391,-29.695,-40.244,-24.225,-21.490,26.960,16.801,35.165,-3.516,-29.695
'[15:43:19.566 06/11/2076]',15.629,5.079,-21.099,-12.894,22.271,-28.132,-9.377,1.563,-0.391,-0.391,-14.847,-14.847,34.774,0.391,-27.741,-37.509,-19.927,-18.364,21.880,12.894,37.509,-0.391,-27.741
'[15:43:19.570 06/11/2076]',25.788,8.205,-20.708,-11.722,31.648,-27.741,-4.298,1.172,6.252,-2.344,-12.503,-10.940,49.231,-6.252,-33.602,-28.913,-17.192,-11.722,21.490,13.284,39.072,-2.344,-33.602
'[15:43:19.574 06/11/2076]',14.847,4.298,-25.788,-8.987,16.020,-28.132,-5.861,1.954,0.391,-5.861,-10.940,-22.662,37.118,-3.907,-31.648,-41.807,-19.927,-14.066,26.569,13.675,38.681,-5.861,-31.648
'[15:43:19.578 06/11/2076]',14.066,3.907,-26.569,-12.112,10.940,-26.569,-9.768,4.689,-7.424,-8.205,-11.722,-30.867,25.397,2.735,-38.681,-48.840,-17.973,-21.099,27.350,7.424,40.635,-4.689,-38.681
'[15:43:19.582 06/11/2076]',8.987,0.000,-24.225,-14.066,6.642,-29.695,-7.033,-0.391,-6.252,-5.079,-8.205,-21.099,35.946,-3.126,-41.416,-33.211,-14.847,-17.582,25.006,13.675,34.383,-8.205,-41.416
'[15:43:19.586 06/11/2076]',16.020,-5.470,-29.695,-15.238,8.596,-25.397,-6.252,-11.331,-9.377,-4.298,-3.907,-20.317,39.072,-9.768,-41.026,-26.569,-14.847,-15.238,30.476,23.443,22.662,-11.722,-41.026
'[15:43:19.590 06/11/2076]',10.940,-7.424,-30.085,-16.801,0.391,-22.271,-15.238,-5.861,-14.847,-5.470,-4.298,-23.053,25.788,-3.907,-35.165,-35.556,-18.755,-21.880,30.867,16.410,21.880,-11.331,-35.165
'[15:43:19.594 06/11/2076]',10.940,-4.298,-27.741,-14.457,2.344,-22.662,-17.192,0.391,-17.582,-2.344,-5.861,-19.145,17.582,3.516,-27.350,-39.853,-16.020,-23.834,28.523,7.814,22.662,-5.470,-27.350
'[15:43:19.598 06/11/2076]',16.020,-4.298,-24.225,-3.126,10.549,-24.615,-5.079,2.344,-19.145,0.391,-5.470,-14.457,17.973,-0.781,-27.350,-28.913,-9.768,-19.145,25.006,10.549,25.006,-6.252,-27.350
'[15:43:19.602 06/11/2076]',2.735,-3.907,-19.145,1.172,1.563,-29.304,-1.172,8.987,-21.099,0.391,-13.284,-12.112,11.722,-0.391,-27.350,-30.867,-6.252,-26.178,19.927,0.781,42.589,-5.470,-27.350
'[15:43:19.605 06/11/2076]',-5.079,2.735,-16.801,-4.298,-1.172,-33.211,-3.907,13.284,-26.178,-1.172,-20.317,-16.801,-1.954,10.159,-31.648,-41.416,-1.172,-35.946,17.582,-11.722,53.919,0.391,-31.648
'[15:43:19.609 06/11/2076]',-7.424,3.126,-21.880,-12.503,-1.954,-32.430,-6.642,2.344,-16.020,-8.987,-21.099,-25.788,5.470,5.861,-40.635,-44.542,-0.781,-37.900,22.662,-6.252,53.138,-0.391,-40.635
'[15:43:19.613 06/11/2076]',-10.549,-4.689,-26.960,-14.066,-4.298,-32.039,-12.503,-7.033,-17.192,-16.801,-17.582,-28.132,4.298,-5.861,-42.589,-36.728,-12.112,-35.946,27.741,9.377,35.165,-4.689,-42.589
'[15:43:19.617 06/11/2076]',-14.457,-9.377,-27.350,-16.020,-6.642,-32.039,-19.927,-9.377,-13.675,-20.708,-16.801,-26.569,5.861,-9.768,-43.370,-32.430,-18.364,-37.900,28.132,16.801,27.741,-6.642,-43.370
'[15:43:19.621 06/11/2076]',-4.298,-15.238,-33.211,-8.205,2.344,-31.648,-21.099,-10.549,-9.377,-21.880,-14.066,-17.192,15.629,-20.317,-43.761,-15.629,-20.708,-32.821,33.993,23.443,18.364,-9.768,-43.761
'[15:43:19.625 06/11/2076]',3.516,-13.675,-33.211,-5.079,12.894,-34.383,-18.755,-9.377,-8.596,-21.490,-12.503,-15.629,16.410,-24.225,-42.198,-10.159,-22.271,-30.867,33.993,22.271,14.847,-11.331,-42.198
'[15:43:19.629 06/11/2076]',3.907,-11.331,-29.695,-0.781,11.331,-28.523,-19.536,-1.954,-10.549,-18.755,-14.457,-17.192,9.768,-18.755,-39.463,-14.066,-17.973,-34.774,30.476,15.629,20.317,-11.331,-39.463
'[15:43:19.633 06/11/2076]',11.722,-9.768,-28.523,-0.781,16.410,-23.443,-18.755,-0.391,-14.847,-19.536,-14.457,-5.470,4.689,-18.364,-40.635,-0.391,-13.284,-36.337,29.304,12.894,20.708,-10.549,-40.635
'[15:43:19.637 06/11/2076]',11.331,-10.940,-23.443,0.391,24.615,-28.132,-17.582,-0.781,-14.847,-18.755,-13.675,8.596,10.159,-24.615,-39.463,13.284,-14.847,-36.728,24.225,17.973,17.192,-10.549,-39.463
'[15:43:19.641 06/11/2076]',3.126,-14.457,-16.020,4.689,20.708,-28.913,-21.099,5.470,-17.582,-23.443,-11.331,0.781,-6.252,-14.457,-31.258,-0.391,-18.755,-43.761,16.801,16.801,17.973,-7.033,-31.258
'[15:43:19.645 06/11/2076]',-2.735,-13.675,-15.629,9.377,14.847,-28.132,-21.490,11.722,-20.708,-25.397,-9.768,-5.079,-17.582,-6.252,-27.350,-10.549,-21.490,-45.714,16.410,12.112,21.880,-5.079,-27.350
'[15:43:19.648 06/11/2076]',-0.781,-12.112,-18.755,10.940,15.238,-23.443,-15.629,2.344,-16.020,-23.834,-7.033,1.954,-1.954,-20.708,-23.443,0.000,-19.536,-36.728,19.536,23.053,14.847,-12.894,-23.443
'[15:43:19.652 06/11/2076]',-6.252,-9.768,-24.225,16.410,8.205,-17.582,-12.503,-2.735,-11.722,-20.708,-8.205,3.907,8.596,-23.834,-27.741,5.079,-16.020,-31.258,25.006,28.523,12.112,-10.159,-27.741
'[15:43:19.656 06/11/2076]',-11.331,-5.079,-17.582,25.397,-0.391,-8.205,-12.894,13.284,-13.675,-15.238,-12.112,4.298,-1.954,-10.159,-22.271,-3.126,-13.675,-29.695,18.364,12.894,23.053,-3.126,-22.271
'[15:43:19.660 06/11/2076]',-12.503,-0.391,-8.205,24.615,-0.391,-3.126,-11.331,20.317,-16.020,-10.940,-15.238,10.159,-4.298,-10.159,-14.847,-4.298,-9.377,-24.225,8.987,6.252,26.178,-2.735,-14.847
'[15:43:19.664 06/11/2076]',-16.020,-4.298,-3.126,36.337,-1.172,-7.814,-0.781,21.880,-15.629,-3.516,-19.927,22.662,3.516,-13.675,-17.582,10.549,-6.642,-15.238,3.907,7.814,30.867,-2.735,-17.582
'[15:43:19.668 06/11/2076]',-13.284,-0.391,6.252,33.602,1.172,-4.689,5.079,24.225,-18.755,-0.391,-17.973,11.331,-10.159,-1.563,-14.066,-0.781,-3.516,-17.973,-5.470,-5.079,39.072,2.735,-14.066
'[15:43:19.672 06/11/2076]',-4.298,5.470,5.079,26.960,16.801,0.391,-1.954,17.192,-11.331,-1.954,-17.973,9.377,-5.079,-7.424,-9.768,-0.781,-1.563,-21.490,-4.298,-6.252,34.383,-1.954,-9.768
'[15:43:19.676 06/11/2076]',-1.172,9.377,-4.298,23.053,26.178,1.954,-9.377,6.642,-10.940,-2.735,-17.582,11.331,-3.126,-18.755,-7.424,7.424,-3.516,-22.271,5.079,-2.344,15.629,-7.424,-7.424
'[15:43:19.680 06/11/2076]',-1.172,9.768,-2.344,21.490,28.132,4.298,-11.331,5.470,-14.847,-3.126,-17.192,6.252,-15.629,-17.582,-6.252,8.987,-6.642,-24.615,3.126,-0.391,3.126,-8.205,-6.252
'[15:43:19.684 06/11/2076]',-1.954,7.814,8.596,25.006,27.741,9.377,-12.112,13.675,-12.503,-1.563,-17.192,16.020,-15.238,-19.927,-3.126,21.880,-8.205,-24.225,-7.814,-0.781,-2.344,-8.205,-3.126
'[15:43:19.688 06/11/2076]',-6.642,3.907,10.159,25.788,17.192,12.112,-9.377,12.112,-16.410,1.954,-18.364,25.788,-17.192,-20.708,-3.516,33.211,-6.642,-23.443,-9.377,3.126,-5.470,-9.768,-3.516
'[15:43:19.691 06/11/2076]',-3.126,5.470,16.801,26.569,15.629,16.020,0.000,14.066,-22.662,6.642,-16.410,16.020,-26.178,-8.205,-7.814,25.788,-2.344,-20.317,-16.020,0.391,-1.172,-6.252,-7.814
'[15:43:19.695 06/11/2076]',1.172,11.331,18.364,25.788,21.490,18.364,3.126,14.066,-21.490,11.722,-12.503,4.689,-26.569,3.516,-6.252,10.940,3.907,-16.410,-17.582,-6.642,7.033,-2.735,-6.252
'[15:43:19.699 06/11/2076]',2.735,17.192,15.238,23.443,25.006,19.145,7.424,7.424,-12.894,13.284,-9.768,14.457,-14.847,-1.563,0.391,20.317,11.722,-7.814,-14.457,-5.470,4.298,-7.033,0.391
'[15:43:19.703 06/11/2076]',7.814,18.755,16.020,21.880,33.211,17.582,11.331,3.516,-9.377,18.364,-8.987,18.755,-3.126,-6.252,0.391,27.741,16.410,0.391,-15.238,-4.298,1.563,-5.861,0.391
'[15:43:19.707 06/11/2076]',3.126,23.053,23.443,17.192,27.741,18.755,12.112,8.596,1.563,17.582,-8.205,3.907,-4.298,4.689,1.172,11.722,16.020,-1.172,-22.662,-14.457,4.689,0.781,1.172
'[15:43:19.711 06/11/2076]',5.470,24.225,28.132,12.894,30.476,18.364,10.159,12.503,6.642,14.847,-7.424,-3.126,-7.033,7.033,4.298,5.861,13.675,-3.126,-27.350,-19.145,5.079,1.563,4.298
'[15:43:19.715 06/11/2076]',11.331,19.536,33.602,9.768,36.337,16.801,16.020,6.252,8.596,17.973,-8.596,0.000,0.391,0.000,0.391,15.629,16.020,-0.781,-32.821,-7.814,0.391,2.344,0.391
'[15:43:19.719 06/11/2076]',14.847,17.192,39.072,10.159,39.853,14.457,20.708,7.033,8.987,17.973,-10.549,0.391,0.391,0.391,-3.907,19.145,16.410,-5.861,-38.291,-6.642,4.689,3.516,-3.907
'[15:43:19.723 06/11/2076]',0.781,13.675,37.118,10.549,26.569,7.033,14.066,14.066,-1.563,16.020,-16.801,-1.172,-21.099,8.596,-0.391,7.424,12.503,-17.582,-36.337,-15.629,14.847,3.516,-0.391
'[15:43:19.727 06/11/2076]',-10.159,10.940,29.695,18.755,18.364,-5.079,12.894,24.225,1.954,15.238,-25.006,1.172,-26.178,21.099,-2.735,0.781,12.894,-24.615,-28.913,-25.788,26.960,10.940,-2.735
'[15:43:19.730 06/11/2076]',-11.722,7.033,26.960,12.894,15.238,-9.768,18.364,11.331,13.675,17.192,-23.443,-1.172,-10.549,17.192,-7.814,6.252,10.940,-23.443,-26.178,-19.536,29.304,8.987,-7.814
'[15:43:19.734 06/11/2076]',-23.834,9.377,41.026,8.205,2.735,-6.642,25.006,13.675,24.615,17.192,-15.238,-13.284,-5.079,16.020,-3.516,5.079,9.768,-21.880,-40.244,-23.053,28.132,8.596,-3.516
'[15:43:19.738 06/11/2076]',-18.755,7.814,42.198,12.894,8.205,-2.344,19.536,19.536,25.397,16.410,-7.424,-8.596,-1.563,7.424,4.689,14.066,7.814,-17.192,-41.416,-14.847,13.284,8.596,4.689
'[15:43:19.742 06/11/2076]',-8.205,6.252,41.807,9.377,17.192,-2.735,20.708,14.847,21.099,18.364,-1.954,-10.940,3.516,-1.563,7.814,15.238,8.205,-11.331,-41.026,-3.516,6.642,3.907,7.814
'[15:43:19.746 06/11/2076]',0.781,1.954,39.463,9.377,19.927,0.391,18.364,13.675,11.722,19.145,0.391,-17.582,-3.907,-4.298,11.722,9.768,9.377,-13.284,-38.681,-1.172,4.298,0.391,11.722
'[15:43:19.750 06/11/2076]',8.205,-1.172,29.695,13.284,29.304,-5.470,12.894,14.457,8.205,21.490,-1.563,-9.768,-3.907,-4.298,13.284,13.284,12.894,-16.410,-28.913,0.000,4.298,1.563,13.284
'[15:43:19.754 06/11/2076]',17.582,-4.689,16.801,9.768,36.728,-8.987,10.940,1.563,15.238,21.880,-5.470,-5.470,7.424,-8.596,7.033,19.145,15.629,-18.364,-16.020,3.126,6.642,1.563,7.033
'[15:43:19.758 06/11/2076]',12.112,-0.391,20.317,3.126,32.039,-5.470,13.675,-3.516,22.662,18.755,-6.642,-16.801,7.033,-11.331,10.549,10.549,13.675,-20.708,-19.536,-3.907,8.596,0.391,10.549
'[15:43:19.762 06/11/2076]',0.391,2.735,16.801,11.331,23.053,-3.516,8.205,4.298,32.039,12.503,-10.940,-25.397,3.126,-3.516,3.126,4.689,10.940,-22.271,-16.020,-10.940,13.675,3.126,3.126
'[15:43:19.766 06/11/2076]',-3.516,-0.391,9.768,14.847,23.053,-10.159,10.159,-1.954,39.463,10.159,-14.066,-12.112,13.675,-7.424,1.563,14.847,8.987,-16.020,-8.987,-3.907,14.847,6.252,1.563
'[15:43:19.770 06/11/2076]',1.954,-3.907,4.298,12.503,28.523,-9.768,13.284,-16.801,35.946,11.722,-16.801,-12.503,17.192,-14.847,-2.344,18.364,7.424,-12.894,-3.516,2.344,20.317,5.861,-2.344
'[15:43:19.773 06/11/2076]',-2.735,-3.516,1.954,12.503,19.145,-8.205,9.377,-10.940,40.635,8.987,-17.582,-24.615,8.987,-3.516,-2.735,4.298,4.298,-17.192,-1.172,-0.781,19.927,9.768,-2.735
'[15:43:19.777 06/11/2076]',-5.470,-2.344,2.735,16.020,11.722,-8.596,7.814,1.172,33.993,13.284,-17.582,-21.099,0.391,1.954,6.252,-1.172,3.907,-17.973,-1.954,-7.814,17.582,15.629,6.252
'[15:43:19.781 06/11/2076]',5.861,-4.689,-3.516,15.629,13.675,-9.377,16.020,-6.252,29.304,19.927,-15.629,-15.629,8.987,-7.814,7.814,8.596,9.377,-11.331,4.298,2.344,7.424,10.549,7.814
'[15:43:19.785 06/11/2076]',3.126,-1.954,-11.722,13.284,7.814,-12.112,18.364,-10.159,25.788,23.834,-13.675,-19.536,8.205,-8.205,7.033,7.814,11.722,-7.814,12.503,0.391,2.735,7.424,7.033
'[15:43:19.789 06/11/2076]',0.000,-5.079,-16.020,19.145,3.516,-20.708,10.940,3.516,14.066,27.350,-18.364,-15.238,-7.814,6.252,15.629,-5.470,13.284,-8.596,16.801,-15.238,12.112,13.284,15.629
'[15:43:19.793 06/11/2076]',4.689,-8.596,-17.973,12.112,11.722,-25.788,13.675,-9.768,9.768,32.821,-14.457,-16.020,-6.642,6.252,16.410,-3.907,16.801,-1.563,18.755,-14.066,12.894,13.675,16.410
'[15:43:19.797 06/11/2076]',1.954,-8.205,-24.225,0.781,3.516,-16.410,13.284,-31.648,12.112,31.258,-8.987,-32.039,-3.516,-0.781,9.377,-1.954,16.020,4.689,25.006,-2.735,-1.172,5.079,9.377
'[15:43:19.801 06/11/2076]',4.298,-10.159,-15.238,9.377,5.470,-7.814,8.205,-17.582,12.503,23.834,-5.470,-24.225,-8.987,-10.159,14.066,12.112,12.112,1.954,16.020,-2.344,-12.894,2.344,14.066
'[15:43:19.805 06/11/2076]',9.377,-10.159,-17.192,3.126,12.503,-4.298,3.516,-25.397,14.457,17.582,-6.642,-19.536,-3.516,-23.834,8.987,24.615,10.159,-2.735,17.973,2.344,-21.880,-0.781,8.987
'[15:43:19.809 06/11/2076]',6.642,-9.377,-20.708,0.781,12.894,-3.907,1.172,-32.430,17.973,9.377,-8.205,-24.615,0.391,-34.383,4.298,23.834,7.424,-6.642,21.490,5.861,-23.834,-8.987,4.298
'[15:43:19.813 06/11/2076]',12.112,-8.596,-15.238,5.470,28.913,-10.940,-0.781,-22.271,19.145,4.298,-8.987,-24.225,-1.172,-34.774,8.205,17.582,2.735,-10.940,16.020,0.391,-16.020,-9.768,8.205
'[15:43:19.816 06/11/2076]',15.238,-8.596,-10.549,6.252,37.509,-14.847,0.391,-19.927,19.145,1.563,-8.596,-13.675,0.391,-33.993,10.159,20.708,1.172,-10.549,11.331,-0.391,-9.377,-7.424,10.159
'[15:43:19.820 06/11/2076]',10.159,-7.814,-5.470,7.033,30.867,-11.722,3.907,-18.364,20.708,3.126,-3.907,-3.516,10.549,-37.509,10.159,32.039,1.954,-4.689,6.252,4.298,-12.112,-10.159,10.159
'[15:43:19.824 06/11/2076]',7.424,-5.861,-9.377,11.331,25.788,-12.112,2.344,-12.894,12.503,-0.391,0.781,-8.987,-0.781,-29.695,12.112,21.490,1.172,-3.126,10.159,6.252,-15.238,-10.159,12.112
'[15:43:19.828 06/11/2076]',11.331,-5.079,-6.252,12.894,25.006,-9.768,3.516,-4.689,1.954,-3.907,4.298,-7.424,-13.675,-25.006,13.675,19.927,1.172,0.000,7.033,1.172,-16.020,-8.596,13.675
'[15:43:19.832 06/11/2076]',14.066,-6.252,-4.298,10.159,26.960,-12.112,10.549,-11.331,5.470,-3.907,10.159,3.516,1.563,-31.648,14.847,30.476,3.516,11.331,5.079,7.424,-19.145,-10.940,14.847
'[15:43:19.836 06/11/2076]',19.536,-8.596,-3.516,10.549,35.556,-15.238,16.020,-17.973,3.907,-6.252,17.582,5.470,8.205,-38.681,14.457,37.118,3.516,19.145,4.298,13.284,-21.099,-13.284,14.457
'[15:43:19.840 06/11/2076]',19.927,-7.814,-0.391,13.675,31.648,-12.112,13.284,-6.642,-3.516,-10.940,17.582,4.298,-5.861,-30.867,17.973,26.178,-0.781,14.457,1.172,1.954,-12.894,-7.814,17.973
'[15:43:19.844 06/11/2076]',14.066,-8.205,2.344,17.973,23.443,-12.112,12.503,4.689,1.172,-12.894,16.020,11.722,-3.126,-21.099,20.317,19.927,-1.172,14.457,-1.563,-7.033,-3.516,-3.516,20.317
'[15:43:19.848 06/11/2076]',3.907,-10.549,-4.689,22.271,8.205,-13.675,18.364,-2.344,-1.172,-10.549,13.675,17.192,1.954,-18.755,10.549,24.615,1.954,16.410,5.470,0.781,-2.344,-3.126,10.549
'[15:43:19.852 06/11/2076]',0.391,-14.847,-5.861,29.695,5.470,-21.099,21.880,3.516,-3.126,-9.377,5.470,31.648,2.344,-10.549,6.642,26.178,2.735,15.238,6.642,-4.689,11.722,1.172,6.642
'[15:43:19.855 06/11/2076]',0.000,-11.722,-5.861,25.788,11.722,-30.476,16.020,9.768,7.814,-13.675,2.344,30.867,1.954,5.079,3.126,16.801,0.781,9.768,6.642,-14.847,19.927,5.079,3.126
'[15:43:19.859 06/11/2076]',8.205,-8.987,-8.987,17.973,25.397,-32.039,17.973,-2.735,10.159,-12.112,7.033,26.960,5.079,5.861,2.344,17.973,0.000,13.675,9.768,-10.159,14.066,3.126,2.344
'[15:43:19.863 06/11/2076]',12.112,-10.940,-12.894,24.615,31.648,-26.569,15.629,-8.987,8.205,-14.457,12.894,28.132,3.516,-3.907,5.079,30.085,-5.470,14.847,13.675,0.391,3.126,-1.563,5.079
'[15:43:19.867 06/11/2076]',21.099,-9.768,-10.940,22.271,40.244,-19.927,14.066,-11.722,11.331,-15.629,16.410,28.523,2.344,-2.735,11.331,28.913,-6.642,13.284,11.722,0.000,0.391,-0.391,11.331
'[15:43:19.871 06/11/2076]',21.490,-8.987,-5.079,22.662,36.337,-9.377,15.629,-12.112,7.033,-12.503,17.973,34.774,6.252,-5.079,11.722,33.993,-6.252,18.364,5.861,1.172,4.298,0.391,11.722
'[15:43:19.875 06/11/2076]',19.927,-10.940,-6.252,27.350,32.039,-5.861,17.192,-13.284,5.079,-11.331,17.192,27.350,9.377,0.000,7.033,22.271,-7.814,20.708,7.033,3.126,15.629,1.172,7.033
'[15:43:19.879 06/11/2076]',6.642,-8.205,6.252,18.755,16.020,-3.126,17.192,-5.861,8.596,-12.112,16.410,17.582,9.377,10.549,4.689,5.470,-7.814,19.927,-5.470,-5.079,31.648,1.172,4.689
'[15:43:19.883 06/11/2076]',-2.735,-7.033,8.987,16.020,5.470,-1.563,18.364,-6.252,7.814,-8.596,17.973,21.099,16.410,8.987,3.516,8.987,-4.298,22.662,-8.205,-6.252,44.151,-2.735,3.516
'[15:43:19.887 06/11/2076]',4.298,-13.284,1.563,16.020,3.907,1.172,19.927,-16.410,13.675,-7.033,17.582,23.834,30.867,2.344,-3.907,19.145,-1.563,22.271,-0.781,3.516,42.198,-7.424,-3.907
'[15:43:19.891 06/11/2076]',0.391,-10.940,5.861,12.894,3.907,-3.907,19.145,-10.940,11.331,-6.252,16.801,12.112,18.755,7.033,2.344,5.861,-0.781,16.410,-5.079,-5.079,44.151,-5.861,2.344
'[15:43:19.895 06/11/2076]',7.424,-8.596,0.391,8.205,10.940,-4.689,16.020,-14.066,1.172,-6.642,15.238,3.516,1.954,7.814,6.252,-2.735,-2.735,14.066,0.391,-9.377,37.509,-4.689,6.252
'[15:43:19.898 06/11/2076]',26.960,-5.861,-0.391,3.516,26.569,-0.781,19.927,-20.708,8.987,-7.424,16.410,11.722,14.457,-5.470,5.079,15.629,-4.298,19.536,1.172,5.079,11.722,-6.252,5.079
'[15:43:19.902 06/11/2076]',21.880,-2.344,2.735,3.907,23.834,0.391,22.662,-19.927,11.722,-4.689,17.973,18.755,16.410,-14.066,17.973,23.443,-7.424,24.225,-1.954,8.205,-3.907,-3.516,17.973
'[15:43:19.906 06/11/2076]',-1.954,4.689,2.735,4.298,0.391,1.172,15.629,-6.642,8.596,-5.079,16.410,16.410,0.391,-3.907,26.960,12.894,-11.331,18.364,-1.954,-5.079,-3.126,2.344,26.960
'[15:43:19.910 06/11/2076]',0.781,9.377,0.781,7.424,0.000,1.954,16.801,0.391,16.020,-2.344,16.020,17.582,0.781,5.470,32.039,8.596,-8.987,21.490,0.000,-13.284,-1.172,9.768,32.039
'[15:43:19.914 06/11/2076]',6.252,5.079,-1.954,23.834,12.894,-10.549,26.178,4.298,13.675,7.033,14.847,21.099,3.907,8.205,33.211,12.503,-3.516,29.304,2.735,-10.940,7.424,12.503,33.211
'[15:43:19.918 06/11/2076]',7.033,7.033,1.172,21.099,17.582,-14.847,32.821,1.563,10.159,13.675,18.364,3.907,-3.907,23.053,32.039,-3.907,0.781,28.132,-0.391,-23.053,20.708,21.099,32.039
'[15:43:19.922 06/11/2076]',18.364,11.331,4.689,16.410,31.648,-6.252,29.695,-1.954,14.847,13.675,21.099,0.391,0.000,25.006,28.523,-2.735,4.298,31.648,-3.907,-23.053,21.880,19.145,28.523
'[15:43:19.926 06/11/2076]',21.099,7.033,-3.907,26.960,38.291,-4.298,25.006,-7.814,17.582,14.457,23.834,4.689,8.205,15.629,30.867,7.033,4.689,36.337,4.689,-8.987,5.470,15.238,30.867
'[15:43:19.930 06/11/2076]',3.516,7.424,2.735,21.880,23.443,0.391,23.834,-10.940,10.549,15.629,27.741,1.563,2.735,13.284,33.211,7.033,6.252,35.556,-1.954,-12.894,10.159,14.066,33.211
'[15:43:19.934 06/11/2076]',-7.424,9.377,0.391,26.178,10.549,7.033,19.536,-8.596,13.284,14.457,28.913,8.596,4.298,12.503,32.821,15.629,10.549,36.337,0.391,-13.284,11.722,14.066,32.821
'[15:43:19.938 06/11/2076]',5.079,5.861,-9.768,29.695,24.225,4.689,17.192,-15.238,4.689,16.020,27.350,18.364,3.126,5.470,33.602,25.006,13.675,36.337,10.549,-5.861,7.424,14.066,33.602
'[15:43:19.941 06/11/2076]',5.079,6.252,2.344,26.178,22.271,8.205,21.099,-11.331,5.079,13.675,27.350,10.549,-4.298,9.768,34.383,17.192,18.755,34.383,-1.563,-11.331,12.503,18.364,34.383
'[15:43:19.945 06/11/2076]',12.112,10.940,9.377,25.788,33.211,12.112,22.662,-9.768,24.225,8.987,26.178,0.391,-0.781,18.364,35.946,7.814,20.317,32.039,-8.596,-18.755,16.410,21.490,35.946
'[15:43:19.949 06/11/2076]',21.880,11.722,7.814,25.397,52.747,7.814,23.443,-15.238,41.026,4.298,22.662,11.331,14.066,13.284,32.039,21.490,18.755,32.039,-7.033,-12.894,6.252,21.880,32.039
'[15:43:19.953 06/11/2076]',20.317,11.722,14.847,21.099,56.264,4.298,27.350,-18.755,50.012,1.172,20.708,21.490,23.834,7.814,32.039,31.258,17.192,32.821,-14.066,-11.722,7.033,21.490,32.039
'[15:43:19.957 06/11/2076]',11.331,21.099,24.615,15.629,55.873,3.516,25.006,-9.768,42.979,-0.391,23.053,10.940,8.596,14.847,35.946,17.973,10.159,26.960,-23.834,-26.178,13.675,24.225,35.946
'[15:43:19.961 06/11/2076]',-5.470,26.960,19.927,8.205,36.337,4.689,20.317,-10.940,35.165,-5.079,27.350,10.549,0.000,14.457,37.509,16.410,5.861,25.006,-19.145,-26.960,5.861,22.662,37.509
'[15:43:19.965 06/11/2076]',5.861,23.834,14.847,8.596,41.026,6.642,23.443,-16.410,23.053,-4.298,29.695,22.271,3.516,0.391,39.463,26.960,5.861,31.648,-14.066,-15.238,-0.781,16.801,39.463
'[15:43:19.969 06/11/2076]',3.516,19.927,14.457,8.205,29.695,7.424,26.569,-15.629,14.457,-4.298,30.476,26.178,-1.172,-0.391,41.026,28.913,8.205,31.258,-13.675,-14.066,-3.516,15.629,41.026
'[15:43:19.973 06/11/2076]',-7.424,18.364,10.940,12.503,14.847,3.907,21.880,-3.907,15.629,-3.907,27.350,27.350,-4.298,10.549,43.370,17.192,11.331,25.397,-10.159,-22.662,2.344,19.536,43.370
'[15:43:19.977 06/11/2076]',-6.642,16.801,5.470,15.238,9.768,-3.516,21.099,5.861,12.112,-1.563,19.536,30.867,-10.159,27.350,41.807,3.126,12.894,24.225,-4.689,-33.602,14.457,25.397,41.807
'[15:43:19.980 06/11/2076]',-4.689,15.238,18.364,10.549,10.549,-4.298,28.913,5.861,7.033,0.781,20.317,35.946,-9.377,23.053,38.291,13.284,15.629,27.741,-17.582,-31.648,14.847,23.834,38.291
'[15:43:19.984 06/11/2076]',-11.331,19.145,17.582,5.470,7.033,-4.298,26.960,3.126,5.861,-2.344,24.615,25.788,-11.331,25.006,33.993,7.814,12.894,25.788,-16.801,-31.258,13.675,24.615,33.993
'[15:43:19.988 06/11/2076]',-9.377,19.145,8.596,0.391,12.894,-2.344,15.629,-5.079,1.954,-8.596,23.053,33.993,-12.894,15.629,26.569,21.880,8.987,23.443,-7.814,-22.662,3.907,19.536,26.569
'[15:43:19.992 06/11/2076]',0.391,15.629,1.172,0.000,22.271,-0.781,12.112,-15.629,-0.781,-10.549,21.099,32.430,-12.894,7.424,23.053,25.006,7.814,23.053,-0.391,-12.112,-5.470,16.410,23.053
'[15:43:19.996 06/11/2076]',-11.722,13.284,-5.861,0.391,6.642,1.954,8.205,-18.755,3.516,-13.675,17.192,25.397,-13.675,8.987,19.536,17.582,8.205,18.364,6.642,-10.940,-5.079,16.020,19.536
'[15:43:20.000 06/11/2076]',-31.258,12.894,-11.722,-1.954,-12.503,2.735,3.907,-24.615,14.066,-11.331,13.675,29.695,-3.516,11.331,17.192,20.708,11.331,15.238,12.503,-16.020,-2.344,19.536,17.192
'[15:43:20.004 06/11/2076]',-6.642,11.722,-5.079,-5.861,8.596,5.861,5.470,-25.788,17.582,-10.159,10.940,35.165,0.000,8.987,16.801,28.523,11.331,13.284,5.861,-20.317,-1.563,23.053,16.801
'[15:43:20.008 06/11/2076]',6.642,16.801,1.172,-10.940,30.867,3.516,3.907,-24.225,16.020,-15.238,11.331,19.927,-10.940,10.159,15.238,18.755,8.205,5.861,-0.391,-26.960,-1.172,25.788,15.238
'[15:43:20.012 06/11/2076]',-1.563,20.708,-7.424,-9.377,28.913,1.172,-2.735,-25.006,9.768,-18.364,10.159,6.252,-20.317,12.894,9.768,5.861,3.516,-1.954,8.205,-32.039,4.298,27.741,9.768
'[15:43:20.016 06/11/2076]',16.410,19.145,-4.298,-7.033,44.542,3.126,0.391,-23.834,-1.954,-17.973,6.642,19.145,-26.569,4.298,7.424,20.317,4.298,-1.954,5.079,-25.788,-1.563,30.085,7.424
'[15:43:20.020 06/11/2076]',9.377,17.973,-5.079,-6.642,36.337,7.424,3.126,-31.648,16.801,-18.364,4.298,16.801,-3.907,-0.391,2.735,21.880,7.814,-1.172,5.861,-18.364,-1.172,32.430,2.735
'[15:43:20.023 06/11/2076]',-17.582,21.880,-6.252,-5.470,1.172,18.364,-1.954,-26.178,31.258,-18.755,4.298,3.126,1.172,13.284,3.516,1.563,9.768,-5.470,7.033,-24.225,7.033,38.291,3.516
'[15:43:20.027 06/11/2076]',-17.973,23.443,-3.907,-11.722,-2.344,21.880,-7.033,-22.662,30.085,-14.457,0.781,3.126,-2.735,26.960,3.126,-8.205,12.112,-9.768,4.689,-31.258,12.894,44.933,3.126
'[15:43:20.031 06/11/2076]',-4.298,23.443,-0.781,-12.112,13.284,17.582,-2.344,-23.443,30.476,-9.377,-1.954,8.987,7.814,26.960,-1.563,-4.689,15.238,-7.424,1.563,-27.350,22.662,42.979,-1.563
'[15:43:20.035 06/11/2076]',5.470,25.006,-2.344,-11.331,26.569,11.331,0.391,-21.490,19.145,-4.689,-4.298,8.205,7.814,32.821,-7.814,-13.284,14.847,-11.331,3.126,-30.476,39.463,42.198,-7.814
'[15:43:20.039 06/11/2076]',4.298,26.960,-7.033,-8.205,22.662,2.735,-5.079,-3.907,0.391,-3.516,-14.457,15.238,-10.940,51.184,-11.331,-30.085,13.284,-25.397,7.814,-46.886,59.389,50.403,-11.331
'[15:43:20.043 06/11/2076]',6.252,26.178,-6.642,-14.457,22.662,-0.781,-1.563,-8.596,0.391,-5.079,-18.364,21.490,-3.907,45.324,-13.675,-29.304,17.582,-26.178,7.424,-45.324,63.297,48.840,-13.675
'[15:43:20.047 06/11/2076]',-8.596,24.615,-2.735,-21.099,2.735,5.079,3.126,-19.536,5.470,-7.424,-11.722,8.205,3.907,38.291,-15.629,-32.039,16.410,-23.443,3.516,-33.602,58.999,39.853,-15.629
'[15:43:20.051 06/11/2076]',-20.708,22.662,-5.861,-23.443,-6.252,4.689,-6.642,-18.755,7.033,-16.020,-9.377,11.722,4.298,26.178,-13.284,-24.225,10.549,-31.648,6.642,-25.397,44.542,32.039,-13.284
'[15:43:20.055 06/11/2076]',-8.205,17.192,-9.768,-26.960,10.159,-0.781,-14.066,-22.662,1.563,-21.880,-9.768,19.927,3.516,9.768,-13.675,-9.768,6.642,-35.556,10.549,-15.629,32.039,23.443,-13.675
'[15:43:20.059 06/11/2076]',5.861,15.629,-5.079,-23.443,28.913,-5.079,-15.629,-15.629,2.735,-27.350,-8.205,21.490,5.470,1.172,-11.331,-6.642,1.954,-35.165,5.861,-8.596,26.960,13.284,-11.331
'[15:43:20.063 06/11/2076]',1.172,13.675,-13.675,-9.377,23.053,-7.814,-21.880,-1.172,0.000,-33.211,-10.549,24.225,0.000,1.563,-12.894,-8.596,-2.344,-40.244,14.457,-9.768,28.523,10.159,-12.894
'[15:43:20.066 06/11/2076]',-5.861,11.331,-22.271,-13.675,9.377,-9.377,-22.662,-7.033,-1.954,-37.118,-14.847,36.337,-1.954,-3.516,-14.066,1.172,-3.516,-42.198,23.053,-7.033,21.880,10.159,-14.066
'[15:43:20.070 06/11/2076]',-7.033,8.596,-10.549,-21.880,4.689,-7.814,-17.192,-11.331,-3.126,-37.509,-13.675,43.761,0.781,-12.503,-11.331,11.331,-5.470,-38.291,11.331,-6.252,23.834,7.033,-11.331
'[15:43:20.074 06/11/2076]',-17.582,9.377,-12.894,-14.457,-4.689,-8.205,-18.755,-3.516,-1.172,-41.026,-15.629,32.821,-7.033,-7.814,-13.675,3.516,-9.768,-42.198,13.675,-10.159,25.006,5.470,-13.675
'[15:43:20.078 06/11/2076]',-25.006,10.159,-16.801,-21.880,-8.987,-14.847,-21.490,-8.205,-3.516,-41.416,-19.145,26.960,-14.066,-5.470,-12.503,-5.079,-13.284,-48.449,17.582,-17.582,29.304,5.861,-12.503
'[15:43:20.082 06/11/2076]',-9.377,7.424,-10.159,-21.099,8.205,-14.066,-16.020,-11.331,-1.172,-38.681,-19.927,37.118,-3.907,-15.629,-13.284,8.987,-10.159,-42.198,10.940,-10.159,30.085,1.563,-13.284
'[15:43:20.086 06/11/2076]',0.781,9.768,-10.549,-12.894,19.536,-8.596,-13.675,-11.722,6.642,-39.072,-17.582,40.635,6.642,-22.662,-13.284,19.927,-8.205,-36.337,11.331,-1.563,21.099,1.563,-13.284
'[15:43:20.090 06/11/2076]',-3.126,12.894,-8.987,-15.238,14.847,-3.516,-17.582,-8.205,2.735,-40.635,-18.755,37.118,-5.861,-11.722,-11.331,10.159,-10.940,-39.072,9.768,-11.722,26.178,8.205,-11.331
'[15:43:20.094 06/11/2076]',-8.596,16.020,-0.781,-14.457,6.252,1.954,-15.629,-1.172,-2.344,-37.509,-17.973,42.979,-16.020,-3.126,-6.642,9.768,-8.987,-33.211,1.563,-20.708,32.821,14.457,-6.642
'[15:43:20.098 06/11/2076]',-9.377,14.847,0.781,-7.814,6.642,1.172,-5.470,-3.907,-7.033,-34.383,-14.457,46.496,-13.675,-3.126,-6.252,14.847,-3.126,-26.178,0.000,-14.457,35.556,14.457,-6.252
'[15:43:20.102 06/11/2076]',-28.523,13.675,3.907,-4.298,-9.768,-7.033,1.172,1.172,-6.642,-30.085,-18.364,55.873,-12.112,6.642,-8.205,13.284,-3.516,-25.397,-3.126,-25.788,51.575,21.880,-8.205
'[15:43:20.105 06/11/2076]',-43.370,17.192,6.252,-9.768,-24.225,-10.159,-0.781,6.252,-4.298,-27.350,-18.755,56.264,-14.847,21.880,-1.563,-0.781,-2.735,-27.350,-5.470,-38.291,61.734,27.741,-1.563
'[15:43:20.109 06/11/2076]',-13.675,17.582,3.126,-17.192,5.861,-10.940,-3.126,-1.563,-0.781,-31.258,-13.284,56.264,-10.159,21.099,-1.954,0.391,-8.596,-21.490,-2.344,-28.132,43.370,26.569,-1.954
'[15:43:20.113 06/11/2076]',0.781,14.066,1.172,-15.629,21.099,-12.503,-4.298,-3.126,-10.549,-35.556,-3.907,58.217,-16.020,14.847,0.391,7.814,-23.834,-17.192,-0.391,-19.536,24.615,21.490,0.391
'[15:43:20.117 06/11/2076]',2.735,18.755,4.689,-16.020,19.536,-7.814,-5.079,3.516,-14.066,-38.291,4.689,65.250,-19.145,16.020,1.563,17.973,-29.304,-12.503,-3.907,-22.271,14.066,17.582,1.563
'[15:43:20.121 06/11/2076]',6.252,19.536,-1.172,-10.159,23.834,-6.642,-5.470,2.735,-30.085,-38.291,8.987,76.581,-25.006,5.861,2.735,32.430,-28.913,-8.205,1.954,-14.457,1.954,10.549,2.735
'[15:43:20.125 06/11/2076]',-0.391,18.364,1.563,-2.344,12.894,-3.126,-1.563,8.987,-30.085,-39.853,12.112,76.190,-23.053,1.954,5.079,33.602,-26.960,-7.814,-0.781,-11.722,0.781,5.079,5.079
'[15:43:20.129 06/11/2076]',-19.927,27.350,3.516,-0.391,-10.159,1.563,-0.391,18.755,-19.536,-41.807,11.722,75.800,-23.053,8.596,10.940,28.523,-20.708,-7.814,-2.735,-21.880,0.391,5.861,10.940
'[15:43:20.133 06/11/2076]',-23.834,25.788,0.781,-5.079,-16.020,0.391,-0.391,13.675,-10.940,-41.807,10.940,85.568,-16.020,4.298,13.675,40.244,-17.973,-6.642,0.000,-15.629,-7.424,3.126,13.675
'[15:43:20.137 06/11/2076]',1.954,18.755,-0.391,-2.735,4.689,0.000,1.172,11.722,-6.642,-42.979,12.112,94.164,-7.814,-6.252,16.801,53.919,-21.490,-0.781,1.172,-7.033,-15.629,-0.391,16.801
'[15:43:20.141 06/11/2076]',5.470,18.755,-2.344,-5.470,5.861,-1.563,-1.563,12.894,-5.470,-45.714,11.331,80.098,-19.536,0.391,16.801,41.416,-28.523,-3.126,3.126,-14.847,-13.284,-0.391,16.801
'[15:43:20.145 06/11/2076]',11.331,20.708,-7.814,-8.596,10.549,-3.516,-4.298,12.894,-13.675,-42.198,11.722,69.158,-33.211,5.861,19.536,32.821,-30.867,-0.391,8.596,-24.225,-8.987,-0.391,19.536
'[15:43:20.148 06/11/2076]',32.039,11.722,1.954,1.172,31.648,1.563,0.781,13.284,-14.847,-34.383,15.238,76.581,-22.662,-7.033,20.317,51.966,-26.960,11.331,-1.172,-8.596,-12.894,-4.689,20.317
'[15:43:20.152 06/11/2076]',35.165,11.331,5.470,3.907,38.291,1.563,3.126,12.112,-2.344,-32.430,16.801,77.753,-10.159,-12.503,18.364,64.078,-25.397,15.629,-4.689,-3.516,-17.192,-5.470,18.364
'[15:43:20.156 06/11/2076]',18.364,13.284,3.516,5.470,21.880,0.391,-2.735,21.880,-1.954,-33.602,12.112,76.972,-18.755,-4.689,18.755,58.999,-23.053,7.033,-2.735,-14.847,-11.722,-1.563,18.755
'[15:43:20.160 06/11/2076]',9.377,12.894,8.987,5.470,17.192,-3.126,-3.126,27.350,4.298,-32.039,7.424,78.535,-15.238,-4.689,17.582,60.562,-20.708,3.126,-8.205,-20.317,-8.205,0.781,17.582
'[15:43:20.164 06/11/2076]',5.470,9.377,7.424,8.596,18.755,-15.629,4.298,24.225,7.424,-29.695,1.563,83.614,-7.033,-9.768,12.503,68.376,-19.145,2.735,-6.642,-18.364,-7.033,1.172,12.503
'[15:43:20.168 06/11/2076]',2.735,8.987,2.344,10.159,17.582,-16.020,1.563,22.662,1.954,-25.397,-4.298,71.111,-16.410,-1.172,6.642,53.919,-16.410,-6.252,-1.563,-26.569,6.642,4.689,6.642
'[15:43:20.172 06/11/2076]',10.940,8.596,2.344,0.391,27.741,-14.066,-2.735,12.894,-1.563,-19.927,-3.907,61.343,-18.755,2.735,8.205,42.979,-12.894,-5.861,-1.563,-24.225,7.033,6.252,8.205
'[15:43:20.176 06/11/2076]',19.536,9.377,2.344,1.563,38.681,-7.033,-8.596,11.331,-2.735,-16.410,1.172,62.515,-16.020,-3.126,13.284,49.621,-13.284,3.907,-1.563,-10.940,-9.768,4.298,13.284
'[15:43:20.180 06/11/2076]',10.549,9.377,-1.172,0.391,22.662,1.172,-11.722,7.814,-3.907,-14.847,4.689,53.919,-16.801,1.563,10.159,43.761,-14.847,7.814,1.954,-9.768,-9.768,4.298,10.159
'[15:43:20.184 06/11/2076]',1.172,13.284,3.516,-6.642,6.642,7.814,-13.284,10.159,3.907,-16.020,8.596,60.171,-8.205,-1.172,18.364,47.668,-17.582,13.284,-2.735,-9.768,-17.192,3.516,18.364
'[15:43:20.188 06/11/2076]',0.000,15.629,7.814,-8.205,4.689,8.205,-8.596,10.549,13.675,-14.847,9.768,71.111,6.252,-6.642,19.536,60.562,-18.755,19.145,-7.033,-10.159,-21.490,4.298,19.536
'[15:43:20.191 06/11/2076]',3.907,19.145,12.894,-5.470,7.033,12.894,-5.470,15.629,13.675,-12.503,10.549,63.297,2.735,1.563,19.145,51.184,-18.364,19.536,-12.112,-14.847,-12.503,6.642,19.145
'[15:43:20.195 06/11/2076]',15.629,22.271,10.159,-5.861,25.397,9.768,-7.033,14.457,12.894,-13.284,10.940,51.184,-2.344,6.642,19.536,37.900,-17.192,16.410,-9.377,-16.020,-8.987,6.642,19.536
'[15:43:20.199 06/11/2076]',16.020,19.927,4.689,-5.861,27.741,9.377,-8.987,6.252,12.503,-11.331,9.768,58.217,2.344,0.781,19.145,46.496,-11.331,18.755,-3.907,-8.205,-11.331,5.861,19.145
'[15:43:20.203 06/11/2076]',23.834,14.847,-2.344,-1.954,36.337,8.205,-10.549,0.391,5.470,-10.940,8.987,61.734,-0.781,-2.735,16.410,52.747,-10.940,19.536,3.126,-1.954,-11.331,5.861,16.410
'[15:43:20.207 06/11/2076]',13.675,12.112,-2.735,-5.861,27.350,2.735,-14.847,0.781,0.391,-14.457,8.205,47.277,-16.410,1.954,18.755,34.774,-15.629,11.331,3.516,-7.033,-9.377,6.252,18.755
'[15:43:20.211 06/11/2076]',17.582,12.503,3.126,-13.675,31.258,2.344,-17.582,2.735,-0.781,-16.020,9.377,42.589,-21.880,3.126,25.397,27.741,-19.927,10.549,-2.344,-12.503,-13.284,7.814,25.397
'[15:43:20.215 06/11/2076]',16.410,9.377,11.331,-12.894,29.304,2.344,-10.159,3.126,0.391,-16.410,12.112,49.621,-13.284,-7.033,24.615,41.026,-22.662,14.847,-10.549,-3.907,-17.192,2.344,24.615
'[15:43:20.219 06/11/2076]',15.629,8.205,12.894,-11.722,27.741,0.781,-7.033,2.735,1.172,-16.801,11.722,51.184,-9.768,-10.549,24.615,43.761,-23.834,13.284,-12.112,-1.172,-18.364,-0.391,24.615
'[15:43:20.223 06/11/2076]',10.549,9.768,6.252,-12.894,21.490,0.391,-14.457,6.252,3.126,-21.490,5.079,48.840,-17.582,-2.735,24.225,32.821,-23.053,3.516,-5.470,-10.549,-12.112,1.172,24.225
'[15:43:20.227 06/11/2076]',6.642,6.252,-6.252,-2.344,17.192,-7.814,-21.490,15.629,-1.563,-24.615,-0.781,48.059,-31.648,7.033,25.006,19.145,-23.443,-1.954,7.033,-17.973,-0.781,3.907,25.006
'[15:43:20.230 06/11/2076]',13.675,3.126,-7.033,-5.470,24.615,-9.768,-16.020,5.470,-4.298,-22.662,-2.735,52.357,-30.476,1.563,22.662,28.132,-17.973,-1.172,7.814,-13.675,-1.954,1.954,22.662
'[15:43:20.234 06/11/2076]',8.987,5.079,-1.563,-10.159,22.662,-7.814,-13.675,0.391,-2.735,-19.536,1.563,41.026,-33.211,2.735,25.006,24.615,-13.675,-1.172,2.344,-16.801,-3.516,2.735,25.006
'[15:43:20.238 06/11/2076]',10.549,6.252,0.781,-13.284,26.569,-1.172,-20.708,0.391,-2.344,-19.536,3.907,50.403,-30.476,-3.126,27.741,37.900,-11.331,-5.079,0.000,-13.284,-12.894,1.954,27.741
'[15:43:20.242 06/11/2076]',-1.563,5.470,-3.126,-15.629,13.284,2.344,-21.490,-9.377,8.596,-19.927,5.079,50.403,-15.238,-10.549,25.397,45.324,-8.987,-3.126,3.907,-5.079,-20.317,-0.781,25.397
'[15:43:20.246 06/11/2076]',5.079,8.987,-8.596,-15.629,21.490,3.126,-23.053,-12.894,16.801,-21.880,5.861,43.761,-9.768,-8.205,21.880,41.416,-8.205,-3.126,9.377,-5.079,-22.271,-1.172,21.880
'[15:43:20.250 06/11/2076]',12.894,7.814,-16.410,-12.503,28.523,2.344,-26.569,-13.284,21.099,-23.443,4.298,51.575,-4.298,-4.298,19.536,43.761,-10.549,-4.298,17.192,-3.907,-20.317,1.954,19.536
'[15:43:20.254 06/11/2076]',12.894,8.205,-22.271,-10.940,31.258,-1.563,-25.397,-16.020,19.536,-17.973,3.907,58.999,2.735,-8.205,20.317,49.231,-9.768,-1.954,23.053,-0.781,-21.099,1.172,20.317
'[15:43:20.258 06/11/2076]',12.503,10.940,-5.470,-12.894,28.913,-0.781,-18.755,-4.298,10.549,-15.238,10.549,47.668,-7.814,-2.344,23.834,40.244,-9.377,0.000,6.252,-6.252,-21.880,0.781,23.834
'[15:43:20.262 06/11/2076]',9.377,15.629,-5.079,-4.298,23.834,1.954,-17.973,5.861,0.000,-9.377,14.066,42.979,-21.099,7.033,28.913,31.258,-5.079,0.781,5.861,-11.722,-22.271,3.126,28.913
'[15:43:20.266 06/11/2076]',-1.172,12.894,-1.172,-4.689,10.940,1.563,-13.675,5.470,-3.516,-5.861,14.847,56.654,-15.238,1.563,28.523,46.105,0.781,5.079,1.954,-5.079,-28.913,1.954,28.523
'[15:43:20.270 06/11/2076]',-0.781,8.987,-2.735,-1.954,7.814,3.126,-9.768,0.781,-0.391,-9.377,17.582,57.827,-4.298,-5.861,22.662,52.747,3.126,9.377,3.516,1.563,-29.695,-1.563,22.662
'[15:43:20.273 06/11/2076]',5.470,9.768,-11.331,-0.391,19.145,0.781,-16.801,-0.391,-0.391,-14.457,17.192,43.761,-13.675,2.344,18.364,37.509,-0.391,2.344,12.112,-0.781,-26.569,1.172,18.364
'[15:43:20.277 06/11/2076]',3.907,7.033,-16.410,-1.563,20.317,-3.907,-25.397,1.954,-1.954,-21.099,12.112,42.979,-18.755,3.516,14.066,32.430,-7.814,-4.689,17.192,-3.126,-19.145,0.391,14.066
'[15:43:20.281 06/11/2076]',8.987,-0.391,-9.377,0.781,25.788,-10.549,-16.801,2.735,1.172,-23.443,11.331,46.886,-7.424,-5.470,7.424,41.416,-8.596,-3.126,10.159,2.735,-9.768,-4.689,7.424
'[15:43:20.285 06/11/2076]',15.238,1.172,-1.563,0.391,31.648,-10.940,-10.940,5.470,-3.126,-20.317,10.549,44.151,-11.331,-1.563,5.861,37.118,-6.642,-5.079,2.344,-1.954,-1.172,-1.954,5.861
'[15:43:20.289 06/11/2076]',8.596,3.126,3.516,3.516,20.317,-12.503,-14.457,27.350,-10.549,-19.145,0.391,49.231,-27.741,17.192,5.861,22.271,0.000,-14.457,-2.735,-23.053,20.708,3.126,5.861
'[15:43:20.293 06/11/2076]',8.987,3.516,1.563,0.000,21.099,-16.020,-10.940,20.708,-8.596,-16.020,-1.954,50.403,-17.973,15.629,5.079,19.145,7.814,-13.284,-0.781,-23.834,23.053,5.079,5.079
'[15:43:20.297 06/11/2076]',11.722,5.470,-5.079,-7.814,24.615,-12.894,-8.987,1.563,-2.344,-15.238,2.735,33.602,-10.940,10.940,1.563,15.629,10.549,-11.722,5.861,-12.503,9.377,1.172,1.563
'[15:43:20.301 06/11/2076]',7.814,2.344,-16.410,-9.377,20.708,-12.503,-17.973,-5.470,-4.298,-21.099,2.735,33.602,-14.066,4.689,-3.516,23.443,3.516,-15.629,17.192,-1.954,-6.252,-1.172,-3.516
'[15:43:20.305 06/11/2076]',3.907,-0.781,-18.364,-10.940,19.145,-16.801,-19.927,-7.814,5.470,-23.053,5.079,40.244,1.563,-3.907,-5.079,35.556,0.781,-12.894,19.145,7.814,-19.536,-2.344,-5.079
'[15:43:20.309 06/11/2076]',14.847,-3.907,-14.066,-14.066,20.708,-12.894,-16.020,-8.596,10.940,-23.053,8.987,34.383,8.987,-5.861,-4.298,33.993,-3.516,-6.252,14.847,13.284,-25.788,-3.126,-4.298
'[15:43:20.313 06/11/2076]',17.192,-1.954,-6.252,-8.205,14.457,-8.596,-12.894,7.033,6.252,-22.271,8.987,32.039,1.954,-0.781,-3.516,27.741,-6.252,-1.954,7.033,7.424,-22.271,-1.172,-3.516
'[15:43:20.316 06/11/2076]',28.132,-2.344,-4.298,-3.516,30.085,-15.238,-12.112,13.284,11.722,-21.880,8.205,40.244,10.159,-1.563,0.391,28.913,-6.642,2.344,5.079,5.079,-14.066,0.781,0.391
'[15:43:20.320 06/11/2076]',39.072,-5.079,-6.642,-6.252,38.681,-13.675,-9.377,4.298,16.020,-22.271,7.814,40.635,17.973,-7.814,0.391,32.039,-6.642,2.735,7.424,9.377,-12.112,-0.781,0.391
'[15:43:20.324 06/11/2076]',37.900,-7.814,-5.861,-5.470,41.416,-15.629,-11.722,3.126,15.629,-25.006,5.861,22.271,5.470,-2.344,0.391,15.238,-8.205,-5.079,6.642,9.377,-11.331,0.391,0.391
'[15:43:20.328 06/11/2076]',26.569,-8.596,-8.987,-3.126,40.244,-21.099,-16.801,3.516,10.940,-25.788,3.907,15.238,-7.424,5.079,0.391,6.252,-9.377,-12.112,9.768,6.252,-7.424,1.954,0.391
'[15:43:20.332 06/11/2076]',14.847,-10.159,-1.954,-9.377,25.788,-15.629,-10.940,-6.642,8.987,-17.582,4.689,22.271,0.000,-0.391,1.563,17.582,-3.126,-8.205,2.735,11.722,-10.940,1.172,1.563
'[15:43:20.336 06/11/2076]',9.377,-11.331,1.954,-11.722,17.582,-8.987,-6.642,-13.284,0.000,-8.205,8.205,19.927,-0.391,-3.907,2.344,22.662,-1.172,-5.470,-1.172,17.973,-18.755,1.563,2.344
'[15:43:20.340 06/11/2076]',-1.172,-7.033,-1.563,-6.642,10.549,-10.549,-14.457,-3.907,-6.642,-7.424,5.079,16.020,-10.549,1.563,2.735,12.503,-5.861,-11.331,2.344,7.424,-8.205,3.516,2.735
'[15:43:20.344 06/11/2076]',-0.781,-8.596,-7.814,-7.814,6.642,-10.159,-19.145,-3.126,-2.735,-4.689,0.391,16.020,-4.298,7.033,0.391,5.079,-4.689,-17.582,8.596,2.735,-1.172,5.470,0.391
'[15:43:20.348 06/11/2076]',24.225,-10.940,-9.377,-8.205,35.165,-18.755,-11.722,-9.768,5.861,-5.079,-3.907,10.549,6.252,3.516,-3.516,0.781,-6.252,-19.536,10.159,5.079,3.126,3.126,-3.516
'[15:43:20.352 06/11/2076]',34.383,-16.801,-15.238,-0.781,48.840,-31.258,-9.768,-6.252,7.814,-5.470,-12.112,12.112,10.159,3.907,-6.642,-5.079,-7.424,-23.053,16.020,0.781,17.973,3.907,-6.642
'[15:43:20.355 06/11/2076]',32.430,-14.066,-17.973,-8.205,43.370,-30.867,-14.847,-5.470,6.252,-2.344,-17.973,4.298,2.344,15.238,-5.861,-21.880,-5.861,-26.178,18.755,-7.033,21.880,7.814,-5.861
'[15:43:20.359 06/11/2076]',30.867,-8.596,-12.503,-17.973,39.072,-24.615,-10.549,-12.503,0.391,2.344,-12.503,-9.768,-3.126,14.457,-3.126,-28.523,-6.252,-16.410,13.284,-4.689,13.284,5.861,-3.126
'[15:43:20.363 06/11/2076]',24.225,-10.159,-20.317,-9.768,25.397,-16.801,-11.722,-12.894,3.907,1.954,-7.033,-16.410,2.344,4.689,-4.689,-19.927,-11.331,-8.987,21.099,9.768,-3.907,0.391,-4.689
'[15:43:20.367 06/11/2076]',16.410,-7.033,-22.271,-7.814,10.940,-7.033,-14.457,-10.549,10.940,1.172,-7.033,-20.317,6.252,3.907,-7.814,-17.192,-12.503,-7.424,23.053,10.159,-7.424,-1.954,-7.814
'[15:43:20.371 06/11/2076]',5.079,-7.424,-17.973,-2.735,1.172,-5.079,-12.894,-5.470,17.192,-1.954,-5.861,-17.192,14.847,-3.516,-12.112,-6.252,-13.675,-5.861,18.755,14.457,-7.033,-5.470,-12.112
'[15:43:20.375 06/11/2076]',7.814,-13.675,-18.364,5.079,3.516,-7.424,-12.503,-2.344,23.443,-9.377,-8.596,-20.317,19.145,-7.814,-13.284,-12.112,-16.410,-7.033,19.145,21.099,-1.954,-7.814,-13.284
'[15:43:20.379 06/11/2076]',10.940,-15.629,-14.847,10.940,7.033,-8.596,-12.112,4.689,23.443,-11.722,-11.331,-26.178,16.020,-2.735,-14.066,-23.834,-16.020,-5.470,15.629,16.410,10.159,-6.252,-14.066
'[15:43:20.383 06/11/2076]',12.894,-15.238,-12.112,8.205,9.377,-6.642,-8.987,0.000,17.973,-10.159,-10.549,-18.755,18.364,-8.596,-13.675,-18.755,-12.503,-1.172,12.894,19.536,12.503,-7.033,-13.675
'[15:43:20.387 06/11/2076]',44.933,-14.847,-12.112,14.066,41.416,-4.689,-5.079,0.000,20.708,-7.814,-8.205,-9.768,29.695,-16.020,-12.503,-7.814,-9.768,6.252,12.894,24.615,12.112,-9.768,-12.503
'[15:43:20.391 06/11/2076]',49.231,-10.549,-15.238,18.364,43.370,-1.172,-5.861,4.689,13.284,-0.781,-7.814,-20.317,20.708,-7.814,-8.987,-21.099,-8.987,5.079,16.020,16.410,14.847,-9.768,-8.987
'[15:43:20.395 06/11/2076]',23.443,-1.954,-19.536,12.112,16.410,3.516,-10.549,3.516,5.470,2.735,-7.424,-26.960,7.424,1.563,-6.252,-29.695,-5.470,1.172,20.317,8.205,12.894,-8.596,-6.252
'[15:43:20.398 06/11/2076]',12.112,-6.642,-19.927,9.768,7.033,0.781,-8.205,-4.689,5.079,8.596,-4.298,-17.582,16.020,-5.079,-5.861,-13.675,-1.563,5.861,20.708,22.271,0.391,-12.894,-5.861
'[15:43:20.402 06/11/2076]',0.781,-11.722,-14.847,12.503,-7.033,6.252,-5.470,-7.033,5.470,13.284,-3.907,-12.503,19.145,-7.033,-4.298,-4.689,-0.391,9.377,15.629,32.039,-6.642,-13.284,-4.298
'[15:43:20.406 06/11/2076]',1.172,-13.284,-15.238,16.801,-7.424,5.861,-11.331,1.563,-0.391,13.284,-7.424,-13.675,5.079,3.516,-3.126,-14.066,0.000,0.781,16.020,23.834,-0.781,-6.642,-3.126
'[15:43:20.410 06/11/2076]',17.192,-12.503,-11.722,17.582,13.675,-0.391,-9.377,5.470,0.781,15.238,-10.549,-9.768,5.079,8.596,-0.781,-17.973,3.907,0.391,12.503,16.801,8.205,-3.516,-0.781
'[15:43:20.414 06/11/2076]',30.085,-13.284,-11.722,32.430,33.602,-11.722,2.344,11.722,4.298,17.973,-16.020,-3.907,12.503,3.516,-3.516,-11.331,7.033,0.781,12.503,12.894,23.834,-6.642,-3.516
'[15:43:20.418 06/11/2076]',27.741,-10.940,-16.410,29.304,33.993,-18.755,6.252,7.424,-0.391,17.582,-19.145,-16.410,3.516,11.722,-5.470,-29.304,8.596,-6.642,17.192,3.907,38.681,-3.907,-5.470
'[15:43:20.422 06/11/2076]',19.145,-8.596,-19.927,13.675,23.443,-18.364,3.126,-4.689,0.391,17.582,-18.755,-21.490,4.298,11.722,-4.298,-35.165,11.722,-12.112,20.708,2.735,38.681,-7.424,-4.298
'[15:43:20.426 06/11/2076]',18.755,-10.159,-19.927,16.801,19.927,-15.629,4.689,-3.516,-3.907,15.629,-14.457,-14.457,5.861,1.172,-5.079,-20.317,10.940,-6.642,20.708,14.066,26.569,-14.847,-5.079
'[15:43:20.430 06/11/2076]',21.099,-17.192,-16.801,21.490,11.722,-7.424,4.689,-0.781,-0.391,12.112,-7.814,-18.755,6.252,0.781,-2.735,-19.927,8.205,-4.298,17.582,23.834,16.801,-16.410,-2.735
'[15:43:20.434 06/11/2076]',22.271,-22.662,-16.410,25.006,11.331,-7.033,1.563,1.954,0.391,8.987,-4.298,-7.814,5.079,-0.781,4.298,-11.722,7.033,-1.954,17.192,33.993,3.907,-15.629,4.298
'[15:43:20.438 06/11/2076]',11.722,-27.741,-18.364,33.602,-0.391,-9.377,1.563,7.033,4.689,5.079,-1.563,7.424,6.252,-5.861,10.549,3.907,7.814,-0.781,19.145,40.244,-10.159,-11.722,10.549
'[15:43:20.441 06/11/2076]',12.503,-25.006,-18.364,34.774,2.344,-10.159,3.516,8.205,8.205,1.563,-0.391,0.000,-0.781,-0.391,15.238,-5.079,6.252,-5.079,19.145,40.635,-20.317,-8.987,15.238
'[15:43:20.445 06/11/2076]',11.722,-17.973,-14.457,31.648,5.470,-10.159,2.735,12.112,0.391,3.126,1.954,-4.689,-13.284,5.079,23.443,-16.410,5.861,-7.033,15.238,32.821,-25.788,-5.470,23.443
'[15:43:20.449 06/11/2076]',19.536,-13.284,-8.987,31.258,13.675,-7.033,7.033,14.457,-2.344,7.424,3.907,14.066,-8.596,0.781,26.569,3.907,12.503,-4.689,9.768,29.695,-38.291,-3.126,26.569
'[15:43:20.453 06/11/2076]',49.621,-2.344,7.424,33.211,47.277,0.391,15.629,23.443,1.172,17.582,7.814,25.397,6.252,-1.172,28.523,18.364,19.536,1.954,-6.642,21.880,-40.635,-1.172,28.523
'[15:43:20.457 06/11/2076]',51.184,3.516,8.205,33.211,54.701,2.344,12.112,26.960,0.781,22.271,9.768,12.503,0.391,11.331,34.774,1.172,20.317,-1.172,-7.424,11.331,-37.509,2.344,34.774
'[15:43:20.461 06/11/2076]',41.807,6.252,5.470,29.695,43.370,8.205,7.424,24.225,0.781,26.178,10.159,10.159,-3.126,16.410,38.681,-3.126,25.788,-3.126,-4.689,5.470,-38.681,6.642,38.681
'[15:43:20.465 06/11/2076]',43.370,8.596,8.596,27.741,48.059,10.549,13.675,16.410,3.126,29.695,10.159,16.020,4.689,3.907,36.337,14.457,29.695,0.781,-7.814,10.940,-42.979,1.563,36.337
'[15:43:20.469 06/11/2076]',22.271,11.722,-1.954,28.132,25.788,11.722,14.066,8.987,0.391,30.476,4.689,14.457,3.126,-0.781,33.211,14.066,28.132,-1.172,2.735,10.159,-37.509,-2.344,33.211
'[15:43:20.473 06/11/2076]',14.847,10.549,-3.516,21.490,8.987,11.331,9.768,12.503,-0.391,27.741,-2.735,12.894,-5.861,3.516,35.165,3.907,26.960,-7.814,4.298,-1.954,-30.085,0.000,35.165
'[15:43:20.477 06/11/2076]',21.880,14.457,-5.079,22.271,14.457,5.079,11.331,22.662,4.689,26.569,-13.284,14.457,-9.768,13.675,32.430,-4.689,25.397,-10.549,5.861,-18.364,-15.629,3.907,32.430
'[15:43:20.480 06/11/2076]',25.788,15.238,-3.516,18.364,17.192,7.033,19.927,11.331,9.377,30.867,-12.894,4.689,0.391,14.847,27.350,-9.377,25.788,-7.033,4.298,-14.066,-12.112,3.126,27.350
'[15:43:20.484 06/11/2076]',36.728,13.284,5.079,7.814,26.960,14.066,22.271,0.391,13.675,33.602,-6.642,-9.377,4.298,19.927,29.304,-22.662,29.304,-8.205,-4.298,-10.940,-9.377,4.689,29.304
'[15:43:20.488 06/11/2076]',42.979,13.284,14.457,3.126,41.026,20.708,14.847,-2.344,4.689,33.993,-1.172,-1.563,2.344,13.675,26.569,-7.424,29.695,-6.252,-13.675,-3.516,-19.145,3.516,26.569
'[15:43:20.492 06/11/2076]',40.635,16.020,17.582,3.126,45.324,24.225,15.238,-5.861,-3.907,36.337,6.642,0.781,4.298,3.907,32.039,-0.391,32.821,-2.735,-16.801,1.954,-27.350,-1.954,32.039
'[15:43:20.496 06/11/2076]',38.681,14.457,12.112,3.516,38.291,28.913,9.377,-7.033,-11.331,33.602,10.159,0.391,-0.391,1.172,34.383,-1.954,33.211,-3.516,-11.331,4.298,-29.695,-6.642,34.383
'[15:43:20.500 06/11/2076]',28.913,12.503,7.033,-2.735,21.880,28.132,6.252,-10.549,-20.317,29.695,7.814,11.331,-4.298,-3.907,30.867,6.642,33.602,-2.735,-6.252,4.298,-30.085,-10.940,30.867
'[15:43:20.504 06/11/2076]',33.211,12.894,12.894,3.516,22.271,29.304,12.112,0.000,-6.252,25.397,8.596,24.225,14.066,-8.987,31.258,16.410,36.337,3.516,-12.112,2.735,-27.350,-10.159,31.258
'[15:43:20.508 06/11/2076]',33.993,17.582,14.066,3.516,16.410,35.946,14.847,1.563,1.954,23.053,6.252,11.331,19.145,-4.689,25.397,3.907,34.383,3.516,-13.284,0.391,-18.364,-11.331,25.397
'[15:43:20.512 06/11/2076]',19.927,19.927,14.066,3.907,0.391,40.244,12.112,6.252,0.391,20.708,4.298,5.861,14.066,0.391,21.099,-4.298,31.258,3.126,-13.284,-5.079,-10.549,-10.940,21.099
'[15:43:20.516 06/11/2076]',38.291,23.053,18.755,10.940,20.708,41.416,19.145,10.940,3.907,22.662,4.689,25.006,25.788,-5.470,24.225,12.503,31.258,11.722,-17.973,-4.298,-9.377,-8.987,24.225
'[15:43:20.520 06/11/2076]',32.430,25.397,17.973,11.331,14.847,46.886,23.053,3.516,4.298,25.006,5.470,28.523,31.258,-9.768,18.364,22.271,29.695,17.192,-17.192,0.391,-5.861,-10.549,18.364
'[15:43:20.523 06/11/2076]',25.006,23.834,14.066,10.940,7.814,46.105,16.020,4.298,-1.172,21.880,5.079,17.192,15.629,-3.907,18.755,11.331,25.397,10.549,-13.284,-4.298,-3.516,-9.768,18.755
'[15:43:20.527 06/11/2076]',25.006,20.317,15.238,7.814,8.205,42.198,10.159,8.205,-3.126,14.066,4.298,14.847,6.642,-4.689,19.536,8.205,23.053,8.205,-14.457,-5.079,-5.861,-10.159,19.536
'[15:43:20.531 06/11/2076]',25.006,14.457,19.145,16.410,10.940,34.774,16.801,11.722,6.642,11.722,3.126,13.675,20.708,-14.457,13.284,16.020,25.006,12.503,-18.364,3.126,-3.516,-15.238,13.284
'[15:43:20.535 06/11/2076]',22.271,6.642,10.940,19.536,9.377,23.834,16.801,9.768,2.344,13.675,2.344,6.642,20.708,-13.284,12.112,5.861,23.834,8.596,-10.159,4.298,3.907,-15.629,12.112
'[15:43:20.539 06/11/2076]',17.973,7.033,6.252,18.755,9.377,12.503,7.814,19.536,-5.861,11.331,-6.642,8.205,7.424,-2.735,13.284,-11.331,22.662,-0.391,-5.470,-13.284,20.708,-8.987,13.284
'[15:43:20.543 06/11/2076]',18.755,8.987,5.079,16.020,17.192,6.642,13.284,12.503,0.000,15.629,-8.987,6.642,19.536,2.735,4.689,-14.457,25.788,0.781,-4.298,-17.582,38.681,-5.079,4.689
'[15:43:20.547 06/11/2076]',12.112,8.987,0.000,13.284,14.847,9.768,13.284,-4.689,3.516,16.410,-5.079,-7.424,26.178,0.391,-1.172,-17.973,24.615,0.391,0.781,-8.596,38.681,-8.987,-1.172
'[15:43:20.551 06/11/2076]',11.722,7.424,-3.907,12.894,17.582,14.847,4.689,-9.377,3.907,9.377,-5.470,-8.987,26.569,-8.596,-7.033,-10.159,17.582,-5.470,4.689,-4.689,31.648,-11.722,-7.033
'[15:43:20.555 06/11/2076]',11.331,-0.391,-7.814,10.549,14.066,15.238,0.391,-17.192,5.079,3.907,-3.907,-10.549,31.258,-19.536,-11.722,-4.298,16.020,-5.861,8.596,5.861,25.397,-16.801,-11.722
'[15:43:20.559 06/11/2076]',0.781,-4.689,-11.331,12.894,6.252,11.331,0.391,-21.099,0.781,1.172,-3.126,-19.536,29.695,-27.350,-12.112,-9.768,12.894,-8.987,12.112,12.894,23.053,-20.317,-12.112
'[15:43:20.563 06/11/2076]',-4.689,-2.735,-13.675,10.549,0.391,10.940,-3.516,-19.536,-6.642,0.000,-5.861,-26.569,14.457,-24.615,-7.814,-21.880,12.112,-13.675,14.457,7.424,22.271,-15.629,-7.814
'[15:43:20.566 06/11/2076]',-5.470,0.000,-14.066,6.252,0.781,9.377,-3.907,-21.099,-7.424,-1.172,-8.205,-19.536,15.629,-24.615,-9.377,-19.145,15.629,-16.020,14.847,5.861,27.350,-12.503,-9.377
'[15:43:20.570 06/11/2076]',6.252,3.907,-8.596,7.814,16.801,12.503,-0.781,-19.927,-7.814,2.344,-5.861,-16.410,19.145,-25.788,-7.033,-13.675,18.364,-14.457,9.377,6.642,29.695,-8.987,-7.033
'[15:43:20.574 06/11/2076]',0.000,8.987,-5.861,10.940,8.987,17.192,-1.563,-10.940,-7.424,2.344,-2.344,-28.523,11.722,-14.066,-4.298,-28.913,15.238,-14.847,6.642,1.954,30.476,-4.298,-4.298
'[15:43:20.578 06/11/2076]',-15.238,12.503,0.000,13.284,-8.987,18.755,0.391,0.391,-12.112,3.126,0.781,-32.821,0.781,-2.344,-2.344,-36.728,14.066,-9.768,0.781,-6.252,36.728,-1.954,-2.344
'[15:43:20.582 06/11/2076]',-14.066,7.424,-0.781,10.549,-11.722,16.801,8.205,-10.940,-9.768,8.596,6.252,-25.788,17.192,-9.768,-3.907,-23.834,16.020,3.126,1.563,5.079,30.476,-7.424,-3.907
'[15:43:20.586 06/11/2076]',-15.238,4.298,1.563,7.424,-15.238,18.364,15.238,-19.145,-8.596,8.987,10.940,-25.006,26.569,-17.582,-6.252,-15.238,15.238,10.940,-0.781,12.112,22.662,-12.112,-6.252
'[15:43:20.590 06/11/2076]',-18.364,4.689,2.735,5.470,-19.145,17.973,9.377,-13.284,-17.582,8.205,9.377,-23.053,11.331,-13.675,-2.735,-16.410,10.549,8.205,-1.954,1.954,18.755,-11.722,-2.735
'[15:43:20.594 06/11/2076]',-0.781,3.516,0.391,7.424,-0.781,14.847,5.470,-9.377,-22.271,3.907,4.298,-17.582,3.516,-16.801,-2.735,-14.066,9.768,8.596,0.391,-5.470,19.927,-14.457,-2.735
'[15:43:20.598 06/11/2076]',10.159,-1.172,4.298,11.331,9.768,10.940,12.894,-7.814,-17.973,2.344,2.735,-14.066,7.424,-20.708,-1.172,-10.159,9.768,12.894,-3.516,-3.907,19.145,-16.410,-1.172
'[15:43:20.602 06/11/2076]',-9.377,-2.344,7.424,19.927,-8.596,2.344,18.364,4.689,-20.708,4.689,-3.126,-2.735,2.735,-16.020,0.781,-8.987,8.987,14.066,-6.642,-13.284,27.741,-12.112,0.781
'[15:43:20.605 06/11/2076]',-2.344,0.391,4.689,19.145,-5.470,1.172,16.801,9.377,-28.523,4.689,-5.861,-5.861,-10.159,-0.781,1.172,-26.178,11.331,12.112,-3.907,-22.271,40.244,-5.470,1.172
'[15:43:20.609 06/11/2076]',1.954,5.470,7.424,16.020,0.000,4.689,21.880,5.079,-25.006,7.033,0.391,-10.159,-1.172,-1.954,4.689,-28.523,14.457,20.317,-6.642,-14.847,33.602,-6.252,4.689
'[15:43:20.613 06/11/2076]',-4.689,5.470,3.126,20.317,-6.252,9.377,19.536,1.172,-30.476,5.861,7.424,-14.457,-0.391,-9.377,3.126,-24.225,6.642,22.271,-2.344,-5.079,26.178,-10.159,3.126
'[15:43:20.617 06/11/2076]',-10.159,7.814,3.126,18.755,-14.066,15.238,18.364,0.391,-35.946,4.298,10.549,-14.457,-4.689,-10.940,4.689,-23.834,2.735,21.880,-2.344,-3.516,23.834,-10.940,4.689
'[15:43:20.621 06/11/2076]',-5.079,6.642,1.563,17.973,-7.814,13.675,19.145,-3.516,-24.225,3.907,11.722,-9.377,12.503,-19.536,5.861,-16.020,0.781,24.225,-0.781,1.954,21.099,-15.238,5.861
'[15:43:20.625 06/11/2076]',-7.814,4.689,5.079,13.675,-10.159,10.159,21.099,-4.689,-19.536,1.172,10.940,-14.066,15.629,-17.582,2.344,-21.490,-1.172,21.880,-4.298,3.516,21.880,-14.457,2.344
'[15:43:20.629 06/11/2076]',-8.205,6.642,7.033,11.331,-11.331,7.814,21.490,-0.391,-20.317,2.344,8.205,-21.099,10.159,-8.596,1.172,-33.602,-1.563,21.490,-6.252,0.391,23.443,-10.940,1.172
'[15:43:20.633 06/11/2076]',8.205,3.516,6.642,9.768,2.344,7.033,21.490,-2.344,-13.675,1.563,7.814,-12.503,21.099,-5.861,-4.298,-26.960,1.563,23.053,-5.861,3.907,22.271,-4.689,-4.298
'[15:43:20.637 06/11/2076]',1.172,-2.344,4.689,12.112,-6.252,7.424,20.708,-4.689,-14.066,0.781,7.814,-5.470,26.960,-14.066,-7.033,-16.020,2.344,25.397,-3.907,10.940,17.973,-6.252,-7.033
'[15:43:20.641 06/11/2076]',-12.503,-5.079,1.954,13.284,-20.317,4.689,16.020,-2.735,-24.225,0.781,7.814,-20.317,8.205,-3.907,-3.907,-35.946,-2.344,18.364,-1.172,4.298,23.834,-2.735,-3.907
'[15:43:20.645 06/11/2076]',-9.377,-5.470,3.907,14.847,-17.582,3.516,14.066,5.470,-25.006,1.563,8.205,-25.397,0.391,1.954,3.516,-45.324,-3.126,14.457,-3.126,-4.298,28.132,-1.563,3.516
'[15:43:20.648 06/11/2076]',-5.861,-8.596,0.781,14.847,-8.987,0.000,17.582,-5.861,-24.225,3.907,8.987,-16.410,7.814,-11.722,5.861,-29.304,-1.172,16.410,0.000,7.814,22.662,-10.159,5.861
'[15:43:20.652 06/11/2076]',7.814,-7.424,4.298,11.722,10.159,-3.516,22.271,-10.159,-25.006,5.470,8.987,-11.331,7.814,-12.503,4.689,-21.880,-2.344,17.582,-3.516,12.112,18.755,-10.549,4.689
'[15:43:20.656 06/11/2076]',11.722,-0.391,3.907,16.020,16.410,-5.861,16.410,5.079,-24.225,3.907,2.735,-6.252,1.954,0.000,0.000,-24.225,-3.907,10.549,-3.126,-1.563,25.006,-4.298,0.000
'[15:43:20.660 06/11/2076]',9.377,0.781,1.563,15.629,11.331,-7.424,16.410,7.814,-26.569,3.516,-0.781,-0.781,-1.172,5.470,-4.298,-23.834,-2.735,10.159,-0.781,-7.814,28.132,0.391,-4.298
'[15:43:20.664 06/11/2076]',-8.205,0.781,1.563,19.145,-11.722,-10.549,27.350,8.596,-22.662,5.079,-6.642,7.033,8.596,1.954,-12.112,-14.847,1.563,14.066,-0.781,-9.377,32.430,0.781,-12.112
'[15:43:20.668 06/11/2076]',-13.675,5.079,-1.563,20.317,-16.801,-13.284,28.523,12.894,-15.238,5.470,-7.424,-3.516,7.033,8.987,-10.549,-27.350,2.344,9.377,2.344,-19.536,33.602,4.298,-10.549
'[15:43:20.672 06/11/2076]',-9.768,1.563,-10.159,14.457,-18.364,-8.596,22.271,1.172,-8.205,5.079,-8.596,-8.596,10.549,4.689,-6.252,-30.085,3.516,5.470,10.940,-11.722,25.788,-0.391,-6.252
'[15:43:20.676 06/11/2076]',3.907,-0.781,-13.284,10.159,-1.563,-6.252,16.801,-7.424,-1.172,3.126,-7.033,-9.377,19.927,-8.596,-1.954,-24.615,3.907,5.079,14.066,0.781,9.377,-7.814,-1.954
'[15:43:20.680 06/11/2076]',16.410,-1.954,-19.536,6.252,8.596,-4.298,10.549,-12.112,2.344,1.954,-5.861,-20.708,19.927,-8.205,-0.781,-33.211,0.781,0.391,20.317,4.298,2.735,-10.159,-0.781
'[15:43:20.684 06/11/2076]',20.708,-5.079,-18.364,5.470,3.907,1.172,8.205,-10.549,3.516,2.344,-4.298,-16.410,25.006,-11.331,2.344,-30.085,0.391,-2.344,19.145,6.642,0.391,-11.331,2.344
'[15:43:20.688 06/11/2076]',16.410,-4.298,-10.940,4.689,-5.470,3.907,12.112,-4.298,3.516,3.516,-1.954,-5.079,33.602,-10.940,-2.344,-19.536,2.735,0.000,11.722,5.079,2.344,-6.252,-2.344
'[15:43:20.691 06/11/2076]',7.424,-1.172,-6.252,8.987,-20.317,7.424,17.582,4.298,1.172,5.079,0.391,-12.894,30.476,-3.126,-3.516,-30.085,2.344,1.954,7.033,0.391,6.642,-4.689,-3.516
'[15:43:20.695 06/11/2076]',3.126,2.344,-11.722,10.940,-27.350,7.814,16.801,7.814,-3.516,5.079,3.907,-19.145,25.006,5.861,-4.689,-38.681,3.126,2.344,12.503,-3.516,5.470,-3.126,-4.689
'[15:43:20.699 06/11/2076]',20.708,3.516,-8.987,8.987,-7.424,7.424,19.927,4.689,-5.470,7.033,6.252,-6.252,32.821,-1.563,-5.079,-24.615,8.205,9.768,9.768,1.172,-0.781,-5.861,-5.079
'[15:43:20.703 06/11/2076]',24.225,1.954,-13.284,8.205,-3.126,5.470,22.662,-3.126,-3.907,8.596,5.861,-1.563,39.853,-8.987,-1.563,-19.536,10.549,13.284,14.066,6.642,-7.033,-9.768,-1.563
'[15:43:20.707 06/11/2076]',25.006,2.344,-21.490,7.033,-1.563,2.344,17.582,-4.689,-5.079,6.642,6.642,-16.410,28.913,2.735,-1.172,-38.291,8.596,7.424,22.271,0.000,-5.861,-5.079,-1.172
'[15:43:20.711 06/11/2076]',28.913,4.298,-21.099,4.689,2.344,3.126,14.457,-2.735,-2.735,5.470,7.424,-19.536,26.569,8.987,-1.563,-42.589,5.861,8.205,21.880,-5.079,-4.689,-1.172,-1.563
'[15:43:20.715 06/11/2076]',25.397,1.172,-21.880,8.205,1.172,0.391,18.755,-6.252,3.516,1.954,7.424,-11.722,34.774,1.563,-3.907,-30.476,4.689,12.503,22.662,3.907,-10.940,-3.126,-3.907
'[15:43:20.719 06/11/2076]',18.755,0.391,-21.099,10.549,-3.516,-2.735,21.099,-5.079,0.391,0.391,8.987,-8.596,33.993,0.781,-5.079,-27.741,4.689,11.331,21.880,2.735,-7.814,-1.563,-5.079
'[15:43:20.723 06/11/2076]',12.894,5.079,-8.987,11.331,-11.722,0.391,17.973,14.847,-4.689,-1.563,5.861,-3.126,23.053,5.079,-1.954,-30.085,7.814,6.642,9.768,-11.331,0.000,-1.563,-1.954
'[15:43:20.727 06/11/2076]',7.424,7.424,-5.470,15.238,-19.536,-1.954,19.145,28.523,-15.238,-2.344,0.781,2.735,9.768,10.549,3.907,-38.681,12.503,3.126,6.252,-24.225,9.377,0.000,3.907
'[15:43:20.730 06/11/2076]',-4.298,6.642,-4.298,15.238,-36.728,1.172,29.304,20.317,-16.801,0.000,1.172,1.172,11.722,7.033,2.735,-36.728,16.410,7.424,5.079,-20.708,9.768,-1.954,2.735
'[15:43:20.734 06/11/2076]',1.563,10.940,-1.954,7.033,-32.039,7.814,31.648,12.503,-10.940,0.000,6.252,-8.205,14.457,12.112,-0.391,-39.463,18.364,10.159,2.735,-20.708,10.549,-2.735,-0.391
'[15:43:20.738 06/11/2076]',16.801,11.722,-9.377,5.079,-16.410,13.284,25.006,3.907,-10.549,0.391,8.596,-1.172,17.582,7.033,-1.172,-26.960,15.238,11.331,10.159,-13.284,-1.563,-0.781,-1.172
'[15:43:20.742 06/11/2076]',18.755,5.079,-13.675,2.344,-12.112,10.159,24.615,-9.768,0.000,2.344,10.159,-5.470,33.602,0.781,-2.344,-23.834,15.238,17.192,14.457,2.735,-9.768,-5.470,-2.344
'[15:43:20.746 06/11/2076]',32.430,8.596,-9.377,3.516,3.516,11.722,21.880,-1.563,2.344,7.033,12.894,-7.424,35.556,0.391,4.689,-25.788,15.238,20.317,10.159,-0.781,-11.722,-4.298,4.689
'[15:43:20.750 06/11/2076]',41.807,6.642,-9.768,6.252,9.377,15.238,18.755,1.172,1.172,12.894,8.987,1.172,39.072,1.954,3.907,-18.755,17.192,19.536,10.549,0.000,-10.940,0.000,3.907
'[15:43:20.754 06/11/2076]',33.211,5.861,-5.861,9.377,2.344,16.020,22.662,0.391,3.907,16.410,7.033,8.596,45.324,1.172,0.391,-10.159,21.099,21.490,6.642,0.391,-6.642,1.954,0.391
'[15:43:20.758 06/11/2076]',26.569,9.377,-1.563,7.424,0.781,17.973,26.178,-1.172,4.689,17.192,7.814,-3.907,36.728,10.159,0.391,-20.708,21.880,16.410,2.344,-6.252,-0.781,4.298,0.391
'[15:43:20.762 06/11/2076]',26.569,12.112,1.172,12.894,2.735,22.662,26.178,1.172,9.377,16.801,6.252,-11.722,28.523,21.099,-0.391,-27.350,25.397,11.331,-0.391,-13.675,7.424,8.596,-0.391
'[15:43:20.766 06/11/2076]',30.476,7.814,0.391,17.582,11.722,23.834,30.867,-9.377,19.536,19.536,4.689,-1.954,42.589,13.675,-1.563,-11.331,32.430,10.159,0.391,-6.252,12.503,8.205,-1.563
'[15:43:20.770 06/11/2076]',43.761,7.033,1.172,17.192,31.648,23.053,36.728,-21.099,25.006,24.615,4.298,-1.954,48.059,5.470,0.391,-1.563,38.291,10.549,-0.391,0.391,8.596,7.814,0.391
'[15:43:20.773 06/11/2076]',31.258,8.987,1.954,21.099,19.927,28.913,32.039,-16.020,23.443,23.053,3.516,-13.675,32.430,6.252,5.079,-7.033,39.853,1.954,-1.172,-5.861,6.252,10.549,5.079
'[15:43:20.777 06/11/2076]',14.847,7.033,-5.079,20.317,6.252,27.741,24.225,-19.927,23.443,16.410,0.391,-19.145,23.443,7.814,1.563,-10.159,36.337,-7.424,5.861,-5.861,3.126,14.847,1.563
'[15:43:20.781 06/11/2076]',7.814,0.391,-5.079,20.317,3.907,21.490,31.648,-32.821,28.132,10.940,1.563,-20.708,28.913,-1.954,-1.172,-5.079,37.509,-7.033,5.861,3.126,1.563,10.940,-1.172
'[15:43:20.785 06/11/2076]',-7.424,-5.470,1.563,19.536,-12.894,21.490,33.993,-33.211,26.569,7.033,1.172,-25.788,26.178,0.391,-7.814,-7.424,39.463,-11.331,-0.781,0.391,15.238,10.940,-7.814
'[15:43:20.789 06/11/2076]',4.298,-5.470,11.722,25.397,-3.516,19.927,30.867,-10.159,24.225,5.861,-4.689,-20.317,12.503,16.410,-2.735,-20.317,41.416,-17.582,-10.940,-18.755,35.165,16.801,-2.735
'[15:43:20.793 06/11/2076]',32.039,-5.079,16.410,20.708,23.834,16.801,38.681,-13.675,25.788,10.940,-3.516,-19.536,17.192,20.317,-3.516,-19.927,43.761,-10.940,-15.629,-20.317,41.026,19.536,-3.516
'[15:43:20.797 06/11/2076]',36.337,-0.391,21.099,20.317,31.648,17.582,45.324,-16.020,17.582,19.536,3.126,-33.211,12.894,17.192,-2.735,-18.364,44.542,-1.172,-20.317,-15.238,35.165,14.066,-2.735
'[15:43:20.801 06/11/2076]',31.258,3.516,13.675,22.662,22.662,24.225,40.635,-14.847,16.801,17.973,6.642,-34.774,7.814,6.642,1.563,-8.205,35.556,-0.391,-12.894,-11.722,17.973,8.596,1.563
'[15:43:20.805 06/11/2076]',33.602,3.126,3.907,20.708,36.337,13.675,36.728,-23.443,23.834,9.377,6.642,-37.900,13.284,-7.033,1.172,-2.735,28.523,0.391,-3.126,-2.344,4.689,3.516,1.172
'[15:43:20.809 06/11/2076]',14.457,-3.516,5.861,19.927,22.662,10.940,32.430,-28.913,27.350,1.954,7.814,-49.231,10.940,-15.629,1.172,-7.814,25.006,-1.563,-5.079,6.642,5.079,-1.172,1.172
'[15:43:20.813 06/11/2076]',6.642,-5.079,5.470,16.410,16.410,10.940,25.397,-27.741,28.913,-2.735,5.079,-57.045,1.954,-17.582,8.987,-18.755,20.708,-7.424,-4.689,3.126,5.079,-1.172,8.987
'[15:43:20.816 06/11/2076]',11.722,-1.172,4.689,14.847,28.523,5.470,23.053,-25.397,39.072,-4.298,5.470,-50.012,8.596,-16.801,13.675,-15.629,20.708,-7.814,-3.907,0.391,7.033,3.516,13.675
'[15:43:20.820 06/11/2076]',0.391,-4.689,11.722,12.894,17.192,9.377,23.834,-28.913,40.635,2.344,10.549,-46.886,14.457,-14.066,17.973,-10.549,24.225,-5.470,-10.940,5.470,10.940,8.987,17.973
'[15:43:20.824 06/11/2076]',5.079,3.126,9.768,18.364,18.364,15.629,23.834,-19.927,40.635,8.596,16.801,-58.999,10.549,-7.033,31.258,-25.788,25.397,-4.298,-8.987,-1.954,12.894,12.112,31.258
'[15:43:20.828 06/11/2076]',2.735,9.377,10.940,25.788,14.847,15.238,25.397,-5.470,42.979,12.503,20.317,-63.687,8.205,3.907,34.383,-32.039,30.476,-2.344,-10.159,-11.722,17.973,14.847,34.383
'[15:43:20.832 06/11/2076]',10.940,3.907,19.145,26.178,23.834,14.457,32.821,-8.205,48.449,17.582,25.006,-55.482,21.099,-0.391,36.728,-19.927,38.681,6.252,-18.364,-1.172,13.675,15.238,36.728
'[15:43:20.836 06/11/2076]',21.880,1.954,21.490,23.443,31.648,16.410,37.118,-15.238,47.668,21.490,30.867,-56.264,26.178,-7.033,42.979,-17.582,38.681,13.675,-20.708,6.642,7.814,10.940,42.979
'[15:43:20.840 06/11/2076]',21.880,3.907,14.847,22.662,30.476,14.066,27.741,-7.033,43.761,19.927,28.132,-57.827,16.801,1.172,37.900,-21.490,33.211,10.159,-14.066,-0.781,5.470,15.238,37.900
'[15:43:20.844 06/11/2076]',5.861,7.814,15.238,17.192,11.331,13.675,25.006,-2.735,34.383,20.708,26.178,-53.529,7.033,6.642,42.979,-28.132,30.867,11.722,-14.457,-7.033,6.252,18.755,42.979
'[15:43:20.848 06/11/2076]',-6.642,7.033,8.987,17.192,-7.033,11.722,32.039,-7.814,22.662,25.397,24.225,-51.966,7.424,5.861,35.946,-29.304,32.430,14.847,-8.205,-0.391,8.987,16.801,35.946
'[15:43:20.852 06/11/2076]',-13.675,7.424,6.252,26.178,-18.755,8.205,35.556,2.344,17.582,27.350,16.801,-43.370,8.205,15.629,24.615,-29.695,35.556,11.722,-5.470,-5.861,21.099,22.271,24.615
'[15:43:20.855 06/11/2076]',-26.569,12.894,14.847,23.834,-29.304,6.252,35.946,12.894,14.457,27.741,14.847,-43.370,1.563,32.821,22.271,-41.807,41.416,7.033,-14.066,-16.801,33.993,28.913,22.271
'[15:43:20.859 06/11/2076]',-19.927,15.238,11.722,16.020,-21.880,8.205,35.165,3.907,15.238,26.569,17.192,-47.668,7.033,30.867,18.364,-44.542,43.370,8.987,-10.940,-6.642,28.523,22.271,18.364
'[15:43:20.863 06/11/2076]',-6.642,16.801,10.549,18.364,-7.424,9.768,28.523,8.987,12.894,20.708,19.145,-46.496,5.470,20.317,16.410,-33.602,34.383,8.205,-9.768,0.391,12.503,13.675,16.410
'[15:43:20.867 06/11/2076]',-2.344,18.364,8.205,13.675,3.126,5.861,19.927,10.159,16.020,16.410,18.755,-42.589,4.689,16.410,18.364,-29.695,29.695,3.516,-7.424,-0.391,3.907,11.722,18.364
'[15:43:20.871 06/11/2076]',1.172,19.927,-1.563,8.987,5.861,3.907,13.675,5.861,16.410,12.894,13.284,-37.118,11.722,5.861,9.768,-19.927,25.006,-0.781,2.344,5.079,-6.252,5.861,9.768
'[15:43:20.875 06/11/2076]',-1.954,17.192,-5.861,12.112,1.954,0.391,10.159,10.940,9.377,12.112,9.377,-41.807,4.298,3.907,7.814,-25.788,19.927,-5.861,6.642,6.642,-8.596,5.470,7.814
'[15:43:20.879 06/11/2076]',-1.172,14.457,-0.391,17.973,5.079,-3.126,10.940,19.536,14.066,14.066,7.033,-49.231,1.172,26.569,-0.391,-39.463,17.973,-8.205,1.172,4.689,3.516,19.927,-0.391
'[15:43:20.883 06/11/2076]',-2.344,14.066,6.642,18.755,3.126,-1.172,14.847,21.880,19.145,20.708,8.205,-37.900,13.284,27.741,0.391,-29.695,19.927,-1.563,-5.861,8.596,8.205,23.053,0.391
'[15:43:20.887 06/11/2076]',1.172,9.768,2.735,22.662,2.344,0.781,17.973,17.192,15.238,25.397,12.112,-30.476,17.192,26.178,1.172,-21.099,20.317,3.126,-1.954,17.192,7.814,25.006,1.172
'[15:43:20.891 06/11/2076]',7.814,10.940,19.145,30.476,10.549,4.298,20.708,33.602,13.284,32.430,17.192,-35.946,5.079,42.198,17.582,-35.946,23.053,2.344,-18.364,6.252,17.582,32.039,17.582
'[15:43:20.895 06/11/2076]',7.424,12.503,17.192,31.258,10.159,8.596,15.629,35.946,17.192,32.430,20.708,-40.635,1.563,51.184,19.145,-40.244,28.523,0.391,-16.410,1.954,17.582,34.774,19.145
'[15:43:20.898 06/11/2076]',8.205,11.331,7.424,31.258,8.596,10.940,19.145,21.490,14.847,33.602,28.132,-33.602,9.377,39.072,24.225,-28.523,33.993,2.735,-6.642,12.503,4.689,28.913,24.225
'[15:43:20.902 06/11/2076]',13.284,13.284,8.205,34.383,20.317,6.642,22.271,22.271,12.894,31.648,35.556,-27.741,11.331,33.602,30.476,-21.099,34.774,4.689,-7.424,12.503,0.000,25.397,30.476
'[15:43:20.906 06/11/2076]',1.563,12.894,5.079,35.556,14.847,-0.781,13.284,29.695,5.861,23.834,35.556,-25.006,0.391,43.370,22.271,-25.006,29.695,-0.781,-4.298,3.516,5.079,31.648,22.271
'[15:43:20.910 06/11/2076]',-12.112,16.020,9.768,30.476,-5.861,-1.954,18.364,35.556,-7.033,19.927,39.463,-17.192,-10.159,42.198,30.476,-26.569,24.225,3.126,-8.987,-6.642,5.470,28.913,30.476
'[15:43:20.914 06/11/2076]',-16.801,10.940,11.722,42.589,-11.722,-9.768,27.741,43.761,-16.801,19.927,37.118,-7.814,-13.675,44.933,24.615,-22.271,20.317,9.377,-10.940,-4.689,12.503,28.132,24.615
'[15:43:20.918 06/11/2076]',-18.755,10.940,19.145,39.072,-15.629,-10.940,29.304,49.231,-17.973,16.020,38.681,-13.284,-20.317,50.012,24.615,-32.039,19.145,8.205,-18.364,-11.331,21.490,28.132,24.615
'[15:43:20.922 06/11/2076]',-14.457,10.549,22.662,33.211,-16.020,-1.172,25.006,46.496,-14.847,14.066,40.244,-12.503,-17.973,47.668,32.039,-35.556,21.099,6.642,-21.880,-4.298,16.410,23.053,32.039
'[15:43:20.926 06/11/2076]',1.172,10.549,20.317,36.337,0.781,3.516,19.927,46.105,-12.112,7.033,41.026,-6.252,-13.284,36.337,33.993,-27.350,17.582,8.205,-19.536,8.596,0.000,16.020,33.993
'[15:43:20.930 06/11/2076]',3.907,9.768,18.364,38.291,3.907,5.861,14.066,47.277,-13.675,1.172,39.463,-8.596,-18.755,32.039,35.165,-30.085,14.457,4.689,-17.582,8.596,-3.516,14.066,35.165
'[15:43:20.934 06/11/2076]',6.642,6.252,22.662,42.589,7.814,7.424,9.768,53.529,-9.768,-6.642,36.337,3.126,-17.973,24.615,33.211,-16.801,8.987,3.907,-21.880,10.159,-5.470,11.722,33.211
'[15:43:20.938 06/11/2076]',14.847,0.391,19.536,48.449,20.708,0.781,9.377,53.529,-4.298,-9.377,30.476,12.112,-8.205,17.973,33.211,-12.503,4.298,3.516,-18.755,11.331,1.172,10.159,33.211
'[15:43:20.941 06/11/2076]',7.814,0.781,16.410,53.138,16.020,-3.516,8.987,58.608,-1.563,-12.894,26.178,4.298,-11.331,18.364,30.476,-21.490,-0.391,1.954,-15.629,4.689,14.457,5.470,30.476
'[15:43:20.945 06/11/2076]',-4.298,-2.344,18.755,49.231,8.596,-11.331,5.861,59.780,-3.907,-16.410,23.053,-2.344,-12.112,21.490,18.755,-28.132,-5.079,1.954,-17.973,4.689,29.304,1.172,18.755
'[15:43:20.949 06/11/2076]',5.470,-8.987,22.662,48.059,14.066,-10.549,8.987,57.045,-1.954,-17.973,20.708,12.112,3.907,9.377,14.066,-14.847,-3.907,8.596,-21.880,15.238,35.165,-6.252,14.066
'[15:43:20.953 06/11/2076]',7.033,-9.377,27.741,49.621,9.377,-8.205,14.457,60.952,-10.159,-19.145,16.410,25.397,5.470,0.781,1.954,3.126,-4.298,14.457,-26.960,18.364,39.072,-11.722,1.954
'[15:43:20.957 06/11/2076]',-8.987,-6.252,30.085,52.747,-7.814,-7.424,12.112,71.502,-12.112,-22.271,13.284,16.801,-3.126,7.033,0.391,-6.642,-4.298,9.377,-29.304,10.159,38.291,-8.596,0.391
'[15:43:20.961 06/11/2076]',4.689,-4.298,23.053,53.138,6.252,-5.470,4.689,72.674,-6.642,-26.178,8.987,16.801,-5.470,7.424,0.000,-8.987,-3.907,5.470,-22.271,8.205,25.788,-4.298,0.000
'[15:43:20.965 06/11/2076]',14.066,-1.954,10.549,54.701,16.801,-5.861,3.516,64.078,-7.033,-25.788,1.563,24.225,-1.563,-8.987,1.563,4.298,-6.252,3.516,-9.768,13.284,9.768,-11.722,1.563
'[15:43:20.969 06/11/2076]',0.391,-3.126,4.298,53.138,11.331,-12.112,0.000,56.654,-7.814,-25.788,-3.126,23.834,-7.033,-14.066,2.735,5.470,-9.377,-4.689,-3.516,13.284,-1.563,-11.331,2.735
'[15:43:20.973 06/11/2076]',-3.907,-6.252,0.391,40.635,14.847,-22.271,-12.894,51.966,-12.112,-28.523,-13.284,24.225,-18.364,-8.205,-1.954,-0.781,-12.503,-17.582,0.391,5.861,-0.781,-8.205,-1.954
'[15:43:20.977 06/11/2076]',-2.344,-9.768,3.516,38.291,20.708,-30.476,-17.192,57.827,-17.582,-28.913,-25.397,30.867,-30.476,-4.689,2.735,-9.768,-14.066,-28.523,-2.735,-5.861,12.112,-8.205,2.735
'[15:43:20.980 06/11/2076]',-11.331,-7.424,4.689,30.085,15.629,-32.821,-8.596,43.761,-16.410,-25.788,-27.350,21.490,-28.132,-3.126,-7.033,-8.596,-7.424,-34.383,-3.907,-5.861,17.192,-8.596,-7.033
'[15:43:20.984 06/11/2076]',-1.563,-4.298,-3.126,18.364,25.788,-28.523,-12.503,25.788,-10.549,-23.834,-30.085,12.112,-24.615,5.079,-22.662,-10.940,-3.907,-41.416,3.907,-1.954,12.112,0.391,-22.662
'[15:43:20.988 06/11/2076]',18.364,-2.735,-11.722,14.066,42.589,-19.927,-21.099,16.801,-1.954,-28.132,-32.430,21.490,-15.238,-6.252,-19.927,0.000,-5.079,-44.151,12.503,5.470,3.516,-5.861,-19.927
'[15:43:20.992 06/11/2076]',21.490,-1.954,-24.615,5.861,40.635,-14.066,-23.834,-0.391,-1.563,-28.913,-33.602,15.238,-8.205,-19.927,-22.662,1.563,-5.470,-42.979,25.397,14.847,-3.126,-15.238,-22.662
'[15:43:20.996 06/11/2076]',15.629,-5.079,-35.165,-0.391,28.132,-12.503,-30.867,-8.987,-3.126,-33.602,-37.118,8.596,-7.424,-21.490,-33.211,-3.516,-7.814,-43.370,35.946,19.927,-3.126,-16.801,-33.211
'[15:43:21.000 06/11/2076]',10.549,-11.722,-37.509,-4.298,17.192,-13.675,-34.774,-10.940,-5.470,-39.853,-40.244,19.536,-3.907,-35.165,-31.258,4.298,-7.814,-43.761,38.291,19.927,1.954,-26.178,-31.258
'[15:43:21.004 06/11/2076]',6.252,-15.629,-40.244,-11.331,11.331,-19.536,-32.821,-18.755,-10.549,-44.542,-43.370,24.615,-1.172,-46.105,-39.853,13.284,-7.814,-43.370,41.026,21.099,5.079,-28.913,-39.853
'[15:43:21.008 06/11/2076]',-0.391,-14.457,-41.807,-15.629,2.344,-22.271,-29.695,-23.053,-15.629,-45.714,-39.072,7.033,-9.768,-34.383,-49.621,0.391,-9.377,-46.886,42.589,18.364,7.424,-24.225,-49.621
'[15:43:21.012 06/11/2076]',3.126,-10.159,-42.589,-17.973,9.377,-26.960,-28.913,-21.880,-19.536,-43.761,-34.774,3.907,-17.582,-27.350,-46.496,-3.126,-10.549,-46.105,43.370,10.549,4.298,-21.490,-46.496
'[15:43:21.016 06/11/2076]',2.735,-8.987,-41.026,-20.317,8.987,-26.960,-20.317,-29.695,-19.145,-42.589,-30.085,17.192,-7.814,-39.072,-39.463,11.722,-8.205,-38.681,41.807,16.410,-1.954,-27.741,-39.463
'[15:43:21.020 06/11/2076]',6.252,-7.814,-41.416,-23.053,6.642,-21.490,-9.768,-41.416,-17.192,-37.509,-22.662,17.582,0.391,-43.370,-33.602,16.020,-4.298,-32.821,42.198,23.443,-8.987,-30.867,-33.602
'[15:43:21.023 06/11/2076]',3.126,-1.563,-41.416,-24.225,1.563,-17.973,-9.377,-37.118,-16.020,-39.072,-17.582,11.722,-6.642,-37.900,-21.490,5.470,-6.642,-34.774,42.198,14.066,-13.284,-29.695,-21.490
'[15:43:21.027 06/11/2076]',-1.563,-0.391,-42.979,-25.397,-6.642,-17.192,-11.331,-33.602,-19.536,-42.198,-14.847,9.768,-16.410,-42.589,-5.079,-1.954,-12.112,-33.993,43.761,8.987,-18.364,-32.821,-5.079
'[15:43:21.031 06/11/2076]',-1.172,-4.298,-38.291,-21.490,-7.424,-26.178,-1.172,-30.867,-18.755,-42.589,-13.284,11.722,-12.894,-37.900,-18.364,6.252,-17.973,-26.569,39.072,16.410,-19.927,-27.741,-18.364
'[15:43:21.035 06/11/2076]',-9.377,-5.079,-35.556,-14.457,-14.847,-32.039,1.954,-19.536,-21.099,-37.118,-10.940,9.377,-15.238,-32.039,-18.755,6.642,-19.536,-23.834,36.337,9.377,-15.238,-23.443,-18.755
'[15:43:21.039 06/11/2076]',-12.894,-10.549,-22.662,-13.675,-17.973,-38.291,-2.735,-0.781,-21.099,-37.118,-17.582,12.894,-26.569,-16.020,-19.145,-1.172,-19.145,-29.695,23.443,-2.735,0.000,-16.020,-19.145
'[15:43:21.043 06/11/2076]',-4.298,-14.457,-13.284,-10.549,-8.987,-38.681,0.781,2.735,-16.410,-34.383,-17.192,20.708,-18.755,-11.722,-23.443,5.470,-13.284,-26.178,14.066,1.172,5.470,-12.894,-23.443
'[15:43:21.047 06/11/2076]',-2.735,-11.722,-5.079,-15.629,-8.596,-26.960,6.252,-6.252,-15.629,-30.867,-9.377,8.987,-15.238,-13.675,-22.662,3.907,-5.470,-21.880,5.861,5.861,3.126,-15.629,-22.662
'[15:43:21.051 06/11/2076]',1.563,-8.205,-5.079,-14.457,-3.516,-14.457,0.391,-8.205,-11.722,-35.165,-5.079,10.940,-12.503,-22.662,-19.927,14.066,-5.470,-23.053,5.861,9.768,-5.079,-19.927,-19.927
'[15:43:21.055 06/11/2076]',1.172,-5.470,-5.861,-12.894,0.391,-11.331,-2.735,-9.768,-7.814,-37.509,-5.079,14.457,-3.516,-34.383,-18.755,21.099,-3.516,-22.271,6.642,16.020,-8.987,-25.006,-18.755
'[15:43:21.059 06/11/2076]',-12.503,-5.470,-12.112,-15.629,-15.629,-10.940,-4.689,-15.238,-10.940,-39.463,-5.079,1.954,-6.252,-39.463,-23.834,15.238,-5.470,-23.053,12.894,19.536,-12.112,-28.913,-23.834
'[15:43:21.063 06/11/2076]',-27.741,-6.642,-17.192,-12.894,-29.695,-10.549,-12.112,-12.894,-10.940,-43.370,-8.987,-7.814,-11.722,-40.635,-26.178,7.033,-9.377,-26.569,17.973,16.801,-7.033,-30.476,-26.178
'[15:43:21.066 06/11/2076]',-22.271,-10.940,-10.159,-17.192,-21.099,-14.066,-12.503,-13.675,-9.377,-42.198,-13.675,-0.391,-7.814,-46.886,-25.006,12.894,-8.596,-27.350,10.940,17.192,-4.298,-31.648,-25.006
'[15:43:21.070 06/11/2076]',-22.271,-17.192,-7.424,-16.020,-24.615,-10.940,-11.331,-16.801,-11.722,-38.681,-15.238,0.391,-0.781,-51.184,-39.463,25.006,-7.814,-26.178,8.205,21.880,-1.563,-30.476,-39.463
'[15:43:21.074 06/11/2076]',-10.940,-16.801,-8.987,-12.503,-10.940,-9.377,-13.284,-16.020,-17.192,-33.993,-16.020,-15.238,-10.549,-42.198,-41.807,11.331,-9.377,-28.523,9.768,14.457,2.735,-23.834,-41.807
'[15:43:21.078 06/11/2076]',4.689,-15.238,-6.642,-13.284,8.987,-11.331,-15.629,-12.894,-13.284,-29.695,-18.755,-20.708,-14.847,-34.383,-38.681,3.907,-8.596,-30.867,7.424,4.689,5.470,-19.927,-38.681
'[15:43:21.082 06/11/2076]',10.549,-17.973,-5.079,-14.847,14.066,-7.814,-11.331,-21.880,-8.596,-25.006,-17.582,-14.066,-1.954,-45.714,-34.383,15.238,-4.298,-24.615,5.861,16.410,-3.516,-24.615,-34.383
'[15:43:21.086 06/11/2076]',5.861,-16.801,-12.112,-19.927,8.987,-5.079,-11.331,-36.337,-5.470,-24.615,-14.847,-17.192,0.391,-51.966,-31.258,19.145,-5.470,-18.755,12.894,21.490,-14.457,-27.350,-31.258
'[15:43:21.090 06/11/2076]',-8.596,-17.192,-6.252,-21.490,-3.126,-5.079,-18.364,-26.960,-6.252,-31.258,-14.847,-15.238,-10.159,-48.840,-25.006,15.238,-9.768,-24.225,7.033,14.457,-15.238,-27.741,-25.006
'[15:43:21.094 06/11/2076]',-18.755,-18.755,0.391,-18.364,-13.284,-2.735,-20.317,-18.755,-8.205,-32.039,-15.629,-9.768,-14.457,-55.092,-13.284,16.410,-7.033,-25.788,0.391,8.596,-11.331,-33.211,-13.284
'[15:43:21.098 06/11/2076]',-31.258,-20.708,-6.252,-10.940,-24.225,-8.987,-12.112,-23.834,-14.847,-26.178,-16.410,-14.847,-14.847,-51.966,-22.662,17.192,-2.735,-23.443,7.033,9.768,-4.298,-31.258,-22.662
'[15:43:21.102 06/11/2076]',-19.536,-20.708,-6.252,-2.735,-9.768,-15.238,-6.642,-17.582,-18.755,-19.536,-21.880,-7.033,-14.847,-44.542,-27.741,18.364,0.391,-25.397,7.033,-0.781,14.066,-24.225,-27.741
'[15:43:21.105 06/11/2076]',-9.768,-16.020,-0.781,-0.391,0.391,-14.066,-5.079,-8.205,-19.536,-14.457,-20.708,-8.205,-22.271,-34.774,-15.629,8.596,8.987,-26.178,1.563,-11.722,23.053,-22.271,-15.629
'[15:43:21.109 06/11/2076]',-1.954,-10.940,-5.861,-5.079,7.424,-7.424,-3.516,-21.490,-19.145,-7.033,-14.457,-13.284,-18.755,-32.821,-10.549,7.424,15.238,-15.629,6.642,-5.470,10.940,-23.053,-10.549
'[15:43:21.113 06/11/2076]',-1.172,-8.596,-8.987,-2.344,9.768,-0.391,-6.252,-25.788,-18.755,-6.252,-4.689,-11.331,-16.020,-37.900,-4.689,16.020,11.722,-6.252,9.768,4.689,-7.424,-24.225,-4.689
'[15:43:21.117 06/11/2076]',-0.781,-6.642,-2.344,-3.126,8.987,7.424,-7.814,-23.443,-12.112,-5.079,2.344,-3.907,-11.331,-39.072,5.861,25.006,13.284,0.391,3.126,3.126,-14.457,-24.615,5.861
'[15:43:21.121 06/11/2076]',-7.424,-5.861,-2.344,-1.954,0.781,12.112,-7.424,-25.788,-11.722,-2.344,3.907,3.126,-6.642,-45.324,8.987,36.337,15.629,6.642,3.126,5.861,-21.490,-23.834,8.987
'[15:43:21.125 06/11/2076]',-8.205,-6.252,-7.814,0.391,0.391,10.549,-6.252,-27.741,-14.066,-0.781,2.344,-5.861,-10.940,-38.681,0.391,29.695,10.549,7.033,8.596,5.470,-17.582,-19.536,0.391
'[15:43:21.129 06/11/2076]',0.391,-6.252,-9.377,-1.563,8.205,7.814,-6.252,-27.350,-16.410,-1.954,-0.391,-15.238,-18.755,-31.648,-1.954,16.410,8.596,3.907,10.159,0.391,-10.940,-17.192,-1.954
'[15:43:21.133 06/11/2076]',7.424,-8.205,-8.596,-2.344,16.801,5.861,-3.126,-32.430,-22.271,-4.298,-1.563,-7.424,-21.490,-37.509,-2.735,25.397,9.377,3.516,9.377,4.689,-10.549,-19.536,-2.735
'[15:43:21.137 06/11/2076]',5.079,-10.159,-17.192,0.391,21.880,0.391,-3.907,-40.635,-18.364,-3.907,-3.126,-3.126,-13.284,-40.244,-7.424,31.258,8.205,0.391,17.973,13.284,-14.457,-18.364,-7.424
'[15:43:21.141 06/11/2076]',-6.252,-6.252,-7.033,-0.391,14.457,-3.126,-1.563,-30.085,-14.847,-7.814,-1.954,-9.768,-22.271,-28.523,-1.172,16.020,5.861,-7.033,7.814,1.563,-9.768,-11.331,-1.172
'[15:43:21.145 06/11/2076]',-17.192,-3.126,-2.735,5.861,2.344,-3.126,0.000,-15.629,-8.596,-10.159,-0.781,-11.722,-26.569,-22.271,3.907,11.722,8.596,-7.424,3.516,-5.861,-6.252,-10.940,3.907
'[15:43:21.148 06/11/2076]',-27.350,-4.298,-3.516,9.768,-12.112,0.000,8.987,-21.880,-3.907,-5.079,1.563,-3.126,-14.066,-29.304,5.861,24.615,12.894,3.126,4.298,6.642,-14.066,-13.284,5.861
'[15:43:21.152 06/11/2076]',-19.927,-8.987,-1.563,12.503,-8.987,-0.391,17.582,-25.788,-0.781,-4.298,4.298,-2.344,-6.642,-33.602,0.781,34.774,12.894,12.112,2.344,15.629,-14.457,-15.238,0.781
'[15:43:21.156 06/11/2076]',-12.894,-14.457,-1.172,14.066,-8.205,-1.563,15.629,-19.536,-4.298,-8.596,1.563,-1.954,-16.410,-30.476,4.298,28.132,9.768,10.159,1.954,12.503,-8.987,-15.629,4.298
'[15:43:21.160 06/11/2076]',-17.192,-11.331,0.000,14.066,-14.457,-1.563,19.927,-17.973,-7.814,-7.814,-1.954,0.391,-21.880,-22.662,-1.954,26.960,10.940,12.112,0.781,7.424,-1.563,-10.940,-1.954
'[15:43:21.164 06/11/2076]',-11.722,-12.503,-3.907,18.755,-8.205,-13.284,30.476,-18.364,-4.298,-5.079,-9.768,0.391,-11.331,-24.615,-10.159,25.788,11.722,12.894,4.689,7.424,7.814,-11.722,-10.159
'[15:43:21.168 06/11/2076]',-18.755,-6.642,-4.298,12.112,-16.801,-15.238,31.258,-16.410,3.126,-2.344,-13.675,-16.410,-11.722,-17.582,-6.642,5.861,11.331,7.033,5.079,-2.735,11.331,-10.159,-6.642
'[15:43:21.172 06/11/2076]',-5.079,2.735,-5.861,1.563,-2.735,-8.205,27.350,-23.053,11.722,3.516,-16.410,-23.443,-0.781,-15.629,-10.159,2.344,15.629,5.861,6.642,-4.298,10.159,-11.331,-10.159
'[15:43:21.176 06/11/2076]',2.735,3.907,-17.582,3.907,2.735,0.391,19.927,-31.648,14.457,9.377,-14.847,-24.615,9.377,-23.834,-9.768,9.377,16.020,9.768,18.364,6.642,-4.298,-14.457,-9.768
'[15:43:21.180 06/11/2076]',4.689,5.079,-14.066,-1.954,1.563,11.331,13.675,-33.602,10.549,15.238,-10.549,-32.821,2.735,-23.443,-4.298,8.987,18.755,8.596,14.847,8.596,-15.629,-16.020,-4.298
'[15:43:21.184 06/11/2076]',6.642,6.252,-14.457,-1.563,0.000,18.364,9.768,-32.039,8.987,17.973,-7.424,-23.053,3.907,-23.834,-0.391,16.801,25.006,6.642,15.238,10.159,-20.708,-15.238,-0.391
'[15:43:21.188 06/11/2076]',3.126,3.126,-11.331,-0.391,0.000,16.410,8.205,-30.867,4.298,16.410,-5.470,-10.549,3.516,-26.569,-0.781,28.523,28.132,5.079,12.112,12.894,-23.834,-14.457,-0.781
'[15:43:21.191 06/11/2076]',-2.344,2.344,-5.079,-7.033,-2.344,11.722,7.424,-28.913,2.735,10.940,-3.907,-20.708,-6.642,-19.927,0.391,14.066,27.350,-1.563,5.861,8.596,-20.708,-16.410,0.391
'[15:43:21.195 06/11/2076]',1.563,4.689,-0.781,-3.126,3.126,10.549,6.642,-18.364,3.516,2.344,0.391,-25.788,-14.847,-14.066,3.126,5.470,23.834,-4.689,1.563,0.781,-21.490,-17.192,3.126
'[15:43:21.199 06/11/2076]',12.894,2.735,-5.079,-5.079,15.238,9.377,5.470,-26.178,3.516,-3.907,3.126,-6.252,-6.252,-21.099,0.000,24.225,19.536,0.000,5.861,5.861,-26.569,-19.927,0.000
'[15:43:21.203 06/11/2076]',15.238,0.781,-6.252,-0.391,14.457,11.331,7.814,-25.788,0.000,-6.252,7.814,5.861,-0.781,-25.397,-3.516,37.509,15.238,5.470,7.033,11.331,-28.913,-22.662,-3.516
'[15:43:21.207 06/11/2076]',2.735,4.689,-10.940,-1.172,-2.344,16.410,1.563,-20.317,-11.331,-11.722,13.284,-1.563,-14.457,-19.145,-0.391,22.271,12.894,-0.391,11.722,0.781,-24.615,-21.490,-0.391
'[15:43:21.211 06/11/2076]',8.205,6.642,-8.987,-0.781,4.689,20.708,-3.516,-18.755,-14.847,-13.675,16.801,3.126,-14.847,-21.099,4.298,22.271,16.020,-3.126,9.768,-1.563,-20.317,-24.225,4.298
'[15:43:21.215 06/11/2076]',12.112,3.516,-1.172,4.298,12.503,22.662,0.000,-16.801,-14.847,-13.675,18.755,10.549,-1.563,-30.085,-0.391,32.430,21.099,0.000,1.954,10.159,-19.145,-30.085,-0.391
'[15:43:21.219 06/11/2076]',1.172,-0.391,-2.344,11.722,3.126,21.099,-0.391,-14.457,-16.020,-12.894,17.582,10.940,1.172,-32.821,-6.252,35.946,22.662,-3.516,3.126,12.112,-14.066,-30.867,-6.252
'[15:43:21.223 06/11/2076]',14.457,-1.954,-4.298,13.675,21.099,17.192,-8.205,-8.205,-14.847,-10.940,11.722,13.284,0.391,-26.960,-2.735,28.132,22.662,-10.549,5.079,1.563,-4.689,-29.304,-2.735
'[15:43:21.227 06/11/2076]',15.238,-3.907,-8.596,16.410,26.960,4.689,-11.331,-2.344,-21.490,-8.205,2.344,16.801,-6.252,-9.768,-16.020,21.490,16.410,-12.894,9.377,-10.159,14.066,-20.317,-16.020
'[15:43:21.230 06/11/2076]',7.814,-5.470,-14.457,16.410,22.662,-3.126,-4.689,-10.940,-23.053,-3.907,3.907,9.768,-7.033,-6.252,-19.927,20.317,14.457,-11.722,15.238,-6.252,12.503,-17.973,-19.927
'[15:43:21.234 06/11/2076]',14.457,-2.344,-16.410,7.814,29.304,0.781,-5.470,-21.880,-19.536,-0.391,8.596,-0.781,-10.159,-4.298,-8.596,10.940,12.112,-11.722,17.192,-7.424,7.033,-16.801,-8.596
'[15:43:21.238 06/11/2076]',19.536,0.781,-8.987,7.424,32.821,8.987,-7.424,-16.020,-17.582,-0.391,13.675,8.596,-8.205,-13.284,-1.563,26.569,9.768,-6.642,9.768,-3.126,-9.768,-19.145,-1.563
'[15:43:21.242 06/11/2076]',14.066,-1.172,-6.642,11.722,22.662,12.112,-3.907,-14.066,-15.238,0.781,17.582,5.861,-4.298,-14.847,-0.781,28.913,10.549,2.344,7.424,7.814,-20.317,-18.755,-0.781
'[15:43:21.246 06/11/2076]',16.801,-1.954,-4.689,15.629,21.880,14.066,-3.907,-6.642,-17.582,4.298,20.708,1.563,-6.642,-16.020,8.987,22.271,12.112,8.205,5.470,8.596,-23.053,-21.490,8.987
'[15:43:21.250 06/11/2076]',20.317,-2.735,-6.642,17.192,20.708,13.675,-4.298,-3.516,-14.066,3.907,18.364,12.503,1.563,-13.675,1.954,30.867,11.722,11.722,7.424,4.298,-15.629,-17.582,1.954
'[15:43:21.254 06/11/2076]',12.112,-3.907,-7.814,17.192,14.847,6.642,-0.391,-5.079,-14.457,6.252,18.364,20.708,5.470,-14.457,2.735,36.337,14.847,14.066,8.596,3.907,-14.066,-14.066,2.735
'[15:43:21.258 06/11/2076]',24.225,-0.781,-8.987,17.973,29.304,3.516,2.735,-3.907,-9.768,5.079,21.490,6.252,1.563,-5.861,5.861,21.880,15.238,9.768,9.768,3.126,-15.629,-12.503,5.861
'[15:43:21.262 06/11/2076]',18.755,1.563,-17.192,18.755,22.271,3.126,0.391,-4.689,-4.298,3.516,19.145,0.781,-5.861,1.563,8.987,14.066,14.847,2.735,17.973,-4.298,-17.582,-8.987,8.987
'[15:43:21.266 06/11/2076]',13.675,-3.516,-14.066,19.927,15.238,1.172,7.033,-8.987,4.689,5.079,15.238,14.066,4.689,-7.033,10.159,31.648,18.755,9.377,14.847,4.689,-22.271,-12.112,10.159
'[15:43:21.270 06/11/2076]',26.569,-9.768,-13.675,23.834,26.960,0.781,14.457,-17.192,12.894,10.159,15.238,14.457,17.192,-13.284,11.331,38.291,20.708,14.847,14.457,17.973,-23.443,-16.020,11.331
'[15:43:21.273 06/11/2076]',28.132,-10.159,-16.020,24.225,29.304,0.391,7.814,-12.112,14.847,11.331,10.549,5.079,10.159,-5.861,8.596,29.304,15.629,9.377,16.801,14.066,-21.880,-11.331,8.596
'[15:43:21.277 06/11/2076]',19.927,-9.768,-17.582,23.443,20.708,1.172,1.563,-8.205,13.284,10.549,5.079,3.126,3.126,-1.954,7.814,24.615,12.112,7.033,18.364,7.814,-18.364,-7.814,7.814
'[15:43:21.281 06/11/2076]',22.662,-11.331,-23.834,27.350,22.271,-2.344,7.033,-12.894,7.424,14.847,3.907,0.391,3.907,-3.907,3.126,24.225,10.940,9.377,24.615,14.457,-17.192,-7.033,3.126
'[15:43:21.285 06/11/2076]',23.053,-10.940,-22.271,26.960,29.304,-8.596,8.205,-11.331,4.689,16.801,1.563,-1.954,-1.172,3.126,0.391,18.755,9.768,3.907,23.053,8.987,-7.814,-1.172,0.391
'[15:43:21.289 06/11/2076]',12.894,-7.033,-19.536,27.350,19.145,-12.503,2.344,3.126,-3.126,14.066,-8.987,0.000,-21.099,18.364,3.126,0.391,8.596,-3.516,20.317,-11.331,13.284,5.470,3.126
'[15:43:21.293 06/11/2076]',8.205,-4.689,-16.020,23.053,16.801,-15.238,9.768,-1.563,3.516,17.582,-7.814,4.298,-7.424,18.364,3.907,2.735,11.722,2.735,16.801,-12.503,23.053,4.298,3.907
'[15:43:21.297 06/11/2076]',9.768,-0.391,-12.112,17.192,22.271,-11.331,12.503,-9.377,6.642,17.582,0.391,-4.298,-1.563,16.801,2.344,3.907,13.675,7.424,12.894,-4.689,14.847,-0.391,2.344
'[15:43:21.301 06/11/2076]',9.377,0.391,-12.503,18.755,18.755,-4.689,7.814,-5.861,5.079,12.112,6.252,1.563,-3.126,11.331,3.126,15.238,12.112,5.079,13.284,-1.172,0.391,-3.126,3.126
'[15:43:21.305 06/11/2076]',3.907,0.000,-17.192,16.410,10.940,-0.391,5.470,-13.284,5.470,7.033,10.940,12.112,6.252,2.735,-1.954,30.476,11.722,5.079,17.973,6.642,-7.033,-8.205,-1.954
'[15:43:21.309 06/11/2076]',9.377,-2.344,-18.755,17.582,17.192,-3.516,7.814,-15.238,-5.079,0.391,17.192,8.596,-1.954,4.298,-7.814,27.741,6.252,5.470,19.536,12.112,-12.894,-7.424,-7.814
'[15:43:21.313 06/11/2076]',19.536,-1.172,-18.364,20.317,27.741,-8.987,7.814,-7.033,-12.894,-7.814,19.927,7.033,-14.066,7.424,-3.516,16.801,-0.391,5.079,19.145,7.424,-10.940,-7.424,-3.516
'[15:43:21.316 06/11/2076]',18.755,-0.391,-17.582,17.582,24.225,-11.331,11.722,-6.252,-6.252,-12.503,21.099,22.271,-2.735,6.642,-4.298,25.397,-3.907,10.549,18.364,8.596,-12.503,-5.861,-4.298
'[15:43:21.320 06/11/2076]',24.225,-1.563,-16.801,16.801,24.615,-11.722,17.192,-7.814,-5.470,-14.457,23.053,28.913,3.516,3.516,-8.205,34.383,-5.079,20.708,17.582,12.503,-16.020,-6.252,-8.205
'[15:43:21.324 06/11/2076]',20.317,0.391,-16.801,17.192,17.582,-8.596,16.410,-3.907,-9.377,-12.503,24.225,17.582,-9.377,13.284,-3.907,20.708,-7.033,20.317,17.582,8.205,-19.927,-3.516,-3.907
'[15:43:21.328 06/11/2076]',10.940,-0.391,-13.675,17.582,6.642,-7.033,14.847,0.391,-7.424,-10.549,21.880,14.457,-14.847,17.973,0.391,15.238,-6.642,19.145,14.457,0.391,-15.629,-2.735,0.391
'[15:43:21.332 06/11/2076]',10.159,-5.470,-10.940,20.708,12.112,-9.377,21.099,-9.377,-11.722,-2.735,23.443,22.271,-6.642,7.814,2.344,28.523,-1.563,26.960,11.722,8.596,-14.457,-3.907,2.344
'[15:43:21.336 06/11/2076]',22.662,-7.814,-7.424,24.615,27.741,-8.987,28.523,-15.629,-8.987,0.000,28.523,20.708,-1.563,1.172,10.159,30.476,-2.344,33.602,8.205,16.801,-13.284,-7.033,10.159
'[15:43:21.340 06/11/2076]',10.940,-5.079,0.391,30.867,15.629,-5.079,25.788,0.000,-7.424,1.172,28.523,20.708,-9.768,9.377,17.973,24.615,-3.126,29.304,0.391,10.549,-10.940,-1.172,17.973
'[15:43:21.344 06/11/2076]',4.689,-4.689,4.298,35.946,4.689,-2.344,28.913,8.596,-8.596,6.252,27.350,21.099,-10.549,23.053,9.768,23.443,-1.172,33.602,-3.516,7.033,-2.344,8.205,9.768
'[15:43:21.348 06/11/2076]',0.000,-0.781,8.987,42.979,-6.252,2.344,42.589,12.112,-11.331,15.629,28.132,16.801,-9.377,25.397,10.159,22.662,1.954,44.151,-8.205,7.424,3.907,7.033,10.159
'[15:43:21.352 06/11/2076]',-17.973,-0.391,12.112,54.310,-27.350,0.781,50.794,23.053,-16.410,25.006,22.271,20.708,-13.284,30.476,11.722,22.662,5.079,46.886,-11.331,-0.391,16.020,12.894,11.722
'[15:43:21.355 06/11/2076]',-14.457,5.861,14.066,48.449,-20.708,0.000,50.794,23.834,-10.549,34.383,23.053,9.768,-12.112,39.463,19.927,8.596,11.722,49.231,-13.284,-17.192,29.695,17.582,19.927
'[15:43:21.359 06/11/2076]',-0.391,6.642,14.457,48.449,0.391,-0.781,52.357,17.973,-6.252,41.026,26.569,5.861,-5.079,32.821,31.258,8.987,14.066,57.827,-13.675,-12.112,23.834,17.582,31.258
'[15:43:21.363 06/11/2076]',-2.735,0.391,11.331,51.966,-2.735,1.172,48.059,14.066,-0.781,38.681,28.523,1.954,-2.344,26.569,28.132,15.629,10.549,55.873,-10.549,0.781,12.503,18.364,28.132
'[15:43:21.367 06/11/2076]',-6.642,-1.172,15.629,50.403,-4.689,3.907,44.151,14.457,8.596,38.681,27.741,0.391,2.344,24.615,27.741,20.317,11.331,51.184,-14.847,5.470,9.377,21.490,27.741
'[15:43:21.371 06/11/2076]',5.079,-3.126,18.755,53.138,8.596,5.079,44.151,14.847,14.066,37.900,22.662,1.563,12.112,20.317,17.192,27.741,12.112,46.886,-17.973,12.894,10.549,25.397,17.192
'[15:43:21.375 06/11/2076]',-0.781,-1.954,21.099,53.919,5.470,2.735,47.668,15.238,14.847,34.383,16.410,-12.503,9.377,19.145,6.642,18.755,12.503,40.635,-20.317,15.629,15.629,25.788,6.642
'[15:43:21.379 06/11/2076]',-1.954,1.172,23.053,51.966,6.642,1.954,46.886,18.364,15.238,33.211,10.940,-25.006,3.126,23.443,5.079,3.516,13.284,35.556,-22.271,6.642,23.834,28.132,5.079
'[15:43:21.383 06/11/2076]',-7.814,2.735,25.006,46.496,-3.126,3.907,51.575,14.847,14.066,37.509,8.987,-15.629,9.377,16.020,8.596,10.940,16.020,40.635,-24.225,8.596,22.271,25.006,8.596
'[15:43:21.387 06/11/2076]',-8.987,-2.735,21.490,47.277,-7.424,0.391,53.529,9.768,10.940,37.900,6.252,-5.079,12.894,7.424,7.033,24.225,16.020,45.324,-20.708,16.801,16.020,19.927,7.033
'[15:43:21.391 06/11/2076]',-19.927,-0.391,17.582,46.886,-15.629,-2.344,47.277,14.457,8.596,35.946,3.907,-12.112,0.391,17.582,10.159,8.596,10.549,37.509,-16.801,7.814,19.536,21.490,10.159
'[15:43:21.395 06/11/2076]',-19.536,4.298,11.331,42.198,-10.940,-3.126,39.853,13.284,3.126,37.509,2.735,-17.582,-10.549,21.880,16.410,-1.954,11.331,30.867,-10.549,-1.563,17.973,19.145,16.410
'[15:43:21.398 06/11/2076]',8.596,2.344,5.861,39.072,25.397,-5.861,39.463,-1.954,2.344,41.416,-0.781,-15.629,0.000,12.112,6.642,8.987,15.238,32.039,-5.079,10.549,8.596,16.020,6.642
'[15:43:21.402 06/11/2076]',17.582,2.344,0.391,38.291,37.900,-4.689,38.681,-12.503,1.954,44.151,-3.907,-16.020,2.735,11.331,-3.516,15.629,16.410,26.960,0.391,11.331,10.549,18.755,-3.516
'[15:43:21.406 06/11/2076]',9.377,2.735,-1.954,34.383,26.569,-3.126,30.867,-8.596,8.596,45.324,-14.457,-17.192,1.954,17.582,-4.298,7.033,16.410,18.364,2.735,1.563,14.847,22.271,-4.298
'[15:43:21.410 06/11/2076]',6.252,0.000,-0.781,32.039,16.801,-2.735,30.867,-8.205,21.099,44.542,-21.880,-15.238,10.159,21.099,-6.642,4.689,18.755,18.755,1.563,-1.172,23.443,21.880,-6.642
'[15:43:21.414 06/11/2076]',-10.159,-3.516,-1.172,39.853,1.563,-7.814,38.681,-8.205,32.039,44.151,-30.476,-10.159,21.490,21.880,-14.066,7.424,19.536,16.801,1.954,0.000,37.900,21.099,-14.066
'[15:43:21.418 06/11/2076]',-10.549,1.172,-0.391,32.430,3.516,-9.377,38.291,-10.549,37.900,42.198,-31.258,-25.006,19.927,27.350,-14.066,-8.596,18.364,12.112,1.172,-7.814,47.277,17.973,-14.066
'[15:43:21.422 06/11/2076]',-7.424,4.689,-2.735,25.788,6.642,-1.172,32.039,-16.020,30.867,40.244,-28.132,-27.350,13.675,18.364,1.172,-16.801,21.490,10.159,3.516,-3.516,35.946,13.675,1.172
'[15:43:21.426 06/11/2076]',1.172,5.861,-9.377,28.913,15.629,2.735,27.741,-20.708,26.178,38.681,-26.960,-24.225,14.457,10.940,-1.563,-9.377,17.973,11.331,10.159,6.252,24.615,8.987,-1.563
'[15:43:21.430 06/11/2076]',3.126,5.861,-14.457,28.132,16.020,3.126,23.053,-20.317,22.271,35.946,-21.880,-28.132,8.987,13.675,2.735,-16.801,14.066,13.675,15.238,6.642,14.457,10.940,2.735
'[15:43:21.434 06/11/2076]',6.642,4.298,-17.192,28.913,17.192,3.516,20.317,-18.364,23.053,33.211,-18.364,-15.629,13.675,14.066,6.252,-12.112,13.284,16.020,17.973,7.814,8.987,12.503,6.252
'[15:43:21.438 06/11/2076]',15.629,-1.954,-17.973,30.085,26.178,-0.781,22.271,-22.662,28.913,26.960,-17.192,-2.344,27.350,10.940,-3.126,1.563,10.549,19.927,18.755,11.331,10.549,12.894,-3.126
'[15:43:21.441 06/11/2076]',20.317,-5.861,-14.847,29.695,30.085,-1.563,25.397,-24.615,29.695,17.582,-12.894,-11.331,22.271,14.457,-3.907,-9.768,7.033,19.145,15.629,10.940,13.284,10.940,-3.907
'[15:43:21.445 06/11/2076]',28.913,-4.298,-14.847,26.569,36.728,1.172,24.615,-25.788,20.317,8.205,-8.987,-18.755,12.503,12.112,-4.689,-18.755,5.079,18.755,15.629,8.987,12.112,5.861,-4.689
'[15:43:21.449 06/11/2076]',25.397,-7.814,-12.894,27.741,28.523,5.079,27.741,-30.085,12.112,0.781,-8.596,1.172,14.847,0.000,-8.205,0.000,2.735,24.225,13.675,17.192,10.549,0.000,-8.205
'[15:43:21.453 06/11/2076]',14.457,-8.205,-10.159,32.821,14.457,10.159,31.648,-28.523,8.596,-1.954,-4.689,14.066,17.582,-5.861,-4.298,8.987,0.000,31.258,10.940,23.053,5.079,-1.563,-4.298
'[15:43:21.457 06/11/2076]',8.987,-5.079,-9.377,36.337,6.252,13.284,27.741,-18.364,0.391,-4.689,1.172,9.768,6.252,7.424,-1.172,-5.079,-2.344,30.085,10.159,15.238,7.424,3.907,-1.172
