'Time and date','FP1-F7','F7-T7','T7-P7','P7-O1','FP1-F3','F3-C3','C3-P3','P3-O1','FP2-F4','F4-C4','C4-P4','P4-O2','FP2-F8','F8-T8','T8-P8','P8-O2','FZ-CZ','CZ-PZ','P7-T7','T7-FT9','FT9-FT10','FT10-T8','T8-P8'
'hh:mm:ss.mmm dd/mm/yyyy','uV','uV','uV','uV','uV','uV','uV','uV','uV','uV','uV','uV','uV','uV','uV','uV','uV','uV','uV','uV','uV','uV','uV'
'[12:34:22.000 07/11/2076]',-50.403,118.388,162.149,42.979,133.236,-213.724,312.186,41.416,57.045,-1.954,23.443,46.105,76.972,-15.238,-30.867,93.773,16.020,28.523,-161.368,-27.350,229.353,-2.735,-30.867
'[12:34:22.004 07/11/2076]',0.391,0.391,0.391,0.391,0.391,0.391,0.391,0.391,0.391,0.391,0.391,0.391,0.391,0.391,0.391,0.391,0.391,0.391,0.391,0.391,0.391,0.391,0.391
'[12:34:22.008 07/11/2076]',0.391,0.391,0.391,0.391,0.391,0.781,0.000,0.391,0.391,0.391,0.391,0.391,0.391,0.391,0.781,0.391,0.391,0.391,0.391,0.391,0.391,0.391,0.781
'[12:34:22.012 07/11/2076]',0.391,0.391,0.391,0.391,0.391,1.172,-0.781,0.391,0.391,0.391,0.391,1.172,0.391,0.391,1.172,0.391,0.391,0.391,0.391,0.391,-0.781,0.391,1.172
'[12:34:22.016 07/11/2076]',0.391,0.391,0.000,0.391,0.781,-2.344,2.344,0.000,1.172,-0.781,0.391,-1.954,0.391,1.172,-3.516,0.391,-0.391,-3.126,0.781,-0.391,1.954,1.172,-3.516
'[12:34:22.020 07/11/2076]',0.391,1.563,1.563,0.391,1.563,-3.907,5.079,0.391,0.391,-0.391,0.781,-3.516,0.781,0.781,-3.516,-0.781,0.391,-0.781,-0.781,-0.391,5.079,-0.391,-3.516
'[12:34:22.023 07/11/2076]',0.391,0.781,3.126,0.000,0.000,3.516,-0.781,1.954,-1.954,3.907,0.391,4.298,1.563,-1.954,8.987,-1.563,2.735,10.940,-2.344,2.735,0.391,-3.516,8.987
'[12:34:22.027 07/11/2076]',0.781,-0.391,0.781,0.781,-1.563,8.205,-6.252,1.954,-1.563,4.689,-0.391,9.377,1.172,-1.563,11.331,0.781,1.954,9.768,0.000,3.126,-5.079,-0.781,11.331
'[12:34:22.031 07/11/2076]',0.000,0.391,-1.954,1.172,0.781,-3.516,2.735,0.391,2.735,-3.907,0.000,-3.907,-0.781,3.516,-10.549,2.344,-3.126,-12.112,2.735,-3.516,0.391,5.861,-10.549
'[12:34:22.035 07/11/2076]',-1.172,1.954,0.000,0.000,1.954,-10.549,9.768,-0.391,1.954,-6.642,0.781,-13.284,-1.172,3.516,-16.801,-1.954,-3.126,-14.066,0.781,-5.079,8.987,2.735,-16.801
'[12:34:22.039 07/11/2076]',-0.781,3.126,5.079,-1.172,2.735,-6.252,9.377,0.781,-3.126,0.781,0.781,-7.033,1.563,-2.735,0.000,-7.814,2.344,7.424,-4.298,0.391,13.284,-7.424,0.000
'[12:34:22.043 07/11/2076]',-2.344,11.722,15.629,-0.391,10.549,-26.960,33.602,6.252,-2.735,0.391,1.563,-16.020,8.596,-1.563,-11.331,-12.112,3.516,10.549,-14.847,-1.954,35.946,-12.112,-11.331
'[12:34:22.047 07/11/2076]',-2.344,15.629,29.304,-1.563,6.252,-11.331,28.132,18.364,-14.457,14.847,0.000,3.516,13.284,-9.377,17.192,-17.582,14.066,48.840,-28.523,3.126,35.165,-22.271,17.192
'[12:34:22.051 07/11/2076]',-5.470,16.801,32.039,0.781,-1.563,2.735,17.192,25.006,-24.225,22.662,-5.470,17.192,13.675,-15.238,35.556,-24.225,13.675,67.595,-31.258,4.298,31.258,-26.178,35.556
'[12:34:22.055 07/11/2076]',-8.205,20.708,26.960,3.126,-0.391,-3.516,21.490,26.178,-21.880,11.722,-8.987,1.563,10.549,-7.424,10.159,-30.867,4.689,37.900,-26.178,-6.252,35.946,-13.284,10.159
'[12:34:22.059 07/11/2076]',-12.112,22.662,28.913,0.391,-2.344,-6.642,22.271,27.350,-25.006,-1.954,-11.331,-16.410,3.126,-7.033,-13.675,-38.291,-0.781,18.755,-28.132,-16.410,44.151,-11.331,-13.675
'[12:34:22.063 07/11/2076]',-18.364,14.847,27.350,-1.172,-15.238,0.781,10.159,26.569,-39.853,-7.424,-14.457,-19.536,-0.391,-20.708,-7.033,-53.529,-5.079,26.569,-26.569,-7.033,50.403,-29.304,-7.033
'[12:34:22.066 07/11/2076]',-15.238,19.145,32.039,-4.298,-11.331,7.033,8.596,27.741,-37.118,-8.205,-11.722,-15.629,4.298,-21.099,-1.563,-55.482,0.391,26.178,-31.258,-4.689,41.416,-26.178,-1.563
'[12:34:22.070 07/11/2076]',-15.238,21.099,38.681,-0.391,-13.284,6.642,13.675,37.509,-32.430,-11.331,-10.159,-9.377,8.987,-14.457,-16.410,-43.370,5.079,22.662,-37.900,-5.079,48.449,-28.132,-16.410
'[12:34:22.074 07/11/2076]',-15.629,19.145,35.556,1.954,-15.629,7.033,13.675,35.946,-32.430,-12.112,-11.722,-5.861,9.377,-12.112,-25.397,-35.165,10.549,19.145,-34.774,-6.252,49.231,-28.523,-25.397
'[12:34:22.078 07/11/2076]',-13.675,30.867,34.774,1.954,-5.470,9.768,17.582,32.821,-25.788,-7.424,-8.987,-7.814,8.596,-3.516,-20.317,-37.118,16.020,12.503,-33.993,-11.722,42.979,-25.397,-20.317
'[12:34:22.082 07/11/2076]',-16.020,34.383,31.648,0.391,-0.781,7.814,15.238,26.569,-26.569,-8.987,-9.377,-10.549,6.642,-5.861,-24.615,-32.039,18.755,10.159,-30.867,-14.066,49.621,-35.165,-24.615
'[12:34:22.086 07/11/2076]',-25.397,30.085,23.443,-1.563,-7.814,5.470,7.814,20.708,-36.728,-12.112,-14.847,-9.377,5.470,-17.582,-34.383,-27.350,14.457,8.205,-22.662,-8.987,58.608,-49.621,-34.383
'[12:34:22.090 07/11/2076]',-30.867,26.569,13.284,-7.814,-17.973,1.172,4.298,12.894,-45.714,-12.503,-14.457,-10.940,-3.516,-17.973,-28.132,-34.383,10.940,-1.563,-12.503,-6.252,40.244,-41.026,-28.132
'[12:34:22.094 07/11/2076]',-37.118,24.225,7.033,-9.377,-21.099,-2.735,3.126,5.470,-44.151,-16.801,-12.894,-15.238,1.172,-19.536,-40.244,-30.867,8.987,-11.331,-6.252,-8.205,58.999,-47.277,-40.244
'[12:34:22.098 07/11/2076]',-35.556,12.894,-0.781,-3.516,-25.788,-1.563,-1.954,1.563,-41.026,-13.675,-12.894,-5.470,2.344,-8.205,-43.370,-24.615,14.066,-5.861,1.563,2.344,55.873,-36.337,-43.370
'[12:34:22.102 07/11/2076]',-38.291,5.079,-8.596,-3.907,-32.039,-3.516,-7.814,-1.954,-41.026,-13.675,-12.894,6.252,-3.516,-9.768,-28.132,-20.317,13.675,-5.861,9.377,7.033,42.589,-28.523,-28.132
'[12:34:22.105 07/11/2076]',-44.151,1.563,-14.847,-2.344,-33.993,-12.894,-6.642,-5.079,-37.900,-19.927,-12.894,4.298,-5.470,-10.940,-28.523,-20.317,7.814,-18.755,15.629,9.377,51.184,-31.648,-28.523
'[12:34:22.109 07/11/2076]',-48.840,-1.172,-26.178,-0.391,-35.556,-24.225,-6.642,-9.377,-32.821,-29.695,-14.847,0.781,-2.344,-16.020,-39.853,-18.364,3.516,-24.615,26.960,14.066,57.045,-33.602,-39.853
'[12:34:22.113 07/11/2076]',-53.138,-7.814,-35.556,2.344,-40.635,-26.569,-16.020,-9.377,-36.337,-28.913,-22.662,19.145,0.781,-28.132,-26.960,-14.457,3.907,-5.470,36.337,17.582,63.297,-40.635,-26.960
'[12:34:22.117 07/11/2076]',-59.389,-10.549,-42.979,5.079,-42.198,-29.304,-19.927,-15.238,-37.118,-35.165,-21.490,17.582,-0.391,-36.337,-25.788,-13.675,0.391,-10.940,43.761,18.364,60.952,-39.853,-25.788
'[12:34:22.121 07/11/2076]',-54.310,-2.735,-45.714,4.689,-26.569,-31.648,-15.238,-23.443,-25.006,-45.324,-15.629,8.596,0.391,-34.383,-40.244,-3.126,-3.516,-22.662,46.496,12.112,55.482,-28.913,-40.244
'[12:34:22.125 07/11/2076]',-55.873,-8.987,-51.966,6.252,-26.960,-37.118,-16.020,-29.695,-26.178,-52.357,-14.847,9.768,-5.470,-37.900,-49.621,8.596,-7.424,-26.569,52.747,16.020,49.231,-27.741,-49.621
'[12:34:22.129 07/11/2076]',-62.515,-11.722,-52.357,2.344,-34.774,-35.556,-17.192,-35.556,-30.085,-53.138,-12.503,8.205,-11.331,-45.324,-35.946,4.689,-12.112,-24.615,53.138,23.834,32.039,-27.350,-35.946
'[12:34:22.133 07/11/2076]',-68.767,-12.112,-53.919,0.391,-42.198,-32.039,-16.020,-43.370,-31.648,-53.529,-11.331,8.205,-7.424,-49.621,-37.900,7.033,-14.066,-20.317,54.701,31.258,41.026,-39.463,-37.900
'[12:34:22.137 07/11/2076]',-72.283,-14.457,-56.264,1.563,-48.840,-32.039,-15.238,-44.542,-32.430,-54.701,-14.847,17.973,-3.126,-53.919,-42.979,15.238,-16.020,-8.987,57.045,32.039,53.138,-46.496,-42.979
'[12:34:22.141 07/11/2076]',-73.455,-12.503,-56.264,5.470,-51.575,-29.695,-14.457,-40.635,-32.039,-54.310,-16.410,20.317,1.563,-53.919,-44.542,12.503,-16.801,-1.563,57.045,24.615,64.860,-42.198,-44.542
'[12:34:22.145 07/11/2076]',-71.893,-8.987,-57.827,7.033,-52.747,-29.304,-8.987,-40.635,-28.523,-51.575,-14.066,12.112,-0.781,-48.449,-39.463,6.642,-16.801,-3.126,58.608,24.615,47.668,-32.430,-39.463
'[12:34:22.148 07/11/2076]',-65.641,-4.689,-57.045,8.987,-47.668,-24.225,-7.424,-37.509,-25.006,-48.059,-12.894,8.987,4.298,-50.794,-36.728,3.907,-16.020,-0.391,57.827,24.615,41.807,-29.695,-36.728
'[12:34:22.152 07/11/2076]',-62.515,-5.079,-53.919,14.847,-50.012,-19.536,-9.768,-26.569,-25.397,-43.370,-13.675,13.675,7.424,-51.184,-28.523,0.781,-18.364,0.000,54.701,26.569,30.476,-26.569,-28.523
'[12:34:22.156 07/11/2076]',-64.860,-2.344,-48.840,20.708,-57.436,-17.582,-4.689,-15.238,-25.397,-36.337,-12.503,7.424,7.424,-43.370,-23.834,-8.596,-19.536,-3.516,49.621,28.523,23.053,-25.788,-23.834
'[12:34:22.160 07/11/2076]',-64.078,3.516,-40.635,23.053,-55.482,-16.410,0.391,-6.252,-23.443,-35.165,-12.503,1.954,12.894,-40.244,-33.211,-10.549,-20.317,-3.126,41.416,19.145,44.542,-35.946,-33.211
'[12:34:22.164 07/11/2076]',-57.436,6.642,-32.821,30.867,-52.357,-8.987,-4.298,14.066,-23.443,-30.867,-15.629,19.927,16.410,-34.774,-28.523,-3.126,-16.020,19.536,33.602,12.112,51.184,-39.853,-28.523
'[12:34:22.168 07/11/2076]',-45.714,11.331,-27.350,25.006,-48.449,-5.079,-1.954,18.755,-17.973,-25.397,-12.112,15.238,14.847,-23.053,-25.397,-7.424,-14.066,22.271,28.132,8.987,33.211,-30.476,-25.397
'[12:34:22.172 07/11/2076]',-33.602,16.020,-25.788,11.331,-41.807,-4.298,0.391,14.457,-13.675,-27.350,-5.470,-3.516,10.549,-15.238,-30.085,-16.410,-15.629,5.861,26.569,5.861,8.987,-20.708,-30.085
'[12:34:22.176 07/11/2076]',-20.317,20.708,-26.569,3.126,-35.165,0.000,-2.344,15.238,-12.112,-28.132,-3.126,-8.205,6.642,-10.549,-35.946,-13.284,-16.801,-3.516,27.350,7.033,-16.020,-14.847,-35.946
'[12:34:22.180 07/11/2076]',-9.377,24.615,-27.741,-2.735,-33.211,11.331,-9.377,15.238,-12.112,-16.801,-0.781,-7.814,3.907,-5.861,-17.582,-19.927,-14.457,5.079,28.523,12.894,-40.635,-14.457,-17.582
'[12:34:22.184 07/11/2076]',-11.722,29.304,-23.443,-8.596,-34.774,20.708,-14.847,13.675,-19.145,-10.940,0.391,-7.424,1.563,-5.470,-7.033,-27.350,-17.192,12.894,24.225,9.377,-29.695,-25.006,-7.033
'[12:34:22.188 07/11/2076]',-8.205,30.867,-24.225,-7.033,-31.648,21.490,-16.020,16.801,-22.271,-10.159,0.000,-1.954,-0.781,-2.344,-17.582,-14.457,-17.582,13.675,25.006,8.596,-25.006,-30.476,-17.582
'[12:34:22.191 07/11/2076]',-10.549,28.913,-24.615,-11.722,-33.602,17.973,-14.847,10.940,-28.132,-9.768,0.391,-6.252,-5.861,-2.735,-25.397,-10.159,-19.145,14.457,25.397,4.298,-20.708,-32.039,-25.397
'[12:34:22.195 07/11/2076]',-13.675,27.741,-21.099,-21.880,-35.946,18.755,-12.894,0.391,-37.509,-4.298,1.954,-15.238,-12.503,-4.298,-19.536,-19.536,-20.708,15.238,21.880,5.079,-23.834,-31.648,-19.536
'[12:34:22.199 07/11/2076]',-4.689,24.615,-23.834,-30.085,-34.383,21.490,-14.066,-6.642,-42.979,0.391,3.907,-17.192,-19.927,-0.391,-16.410,-17.582,-17.192,16.801,24.615,18.755,-56.264,-23.834,-16.410
'[12:34:22.203 07/11/2076]',-3.516,26.178,-26.178,-32.039,-34.774,21.880,-13.284,-8.987,-42.589,2.735,3.126,-11.722,-23.834,3.516,-13.284,-14.066,-13.284,18.755,26.960,9.768,-56.654,-16.020,-13.284
'[12:34:22.207 07/11/2076]',-8.987,29.695,-22.662,-35.556,-37.118,23.443,-10.549,-13.284,-38.681,4.298,3.907,-11.722,-26.178,10.159,-7.033,-18.364,-10.940,21.099,23.443,3.907,-46.496,-11.722,-7.033
'[12:34:22.211 07/11/2076]',-7.424,31.258,-21.490,-36.337,-32.039,24.225,-8.205,-17.192,-33.211,2.735,7.814,-9.377,-21.099,10.940,-7.424,-14.066,-7.814,21.099,22.271,3.907,-33.211,-14.847,-7.424
'[12:34:22.215 07/11/2076]',-10.549,25.006,-21.099,-30.476,-32.821,23.834,-11.722,-16.020,-33.993,5.861,5.470,0.391,-18.755,3.516,-2.344,-3.516,-4.298,24.615,21.880,3.907,-21.490,-19.145,-2.344
'[12:34:22.219 07/11/2076]',-15.629,13.675,-20.708,-26.178,-37.118,17.973,-14.457,-15.629,-36.337,11.722,0.781,4.298,-21.880,2.344,0.781,-1.172,-4.298,21.880,21.490,9.768,-15.629,-20.317,0.781
'[12:34:22.223 07/11/2076]',-15.238,1.954,-22.271,-23.443,-39.853,10.159,-14.066,-14.847,-51.184,22.271,-0.781,-1.172,-27.350,3.516,0.391,-8.205,-4.298,7.814,23.053,20.708,-19.145,-18.755,0.391
'[12:34:22.227 07/11/2076]',-14.457,-10.549,-27.350,-15.629,-42.979,-1.172,-16.410,-7.814,-55.092,28.523,-3.907,0.000,-37.900,14.066,2.344,-8.596,-1.563,-0.781,28.132,23.053,-32.430,-8.205,2.344
'[12:34:22.230 07/11/2076]',-21.490,-10.549,-21.880,-12.503,-41.416,-0.391,-17.582,-8.205,-45.324,33.993,-3.907,2.735,-34.774,21.880,8.596,-8.205,8.596,9.768,22.662,14.457,-14.066,-8.596,8.596
'[12:34:22.234 07/11/2076]',-21.880,-6.642,-19.536,-11.722,-32.821,7.033,-20.708,-14.066,-39.072,37.118,0.391,3.126,-28.913,30.476,9.768,-9.377,16.020,15.629,20.317,9.768,-3.126,-3.516,9.768
'[12:34:22.238 07/11/2076]',-17.973,-2.735,-21.099,-10.159,-27.350,12.503,-19.927,-18.755,-33.993,30.085,9.377,-1.172,-34.383,41.416,-2.735,0.781,16.410,5.861,21.880,5.861,-14.457,10.940,-2.735
'[12:34:22.242 07/11/2076]',-23.443,0.391,-19.927,-7.814,-27.741,16.020,-16.410,-23.834,-28.913,26.178,13.675,-5.470,-33.602,47.668,-16.020,8.205,19.145,7.033,20.708,0.781,-8.596,19.145,-16.020
'[12:34:22.246 07/11/2076]',-16.801,0.391,-21.099,-8.596,-22.662,23.053,-20.708,-26.569,-41.026,33.211,14.847,-3.126,-39.463,50.403,-10.549,3.907,23.834,16.020,21.880,8.987,-17.973,21.880,-10.549
'[12:34:22.250 07/11/2076]',-1.172,-5.079,-22.271,-8.205,-14.066,28.132,-25.397,-25.397,-50.403,39.853,16.410,-0.781,-41.807,37.509,7.033,2.344,26.178,17.582,23.053,21.880,-38.681,12.112,7.033
'[12:34:22.254 07/11/2076]',7.424,-1.172,-20.317,-2.735,1.954,23.834,-21.880,-21.490,-28.132,28.913,11.722,-1.954,-26.960,30.085,-1.172,8.205,27.350,11.331,21.099,8.987,-21.490,8.987,-1.172
'[12:34:22.258 07/11/2076]',13.284,5.079,-16.410,0.000,11.722,26.569,-19.927,-16.020,0.781,18.755,7.424,-4.298,-5.470,24.615,-0.781,4.689,27.741,6.642,17.192,2.735,-10.549,5.861,-0.781
'[12:34:22.262 07/11/2076]',16.410,1.954,-21.880,2.344,-0.391,32.821,-21.490,-11.331,5.861,9.377,3.907,-8.596,-5.079,19.927,1.172,-4.298,23.053,1.954,22.662,12.503,-27.741,3.126,1.172
'[12:34:22.266 07/11/2076]',12.112,3.126,-26.960,4.689,-17.192,42.589,-22.271,-8.596,10.549,0.781,1.172,-11.331,-3.516,17.192,1.172,-12.894,22.662,-0.391,27.741,10.549,-28.913,4.298,1.172
'[12:34:22.270 07/11/2076]',-3.126,-0.391,-33.602,7.033,-44.151,49.621,-28.913,-5.470,6.642,1.172,-2.344,-10.940,-2.344,7.424,7.814,-17.192,22.271,0.781,34.383,18.364,-41.807,0.000,7.814
'[12:34:22.273 07/11/2076]',-1.563,-8.205,-37.509,8.205,-46.105,47.277,-33.993,-5.470,-9.768,7.424,-2.344,-12.894,-11.722,1.954,16.020,-23.834,20.317,0.000,38.291,23.834,-54.310,-5.470,16.020
'[12:34:22.277 07/11/2076]',10.940,-10.940,-32.430,15.629,-23.834,44.542,-33.602,-1.954,-10.159,2.735,-0.781,-12.894,-10.940,-3.516,15.238,-22.271,19.145,-7.424,33.211,13.675,-38.291,-8.596,15.238
'[12:34:22.281 07/11/2076]',12.894,-8.596,-26.178,23.053,-8.205,42.198,-34.774,1.954,7.424,3.516,0.391,-1.563,8.596,-3.126,20.708,-15.629,21.490,0.000,26.960,3.516,-19.927,-14.457,20.708
'[12:34:22.285 07/11/2076]',35.946,-15.238,-26.178,24.225,12.503,39.072,-35.946,3.126,2.735,10.549,5.470,5.470,5.470,6.642,31.648,-17.973,19.145,6.252,26.960,7.814,-44.151,-3.516,31.648
'[12:34:22.289 07/11/2076]',41.026,-29.304,-28.523,25.397,-2.735,37.118,-30.867,5.470,10.159,5.079,4.298,2.735,3.907,20.708,25.397,-26.569,12.503,-7.814,29.304,11.331,-59.389,8.596,25.397
'[12:34:22.293 07/11/2076]',48.840,-21.880,-30.867,14.457,0.000,39.072,-25.788,-2.344,18.755,5.861,10.159,-8.205,6.252,29.695,29.695,-38.291,13.675,-4.298,31.648,6.642,-64.860,8.596,29.695
'[12:34:22.297 07/11/2076]',75.800,-28.523,-34.774,7.814,16.410,48.840,-36.337,-7.814,16.410,15.238,10.940,-1.172,7.424,27.741,45.324,-38.681,12.112,19.145,35.556,26.960,-95.336,3.126,45.324
'[12:34:22.301 07/11/2076]',76.190,-35.165,-31.258,8.596,13.284,56.654,-44.151,-7.424,4.298,13.284,10.159,5.861,-1.954,21.880,52.357,-38.291,5.470,22.271,32.039,33.993,-97.680,1.563,52.357
'[12:34:22.305 07/11/2076]',83.614,-27.350,-35.165,6.252,27.741,51.184,-42.979,-8.596,5.861,6.252,11.331,3.907,-3.516,19.536,48.059,-34.383,1.172,6.252,35.946,27.350,-85.958,-7.033,48.059
'[12:34:22.309 07/11/2076]',88.694,-35.556,-42.979,3.516,28.132,42.589,-46.886,-10.159,12.894,7.424,7.814,5.470,3.126,20.708,41.026,-29.695,-6.642,-2.344,43.761,32.039,-100.806,0.391,41.026
'[12:34:22.313 07/11/2076]',84.005,-48.059,-49.231,-1.172,14.066,36.728,-53.919,-13.284,33.211,-0.781,2.344,7.424,10.940,24.615,42.979,-36.728,-12.503,-4.298,50.012,41.807,-120.342,11.722,42.979
'[12:34:22.316 07/11/2076]',89.084,-46.105,-58.999,-16.410,10.549,35.556,-58.217,-20.708,55.092,-7.033,-0.391,4.689,26.569,16.801,46.886,-38.681,-15.629,-5.079,59.780,36.728,-125.812,4.298,46.886
'[12:34:22.320 07/11/2076]',95.336,-57.436,-54.310,-23.053,13.284,33.602,-61.734,-25.397,67.985,-12.894,-6.252,6.252,34.774,8.596,37.118,-25.788,-20.708,0.000,55.092,43.761,-122.295,-3.126,37.118
'[12:34:22.324 07/11/2076]',98.071,-61.343,-50.794,-28.913,13.675,30.867,-62.125,-25.788,65.641,-16.020,-9.377,8.205,33.602,1.563,30.867,-19.145,-25.788,2.735,51.575,44.933,-121.123,-6.642,30.867
'[12:34:22.328 07/11/2076]',91.819,-57.436,-46.496,-35.556,3.126,32.430,-60.171,-23.443,46.105,-12.503,-5.861,7.814,21.099,-0.391,34.383,-20.317,-31.258,0.391,47.277,41.026,-119.951,-11.331,34.383
'[12:34:22.332 07/11/2076]',89.475,-55.092,-39.853,-37.118,-1.172,33.211,-58.217,-16.020,35.946,-8.987,1.172,14.066,16.020,2.735,40.244,-15.238,-31.648,6.642,40.635,38.291,-117.216,-17.582,40.244
'[12:34:22.336 07/11/2076]',96.899,-55.873,-34.774,-34.774,-1.172,39.072,-58.217,-8.596,38.291,-4.298,8.987,22.271,24.225,8.987,44.933,-11.722,-34.383,13.284,35.556,44.151,-123.077,-17.582,44.933
'[12:34:22.340 07/11/2076]',90.256,-51.184,-31.258,-30.085,-8.205,41.807,-56.264,-0.781,40.635,-7.814,16.801,22.662,26.960,14.457,41.026,-9.377,-35.165,8.987,32.039,41.026,-118.779,-16.801,41.026
'[12:34:22.344 07/11/2076]',96.508,-51.575,-30.085,-23.443,-3.126,39.463,-52.357,6.642,35.946,-6.252,19.145,25.788,20.708,23.443,27.350,3.516,-29.304,5.079,30.867,40.635,-120.733,-11.331,27.350
'[12:34:22.348 07/11/2076]',110.965,-63.687,-26.960,-10.940,3.907,41.416,-52.747,13.675,22.662,3.126,17.582,34.774,9.377,31.258,17.192,20.317,-20.317,14.457,27.741,61.734,-137.143,-4.298,17.192
'[12:34:22.352 07/11/2076]',112.918,-58.608,-33.211,0.391,7.033,40.244,-52.357,24.615,17.192,12.894,11.722,45.714,-0.391,44.933,9.377,34.383,-12.894,8.987,33.993,52.357,-146.129,12.112,9.377
'[12:34:22.355 07/11/2076]',114.090,-48.449,-34.383,2.735,12.112,38.681,-42.979,24.615,14.457,23.834,17.192,35.556,-5.861,62.906,4.689,31.258,-6.642,4.298,35.165,38.681,-144.176,25.006,4.689
'[12:34:22.359 07/11/2076]',109.792,-46.886,-25.788,7.033,10.940,43.761,-32.430,20.317,26.569,24.615,25.788,25.788,0.391,57.827,16.020,30.867,-2.344,10.159,26.569,27.741,-128.938,18.755,16.020
'[12:34:22.363 07/11/2076]',107.448,-42.198,-13.675,13.284,15.629,64.078,-33.602,17.582,52.747,33.602,30.476,30.867,29.695,40.244,42.979,35.946,3.516,33.993,14.457,29.304,-117.998,1.954,42.979
'[12:34:22.367 07/11/2076]',112.137,-40.635,-4.298,16.410,21.490,74.628,-32.821,17.973,57.827,31.648,35.556,32.821,28.132,35.556,58.217,37.118,5.079,45.714,5.079,33.211,-122.686,-2.735,58.217
'[12:34:22.371 07/11/2076]',124.249,-51.575,-1.563,21.880,25.397,72.283,-27.741,21.099,56.654,25.788,38.291,29.304,19.145,38.681,44.542,48.449,1.563,42.589,2.344,44.933,-139.878,0.391,44.542
'[12:34:22.375 07/11/2076]',138.315,-60.952,-1.954,28.132,34.774,68.767,-29.304,26.960,55.482,24.225,39.853,26.178,12.503,46.105,31.648,56.264,1.172,46.105,2.735,64.078,-168.400,8.596,31.648
'[12:34:22.379 07/11/2076]',149.646,-51.184,-16.801,28.913,43.370,67.985,-34.774,31.648,48.840,27.741,41.807,23.834,5.861,57.045,31.648,48.449,1.954,48.449,17.582,43.761,-164.493,12.112,31.648
'[12:34:22.383 07/11/2076]',143.004,-48.059,-28.523,30.085,38.681,68.767,-41.807,28.523,44.151,32.430,44.933,17.582,7.814,58.999,32.821,40.244,5.079,50.794,29.304,33.993,-155.897,12.894,32.821
'[12:34:22.387 07/11/2076]',133.626,-53.919,-25.397,35.165,34.383,73.065,-47.277,26.960,49.231,36.728,46.496,19.927,14.847,58.999,34.383,44.542,12.112,53.919,26.178,31.258,-142.222,16.410,34.383
'[12:34:22.391 07/11/2076]',127.766,-60.952,-18.364,40.244,35.946,74.628,-51.184,27.741,58.999,39.463,46.105,19.536,22.662,65.250,33.602,42.198,14.066,51.575,19.145,31.648,-126.593,25.006,33.602
'[12:34:22.395 07/11/2076]',118.779,-51.575,-23.053,35.556,33.993,75.800,-53.138,20.317,65.250,39.072,46.105,11.331,23.443,72.283,31.648,35.556,14.066,42.589,23.834,23.834,-125.421,34.774,31.648
'[12:34:22.398 07/11/2076]',125.421,-61.734,-19.927,28.523,39.072,79.316,-58.608,10.549,64.469,36.337,46.105,4.689,23.443,71.502,23.834,33.602,13.675,41.807,20.708,45.714,-135.189,35.556,23.834
'[12:34:22.402 07/11/2076]',123.468,-58.608,-29.695,20.708,36.337,81.270,-67.595,3.126,60.952,32.821,38.291,1.563,25.788,62.906,17.192,27.741,7.424,39.463,30.476,44.151,-131.673,32.821,17.192
'[12:34:22.406 07/11/2076]',120.733,-44.542,-45.714,2.344,35.165,79.707,-69.158,-13.675,53.919,31.648,30.476,-16.410,21.490,60.562,9.768,8.205,3.516,26.960,46.496,21.099,-115.653,32.039,9.768
'[12:34:22.410 07/11/2076]',117.998,-67.204,-38.681,-4.689,28.132,71.111,-67.204,-25.788,48.059,29.695,21.099,-30.476,15.238,61.343,-6.252,-0.781,2.735,17.973,39.463,49.621,-120.342,32.430,-6.252
'[12:34:22.414 07/11/2076]',111.746,-65.641,-37.118,-5.079,24.615,73.065,-69.939,-25.788,47.277,36.337,6.642,-21.880,10.159,70.720,-9.768,-1.563,10.549,28.913,37.900,27.741,-100.415,45.324,-9.768
'[12:34:22.418 07/11/2076]',107.448,-67.985,-27.350,-10.940,25.788,70.720,-64.860,-32.430,56.264,42.198,5.079,-32.821,9.768,81.270,-4.689,-15.238,13.284,26.569,28.132,37.900,-107.839,52.357,-4.689
'[12:34:22.422 07/11/2076]',114.090,-36.337,-47.277,-23.053,41.026,68.767,-61.734,-42.979,65.250,39.072,6.252,-45.714,9.768,88.694,-8.987,-22.271,14.066,8.596,48.059,0.000,-100.024,57.827,-8.987
'[12:34:22.426 07/11/2076]',116.825,-39.072,-48.059,-30.085,44.933,65.641,-62.906,-50.012,68.767,31.648,6.252,-47.668,10.159,79.707,-14.066,-16.410,12.503,0.391,48.840,1.563,-113.309,60.171,-14.066
'[12:34:22.430 07/11/2076]',125.031,-42.198,-54.701,-34.383,48.840,67.204,-71.893,-53.529,66.032,33.993,5.470,-42.198,14.066,61.343,8.987,-20.708,12.112,8.987,55.482,5.079,-120.733,43.761,8.987
'[12:34:22.434 07/11/2076]',129.719,-54.701,-54.701,-37.900,49.231,67.204,-80.488,-55.092,63.297,37.118,3.907,-35.165,16.801,53.138,21.490,-21.880,10.940,7.033,55.482,19.145,-129.328,36.337,21.490
'[12:34:22.438 07/11/2076]',125.812,-68.376,-56.654,-31.258,41.416,60.171,-81.661,-51.966,61.343,33.993,0.391,-27.350,13.284,53.529,7.814,-6.252,14.066,-3.907,57.436,26.178,-138.315,43.370,7.814
'[12:34:22.441 07/11/2076]',117.216,-67.595,-46.496,-25.788,39.463,58.608,-78.926,-44.933,64.078,34.774,0.391,-26.569,11.722,61.734,0.391,-1.172,16.410,-9.768,47.277,30.476,-135.189,47.668,0.391
'[12:34:22.445 07/11/2076]',112.918,-56.264,-51.184,-24.225,35.946,61.343,-76.972,-41.807,64.078,37.900,4.689,-28.913,12.503,62.515,12.112,-9.377,14.457,-11.722,51.966,11.722,-120.733,41.416,12.112
'[12:34:22.449 07/11/2076]',114.090,-64.860,-44.151,-20.317,32.430,61.343,-75.800,-36.728,60.171,35.946,7.033,-25.397,9.768,57.045,14.847,-3.126,14.457,-9.377,44.933,26.569,-131.673,37.900,14.847
'[12:34:22.453 07/11/2076]',109.402,-48.449,-57.436,-14.457,26.569,60.562,-73.065,-29.304,55.482,31.648,7.424,-17.973,7.033,45.714,18.364,5.470,11.722,0.000,58.217,1.954,-126.203,33.211,18.364
'[12:34:22.457 07/11/2076]',94.945,-47.277,-52.747,-7.033,14.847,57.436,-67.595,-19.927,51.575,30.867,9.377,-15.238,7.814,37.509,28.132,3.126,8.205,2.735,53.529,-8.205,-103.150,26.178,28.132
'[12:34:22.461 07/11/2076]',83.614,-33.211,-55.482,0.391,12.503,57.827,-65.641,-11.331,48.840,30.476,12.112,-13.284,5.079,35.946,28.523,9.377,10.549,3.907,56.264,-16.410,-105.104,32.039,28.523
'[12:34:22.465 07/11/2076]',85.958,-33.602,-56.654,10.549,10.159,60.171,-64.860,-0.781,45.324,33.602,13.284,-3.516,2.735,32.821,29.695,23.443,14.066,12.112,57.436,-3.516,-121.514,30.867,29.695
'[12:34:22.469 07/11/2076]',89.084,-53.529,-35.946,25.006,12.894,59.780,-63.297,12.503,42.198,37.900,14.066,5.861,-1.172,34.774,41.026,26.178,15.238,12.503,36.728,15.238,-117.216,26.960,41.026
'[12:34:22.473 07/11/2076]',100.415,-44.542,-45.714,31.648,23.443,54.310,-58.999,20.317,41.807,37.118,14.457,4.689,-7.033,35.946,42.589,28.523,14.457,2.344,46.496,14.847,-133.626,26.569,42.589
'[12:34:22.477 07/11/2076]',106.667,-46.886,-50.794,40.244,27.741,42.979,-54.310,29.695,42.198,34.774,7.814,8.205,-16.801,38.291,38.681,34.774,12.894,-4.298,51.575,12.503,-145.348,30.476,38.681
'[12:34:22.480 07/11/2076]',99.243,-60.952,-31.648,49.621,27.741,39.853,-50.012,35.556,44.933,36.728,4.689,12.503,-15.238,38.681,41.807,35.556,15.238,1.954,32.430,24.225,-124.249,26.569,41.807
'[12:34:22.484 07/11/2076]',77.753,-33.211,-46.886,45.324,15.238,42.979,-52.747,35.556,46.496,33.993,4.689,15.238,-15.238,33.211,42.589,41.026,14.457,0.391,47.668,-16.410,-100.806,25.397,42.589
'[12:34:22.488 07/11/2076]',61.343,-37.118,-42.589,50.012,7.424,35.946,-49.231,35.556,51.184,25.788,8.596,7.814,-12.894,32.430,28.132,46.496,7.033,-14.457,43.370,3.126,-106.667,26.178,28.132
'[12:34:22.492 07/11/2076]',49.621,-48.449,-35.556,54.310,-0.391,29.304,-47.668,37.118,53.529,22.271,9.768,5.079,-9.768,34.383,16.020,50.012,2.735,-17.973,36.337,15.238,-100.415,28.523,16.020
'[12:34:22.496 07/11/2076]',44.933,-35.556,-53.529,53.138,-8.205,29.695,-49.621,36.337,47.668,24.615,13.675,9.377,-7.424,26.960,32.821,44.151,0.391,-4.689,54.310,1.563,-101.587,20.708,32.821
'[12:34:22.500 07/11/2076]',50.794,-59.389,-40.244,58.999,-9.377,29.304,-47.277,36.728,44.151,26.960,13.675,12.894,-7.033,23.053,46.105,36.728,-3.907,5.079,41.026,42.198,-126.593,24.225,46.105
'[12:34:22.504 07/11/2076]',48.840,-56.654,-39.072,63.687,-10.549,30.476,-42.979,38.291,41.026,25.006,11.722,13.675,-7.814,25.397,40.244,35.946,-1.563,12.894,39.853,23.834,-105.104,31.258,40.244
'[12:34:22.508 07/11/2076]',46.105,-49.621,-43.370,62.515,-21.099,34.383,-34.383,35.165,38.681,23.053,12.112,9.377,-7.814,25.006,33.993,34.774,-1.172,17.192,44.151,15.238,-98.462,34.774,33.993
'[12:34:22.512 07/11/2076]',42.979,-72.283,-16.801,60.952,-25.788,37.900,-30.476,32.821,32.039,20.708,14.066,4.689,-14.066,24.615,37.118,24.615,0.391,17.192,17.582,55.873,-112.137,34.774,37.118
'[12:34:22.516 07/11/2076]',37.900,-21.099,-43.370,49.231,-17.973,50.403,-36.728,26.178,31.648,23.834,16.410,1.563,-11.331,32.430,31.648,21.880,7.033,16.410,44.151,1.563,-93.773,37.900,31.648
'[12:34:22.520 07/11/2076]',44.542,-28.132,-36.337,37.118,-18.364,53.138,-38.681,21.099,30.476,25.788,16.410,3.516,-9.377,39.463,26.960,21.490,7.814,19.145,37.118,8.205,-98.462,37.118,26.960
'[12:34:22.523 07/11/2076]',51.184,-38.291,-33.602,23.443,-18.755,50.403,-42.979,14.066,26.178,26.569,16.410,-1.172,-14.066,40.635,32.821,9.768,6.642,13.675,34.383,21.880,-117.998,34.774,32.821
'[12:34:22.527 07/11/2076]',55.092,-31.648,-33.602,14.457,-10.940,44.933,-44.542,13.284,28.132,28.132,11.331,-3.516,-14.847,48.059,23.443,8.987,6.252,5.861,34.383,6.642,-113.309,42.979,23.443
'[12:34:22.531 07/11/2076]',55.092,-55.482,-19.927,9.768,-16.020,36.337,-46.105,13.284,26.178,30.085,3.516,-2.735,-16.410,55.092,12.503,7.814,5.470,7.033,20.708,28.132,-110.965,44.933,12.503
'[12:34:22.535 07/11/2076]',43.370,-35.946,-35.165,0.391,-24.225,33.211,-48.840,11.722,21.099,30.085,-2.344,-5.079,-21.880,55.482,12.503,-1.172,0.391,0.781,35.946,8.987,-105.495,44.933,12.503
'[12:34:22.539 07/11/2076]',33.993,-37.900,-23.443,-3.126,-23.443,21.099,-42.589,12.503,19.145,25.397,-10.549,-12.894,-26.960,63.687,-2.344,-12.503,-5.470,-17.973,24.225,10.159,-85.177,51.575,-2.344
'[12:34:22.543 07/11/2076]',22.271,-2.735,-38.291,-20.708,-27.741,23.053,-35.556,0.391,22.662,23.443,-8.205,-30.476,-18.364,67.595,-12.503,-27.350,-4.689,-18.364,39.072,-32.039,-51.966,53.138,-12.503
'[12:34:22.547 07/11/2076]',23.834,0.781,-39.853,-29.304,-32.821,33.993,-38.681,-7.033,23.053,23.443,-7.814,-25.788,-10.159,60.952,-5.079,-31.258,0.000,5.470,40.635,-25.397,-53.529,46.886,-5.079
'[12:34:22.551 07/11/2076]',34.383,-12.503,-37.509,-28.913,-32.821,39.463,-41.807,-10.159,22.662,22.662,-7.424,-21.880,-4.689,54.310,-1.172,-30.476,1.172,13.284,38.291,-3.907,-62.515,41.416,-1.172
'[12:34:22.555 07/11/2076]',40.244,-9.768,-42.198,-28.523,-31.258,38.681,-35.946,-12.112,27.741,20.708,-5.861,-26.569,1.954,57.436,-16.020,-25.397,4.298,5.470,42.979,-5.079,-60.171,44.933,-16.020
'[12:34:22.559 07/11/2076]',43.761,-14.457,-43.761,-22.662,-29.304,36.337,-33.602,-11.331,29.695,20.317,-4.298,-29.695,4.298,60.952,-30.476,-18.755,8.987,0.000,44.542,7.424,-66.813,48.059,-30.476
'[12:34:22.563 07/11/2076]',37.509,-31.258,-30.476,-13.284,-37.509,38.291,-35.165,-4.689,25.006,21.880,-4.689,-27.741,4.689,55.482,-17.973,-27.741,8.987,1.954,31.258,26.960,-59.389,39.463,-17.973
'[12:34:22.566 07/11/2076]',39.072,-24.225,-36.337,-12.112,-33.211,42.589,-37.900,-6.252,25.006,21.490,-4.689,-27.350,8.987,50.794,-12.894,-32.039,14.066,4.689,37.118,24.615,-51.966,35.556,-12.894
'[12:34:22.570 07/11/2076]',35.556,-10.549,-48.059,-7.814,-30.085,44.151,-40.635,-5.861,25.397,16.801,-6.252,-24.615,13.284,43.761,-17.582,-27.741,16.020,8.987,48.840,6.252,-31.258,30.867,-17.582
'[12:34:22.574 07/11/2076]',36.337,-21.880,-54.701,-1.563,-34.383,38.681,-44.542,-3.126,19.145,8.596,-10.549,-21.490,7.424,33.602,-18.364,-26.178,12.894,9.768,55.482,10.549,-25.006,23.443,-18.364
'[12:34:22.578 07/11/2076]',35.165,-19.145,-67.985,0.781,-30.476,33.602,-47.668,-6.642,16.410,5.861,-14.066,-26.569,-2.344,30.476,-16.801,-28.913,10.549,-0.781,68.767,7.033,-26.178,18.755,-16.801
'[12:34:22.582 07/11/2076]',31.258,-26.960,-62.906,3.907,-24.225,33.602,-54.701,-8.596,21.880,7.424,-11.331,-31.258,-1.172,28.132,-14.457,-25.006,16.020,-7.814,63.687,20.317,-35.556,18.364,-14.457
'[12:34:22.586 07/11/2076]',28.913,-46.105,-54.701,10.159,-28.523,33.602,-60.171,-6.642,21.880,8.987,-9.377,-28.523,-7.033,28.913,-8.596,-19.927,16.410,-16.020,55.482,40.244,-51.184,16.801,-8.596
'[12:34:22.590 07/11/2076]',29.695,-49.231,-49.621,13.284,-23.834,35.556,-62.906,-3.126,25.006,9.768,-6.252,-27.741,-5.470,31.258,-3.907,-20.317,15.629,-21.099,50.403,38.291,-51.575,17.582,-3.907
'[12:34:22.594 07/11/2076]',44.542,-41.416,-48.840,15.238,-10.159,37.509,-60.562,2.735,34.774,8.987,-3.126,-26.178,4.689,35.946,-9.377,-15.629,20.708,-20.317,49.621,40.635,-58.999,19.536,-9.377
'[12:34:22.598 07/11/2076]',49.231,-20.317,-54.701,14.457,-9.768,44.151,-58.608,12.112,37.509,9.377,-5.861,-12.894,12.503,36.728,-10.549,-9.768,24.225,-2.344,55.482,7.424,-37.118,17.192,-10.549
'[12:34:22.602 07/11/2076]',44.151,-10.940,-56.654,18.755,-19.145,42.979,-56.264,27.741,31.648,3.907,-11.722,0.000,15.629,35.556,-19.927,-7.814,19.927,3.907,57.436,-10.549,-16.410,17.582,-19.927
'[12:34:22.605 07/11/2076]',39.072,-11.722,-46.886,14.847,-26.960,40.635,-46.496,26.960,32.430,-0.781,-6.642,-15.238,16.020,41.026,-25.397,-21.880,14.847,-5.470,47.668,-4.298,-14.847,20.708,-25.397
'[12:34:22.609 07/11/2076]',35.556,-21.880,-42.979,14.457,-36.728,37.509,-42.979,26.569,33.602,-7.814,-1.954,-21.880,11.722,41.416,-26.960,-24.225,10.940,-7.424,43.761,5.861,-29.304,25.788,-26.960
'[12:34:22.613 07/11/2076]',33.211,-28.913,-44.933,24.615,-43.761,44.933,-48.059,30.085,32.821,-3.907,3.126,-6.252,15.238,40.244,-10.549,-19.145,7.424,10.159,45.714,20.708,-43.761,25.006,-10.549
'[12:34:22.617 07/11/2076]',39.463,-15.238,-55.092,28.132,-35.165,55.482,-50.794,27.350,39.463,0.391,10.940,2.344,21.099,37.509,14.457,-17.582,8.205,23.443,55.873,14.066,-53.529,22.271,14.457
'[12:34:22.621 07/11/2076]',44.542,-5.861,-64.469,33.602,-18.755,51.966,-50.403,25.788,45.714,-1.172,11.722,8.205,27.350,32.430,12.112,-7.814,9.768,17.582,65.250,4.298,-46.105,20.708,12.112
'[12:34:22.625 07/11/2076]',49.231,2.344,-71.111,35.556,-8.205,48.059,-50.794,27.741,46.105,-2.735,11.331,15.238,32.039,32.821,1.563,3.126,8.596,17.192,71.893,-12.112,-25.788,19.536,1.563
'[12:34:22.629 07/11/2076]',53.138,-6.252,-72.283,30.867,-6.642,44.933,-57.045,25.006,40.244,-5.079,8.205,17.582,33.602,23.443,5.861,-1.563,3.907,12.112,73.065,-6.252,-13.675,7.033,5.861
'[12:34:22.633 07/11/2076]',57.827,-18.364,-72.283,23.834,-0.391,37.900,-64.860,19.145,38.681,-11.331,3.907,18.364,33.211,15.629,2.344,-1.172,0.391,2.735,73.065,5.861,-17.192,2.735,2.344
'[12:34:22.637 07/11/2076]',57.436,-26.178,-73.065,17.973,-2.344,30.476,-70.330,19.145,35.556,-15.238,-2.344,30.867,30.867,10.940,-7.424,14.066,-4.689,-1.172,73.846,9.377,-26.960,6.252,-7.424
'[12:34:22.641 07/11/2076]',59.780,-19.145,-85.958,13.284,-1.954,27.350,-73.846,16.801,33.602,-17.973,-7.424,36.728,28.132,9.377,-10.159,17.192,-7.033,-8.205,86.740,-6.252,-29.695,8.596,-10.159
'[12:34:22.645 07/11/2076]',48.840,-5.861,-77.753,4.689,7.424,25.397,-71.893,7.814,36.728,-14.847,-8.987,31.648,25.397,16.801,-10.940,11.722,-1.954,-22.271,78.535,-16.801,-26.178,19.145,-10.940
'[12:34:22.648 07/11/2076]',47.668,0.391,-71.111,-3.516,18.364,28.913,-74.628,-0.391,35.165,-10.159,-11.722,28.913,28.523,13.284,-14.847,14.066,4.689,-24.615,71.893,-13.675,-31.258,21.880,-14.847
'[12:34:22.652 07/11/2076]',42.198,-4.298,-64.860,-7.814,8.987,32.821,-76.190,-2.344,25.788,-8.596,-18.364,32.430,22.271,12.112,-17.582,13.675,4.298,-24.615,65.641,-9.377,-30.085,19.927,-17.582
'[12:34:22.656 07/11/2076]',42.979,-13.675,-54.701,-8.987,15.238,27.741,-71.111,-7.033,30.867,-9.377,-24.225,20.708,25.006,14.066,-24.225,1.954,0.781,-31.258,55.482,0.781,-24.225,21.880,-24.225
'[12:34:22.660 07/11/2076]',43.761,1.172,-62.515,-15.238,19.145,19.927,-62.906,-9.768,28.913,-10.159,-31.258,10.549,25.006,10.159,-38.681,1.172,-3.516,-28.913,63.297,-23.834,-13.284,22.271,-38.681
'[12:34:22.664 07/11/2076]',36.728,-3.907,-69.548,-7.424,7.033,15.629,-64.469,-3.516,24.615,-7.814,-44.542,21.099,25.397,7.814,-40.635,1.172,-7.424,-5.861,70.330,-29.304,-3.126,22.662,-40.635
'[12:34:22.668 07/11/2076]',31.258,-2.344,-68.767,-7.814,11.331,9.768,-60.562,-8.596,30.476,-8.205,-46.496,7.814,29.695,10.159,-43.761,-11.722,-11.722,-6.252,69.548,-37.900,11.331,27.741,-43.761
'[12:34:22.672 07/11/2076]',28.913,2.735,-66.813,-16.020,21.099,4.298,-55.092,-21.099,50.012,-10.549,-44.933,-19.927,37.900,17.973,-49.621,-31.648,-12.894,-24.615,67.595,-43.370,13.284,39.853,-49.621
'[12:34:22.676 07/11/2076]',29.304,-6.642,-70.720,-16.410,23.053,0.000,-58.608,-29.304,55.092,-22.271,-47.668,-35.946,40.635,6.642,-61.343,-37.509,-22.271,-30.867,71.502,-28.132,7.033,37.900,-61.343
'[12:34:22.680 07/11/2076]',21.490,-16.410,-69.548,-16.801,16.020,2.344,-65.250,-36.337,50.794,-25.006,-51.575,-40.244,37.118,-6.642,-45.714,-50.403,-29.695,-23.834,70.330,-12.894,-1.954,31.258,-45.714
'[12:34:22.684 07/11/2076]',24.225,-14.066,-71.893,-19.145,22.662,5.079,-69.939,-40.244,48.840,-27.741,-53.138,-43.761,35.556,-10.549,-40.244,-61.343,-35.165,-24.225,72.674,-13.284,2.735,22.662,-40.244
'[12:34:22.688 07/11/2076]',17.192,-18.755,-79.707,-15.629,17.582,-4.298,-74.237,-37.900,37.509,-41.026,-61.343,-43.370,28.913,-22.271,-59.389,-55.482,-45.324,-33.211,80.488,-8.205,3.516,15.238,-59.389
'[12:34:22.691 07/11/2076]',5.470,-23.834,-82.051,-17.582,8.205,-15.238,-75.409,-37.509,28.913,-51.184,-66.032,-45.714,20.708,-25.397,-71.893,-57.827,-52.357,-43.761,82.833,-15.629,18.364,9.768,-71.893
'[12:34:22.695 07/11/2076]',11.331,-30.867,-83.614,-19.145,12.894,-18.755,-78.926,-38.291,29.695,-52.747,-65.250,-52.747,21.490,-23.834,-66.813,-71.893,-54.701,-52.357,84.396,-7.424,14.066,7.033,-66.813
'[12:34:22.699 07/11/2076]',16.410,-35.946,-87.912,-19.927,13.284,-21.490,-83.223,-36.337,33.211,-57.436,-67.985,-53.919,29.695,-34.383,-66.813,-74.628,-60.562,-55.482,88.694,0.781,11.331,0.391,-66.813
'[12:34:22.703 07/11/2076]',10.549,-46.496,-92.991,-16.410,-2.344,-26.960,-84.786,-30.085,22.662,-57.436,-69.548,-48.059,23.834,-40.244,-64.860,-70.720,-68.376,-52.357,93.773,4.689,10.940,-3.907,-64.860
'[12:34:22.707 07/11/2076]',12.894,-50.403,-94.164,-13.284,-6.252,-25.397,-85.568,-26.960,19.145,-51.966,-65.641,-47.277,26.178,-42.979,-56.654,-72.283,-75.018,-47.668,94.945,10.159,4.298,-6.252,-56.654
'[12:34:22.711 07/11/2076]',12.112,-45.324,-92.210,-9.768,-6.642,-25.397,-83.223,-19.536,12.112,-48.840,-55.092,-47.277,23.053,-40.244,-51.184,-69.939,-80.879,-41.026,92.991,10.549,1.172,-6.252,-51.184
'[12:34:22.715 07/11/2076]',11.331,-42.198,-86.740,0.391,-5.079,-23.443,-81.270,-7.033,5.079,-39.853,-46.886,-33.993,16.020,-32.821,-41.026,-58.608,-81.270,-25.006,87.521,6.252,-1.563,0.391,-41.026
'[12:34:22.719 07/11/2076]',12.112,-38.291,-79.316,9.768,-2.735,-21.099,-75.018,3.907,1.563,-30.867,-35.946,-21.880,14.066,-22.662,-24.225,-55.092,-80.488,-12.894,80.098,0.781,0.000,7.424,-24.225
'[12:34:22.723 07/11/2076]',9.768,-35.165,-78.926,20.708,-6.252,-21.490,-66.813,12.112,-1.172,-26.178,-25.006,-18.364,8.987,-10.159,-15.629,-54.310,-81.661,-12.894,79.707,1.954,-0.781,9.377,-15.629
'[12:34:22.727 07/11/2076]',5.861,-37.118,-77.753,30.085,-12.503,-27.741,-61.343,23.053,-8.987,-24.615,-24.225,-5.861,0.000,-9.377,-13.675,-41.416,-79.707,-14.066,78.535,-7.033,2.735,13.675,-13.675
'[12:34:22.730 07/11/2076]',0.000,-37.900,-79.316,31.258,-23.443,-25.006,-60.952,23.443,-15.629,-18.364,-18.364,3.907,-0.391,-7.033,-12.112,-28.523,-69.939,-3.516,80.098,-2.344,12.503,1.954,-12.112
'[12:34:22.734 07/11/2076]',5.861,-37.900,-84.396,32.821,-21.490,-19.145,-67.985,25.397,-16.801,-16.020,-11.331,16.410,0.000,-11.722,-7.424,-8.205,-63.687,0.391,85.177,7.033,-5.079,-3.516,-7.424
'[12:34:22.738 07/11/2076]',20.708,-33.993,-85.568,36.337,-6.252,-21.490,-66.032,32.430,-17.973,-20.708,-4.689,22.271,-5.079,-13.675,-14.847,13.675,-64.469,-12.503,86.349,5.079,-21.490,0.781,-14.847
'[12:34:22.742 07/11/2076]',25.006,-33.993,-87.131,40.635,-4.298,-27.350,-62.515,38.291,-13.284,-21.880,-1.954,30.476,-7.033,-7.814,-28.132,35.165,-63.297,-17.582,87.912,7.424,-31.648,7.033,-28.132
'[12:34:22.746 07/11/2076]',26.960,-33.211,-87.912,43.761,-3.907,-22.662,-66.032,42.979,-16.020,-16.801,-1.954,39.072,-9.377,-12.112,-15.629,42.979,-60.562,-9.377,88.694,13.675,-46.886,6.252,-15.629
'[12:34:22.750 07/11/2076]',26.178,-32.430,-90.256,42.589,-4.689,-18.364,-70.720,40.635,-19.145,-16.410,-5.470,43.370,-12.112,-16.020,-15.238,46.105,-59.389,-9.377,91.038,16.410,-48.840,6.642,-15.238
'[12:34:22.754 07/11/2076]',14.066,-27.741,-91.038,35.165,-15.629,-18.364,-70.330,35.946,-13.675,-15.629,-13.284,42.979,-7.424,-13.675,-33.211,55.092,-54.701,-13.675,91.819,12.112,-42.979,8.987,-33.211
'[12:34:22.758 07/11/2076]',12.112,-21.880,-92.601,26.960,-16.020,-15.238,-69.548,26.960,-8.596,-13.675,-17.192,34.383,-2.344,-13.675,-44.542,56.654,-51.966,-11.331,93.382,11.331,-41.026,8.596,-44.542
'[12:34:22.762 07/11/2076]',16.801,-14.457,-91.819,17.973,-14.457,-5.861,-68.376,18.755,-9.377,-7.424,-18.364,22.271,-0.781,-10.940,-45.324,43.370,-48.449,-8.987,92.601,10.940,-41.026,8.596,-45.324
'[12:34:22.766 07/11/2076]',11.331,-12.112,-88.303,9.768,-23.053,-0.781,-64.860,9.768,-8.987,0.000,-19.536,11.722,1.172,-7.814,-46.496,35.165,-41.026,-5.079,89.084,10.159,-40.635,12.112,-46.496
'[12:34:22.770 07/11/2076]',3.516,-10.940,-80.879,2.735,-33.602,8.987,-60.562,-0.391,-10.159,8.596,-17.973,2.344,4.689,-10.549,-42.589,30.867,-34.383,2.735,81.661,8.596,-38.291,13.284,-42.589
'[12:34:22.773 07/11/2076]',9.768,-5.470,-76.581,-4.298,-30.476,23.053,-56.654,-13.284,-13.284,16.801,-12.894,-10.159,3.126,-6.642,-39.072,21.099,-26.569,4.298,77.363,6.642,-36.337,12.503,-39.072
'[12:34:22.777 07/11/2076]',11.331,-3.516,-69.548,-15.629,-30.085,29.695,-51.575,-24.615,-13.675,21.880,-9.377,-14.847,-0.781,-1.563,-39.072,24.615,-17.582,0.781,70.330,1.954,-44.151,17.192,-39.072
'[12:34:22.781 07/11/2076]',16.020,0.000,-57.436,-19.927,-25.788,38.681,-48.059,-26.178,-13.284,28.913,-6.642,-5.079,-3.516,4.689,-34.774,36.728,-8.987,9.377,58.217,-3.126,-43.761,15.629,-34.774
'[12:34:22.785 07/11/2076]',30.867,1.172,-56.654,-24.225,-13.675,44.933,-47.277,-32.039,-16.410,31.258,-4.689,-2.344,-11.331,11.331,-30.867,37.509,-3.907,8.205,57.436,-7.033,-45.714,11.331,-30.867
'[12:34:22.789 07/11/2076]',26.178,1.563,-57.045,-26.178,-14.847,36.337,-43.761,-32.821,-21.099,21.490,-8.987,-5.861,-26.569,17.192,-37.900,32.039,-2.735,-14.847,57.827,-14.847,-49.621,17.192,-37.900
'[12:34:22.793 07/11/2076]',10.940,-0.391,-55.482,-24.225,-23.834,33.993,-42.198,-36.337,-18.755,16.801,-7.033,-14.066,-30.867,24.225,-42.979,25.006,1.563,-20.317,56.264,-18.364,-40.635,20.317,-42.979
'[12:34:22.797 07/11/2076]',5.861,-5.470,-61.734,-28.132,-29.304,42.979,-52.357,-50.794,-19.536,14.457,-5.079,-17.192,-30.085,17.582,-33.993,17.192,8.205,-8.987,62.515,-6.252,-48.449,13.675,-33.993
'[12:34:22.801 07/11/2076]',7.033,-8.596,-59.780,-25.788,-23.443,50.403,-64.078,-50.012,-19.145,12.503,-0.781,-8.987,-27.741,13.675,-21.880,17.973,10.549,-1.954,60.562,1.954,-61.734,15.238,-21.880
'[12:34:22.805 07/11/2076]',13.284,-10.159,-52.357,-23.053,-11.722,48.449,-62.515,-46.886,-11.722,9.768,3.907,-11.331,-25.006,20.317,-24.615,20.317,13.284,-10.940,53.138,-1.954,-57.045,21.099,-24.615
'[12:34:22.809 07/11/2076]',17.192,-16.801,-55.482,-18.364,-6.252,44.151,-64.078,-46.886,-16.020,7.033,7.424,-14.847,-31.258,23.053,-33.211,24.225,14.457,-18.364,56.264,-1.954,-55.092,22.271,-33.211
'[12:34:22.813 07/11/2076]',10.940,-20.317,-52.747,-15.629,-8.987,41.807,-67.595,-42.198,-26.569,11.331,6.252,-9.377,-38.681,26.569,-21.490,15.629,14.847,-20.708,53.529,-1.954,-56.264,27.741,-21.490
'[12:34:22.816 07/11/2076]',9.768,-25.397,-52.357,-7.814,-8.596,40.635,-71.111,-37.509,-34.383,13.675,2.344,-4.298,-46.105,27.741,-16.801,12.503,15.629,-26.960,53.138,1.172,-55.873,27.741,-16.801
'[12:34:22.820 07/11/2076]',-5.470,-30.867,-50.794,-0.781,-22.271,36.728,-69.939,-33.211,-38.681,14.457,-2.344,0.391,-46.496,18.364,-19.145,20.317,11.722,-28.132,51.575,4.298,-46.105,16.410,-19.145
'[12:34:22.824 07/11/2076]',-19.927,-31.648,-46.105,9.377,-26.569,30.085,-66.813,-24.225,-38.291,14.847,-6.642,3.126,-46.886,10.549,-12.894,21.490,7.814,-31.258,46.886,1.172,-39.463,17.582,-12.894
'[12:34:22.828 07/11/2076]',-11.722,-26.178,-30.476,19.927,-10.940,29.304,-55.482,-10.940,-25.788,19.927,-5.079,2.344,-41.807,24.615,-7.814,16.020,4.689,-31.258,31.258,-0.391,-30.476,25.788,-7.814
'[12:34:22.832 07/11/2076]',-13.284,-19.927,-16.801,27.741,-7.814,32.821,-44.542,-2.344,-20.317,23.834,-0.391,0.391,-41.026,27.741,-3.516,19.145,6.252,-25.397,17.582,-5.470,-19.145,26.569,-3.516
'[12:34:22.836 07/11/2076]',-24.225,-15.629,-5.079,35.556,-16.020,38.291,-39.072,7.033,-22.662,28.913,3.126,2.735,-46.496,30.867,4.689,22.662,5.470,-22.271,5.861,-9.377,-18.755,34.774,4.689
'[12:34:22.840 07/11/2076]',-19.536,-13.284,4.298,42.979,-9.377,38.291,-33.211,19.145,-23.053,32.039,7.033,4.298,-49.621,54.310,-6.252,22.271,3.907,-26.960,-3.516,-9.768,-23.443,60.562,-6.252
'[12:34:22.844 07/11/2076]',-19.536,-11.722,7.033,50.403,-5.861,32.821,-31.258,29.304,-28.132,31.258,8.596,6.252,-55.873,25.397,14.457,32.821,1.954,-26.569,-6.252,-16.020,-13.284,26.569,14.457
'[12:34:22.848 07/11/2076]',-22.662,-11.722,10.159,54.701,-6.252,28.913,-32.821,39.853,-24.615,34.774,8.205,20.317,-51.184,14.457,33.211,41.026,1.954,-11.722,-9.377,-25.788,-15.629,23.053,33.211
'[12:34:22.852 07/11/2076]',-16.410,-17.192,4.298,64.078,4.298,14.066,-35.165,51.184,-17.192,29.304,5.470,32.821,-48.059,11.331,39.853,46.496,-3.516,-10.940,-3.516,-33.993,-13.284,24.615,39.853
'[12:34:22.855 07/11/2076]',-8.987,-7.424,11.331,50.794,11.331,12.503,-23.834,44.542,-7.033,24.615,13.675,22.271,-48.449,12.503,52.357,37.118,-2.735,-17.973,-10.549,-46.886,-16.020,25.397,52.357
'[12:34:22.859 07/11/2076]',-12.894,-4.298,9.377,44.542,5.470,11.331,-21.880,40.244,-3.126,19.145,20.708,14.847,-50.012,14.457,51.575,35.165,-3.126,-18.364,-8.596,-49.231,-29.695,33.211,51.575
'[12:34:22.863 07/11/2076]',-10.159,-0.391,8.205,42.979,10.159,20.317,-27.741,37.900,-1.563,18.364,23.053,25.788,-47.277,14.847,60.562,36.728,-5.079,-2.735,-7.424,-40.635,-38.291,34.774,60.562
'[12:34:22.867 07/11/2076]',-21.099,5.079,10.940,35.946,2.344,27.741,-30.476,31.648,-6.642,18.364,23.834,29.304,-50.403,8.987,74.237,32.039,-10.549,5.079,-10.159,-39.072,-34.774,29.304,74.237
'[12:34:22.871 07/11/2076]',-34.774,6.252,4.689,31.258,-7.814,23.053,-30.085,23.443,-7.814,11.722,23.443,25.397,-53.529,3.907,66.422,35.165,-16.020,-0.781,-3.907,-41.807,-32.821,27.350,66.422
'[12:34:22.875 07/11/2076]',-44.542,6.252,-2.735,24.615,-15.238,16.801,-28.913,11.331,-4.689,8.987,21.099,21.490,-51.575,8.205,55.092,34.383,-21.490,-5.079,3.516,-45.714,-30.476,35.556,55.092
'[12:34:22.879 07/11/2076]',-50.403,1.172,-3.516,12.112,-25.006,19.145,-30.085,-3.126,-11.722,11.722,19.927,14.066,-58.608,6.252,64.078,21.880,-20.317,-8.596,4.298,-44.542,-33.602,35.946,64.078
'[12:34:22.883 07/11/2076]',-42.589,1.954,-5.079,-0.391,-19.145,24.225,-33.602,-18.364,-13.284,15.629,20.317,3.516,-58.608,3.516,67.595,13.284,-12.503,-13.675,5.861,-43.761,-41.026,32.821,67.595
'[12:34:22.887 07/11/2076]',-30.867,1.172,-10.940,-2.735,-7.814,25.397,-36.728,-23.834,-12.503,17.192,13.284,6.252,-55.482,1.954,58.999,19.145,-5.470,-17.192,11.722,-42.979,-42.198,31.648,58.999
'[12:34:22.891 07/11/2076]',-28.132,4.298,-7.033,-8.205,-4.298,27.350,-37.118,-25.006,-12.894,14.066,7.033,8.205,-57.436,-4.298,57.045,20.317,-1.563,-21.490,7.814,-48.840,-43.370,30.867,57.045
'[12:34:22.895 07/11/2076]',-23.443,11.722,-6.252,-14.457,2.735,28.913,-36.337,-28.523,-9.377,10.159,2.735,0.391,-56.264,-5.861,47.668,16.801,1.954,-31.648,7.033,-53.919,-33.993,25.788,47.668
'[12:34:22.898 07/11/2076]',-23.443,16.410,-12.894,-21.880,1.563,32.821,-40.635,-36.337,-1.563,7.424,-1.172,-3.907,-50.794,-6.642,39.463,17.192,7.814,-35.556,13.675,-54.310,-34.383,25.788,39.463
'[12:34:22.902 07/11/2076]',-19.927,17.192,-16.020,-27.350,1.172,39.853,-48.449,-39.072,2.735,8.205,-5.470,-3.907,-44.542,-8.596,42.198,10.940,7.033,-37.900,16.801,-54.310,-34.383,25.788,42.198
'[12:34:22.906 07/11/2076]',-12.112,21.099,-18.755,-31.648,7.424,39.853,-48.449,-41.807,4.298,11.331,-9.377,-14.847,-44.933,-1.954,42.979,-6.642,4.298,-44.542,19.536,-59.389,-28.132,26.569,42.979
'[12:34:22.910 07/11/2076]',1.172,22.662,-21.099,-38.291,20.708,33.993,-46.105,-44.542,3.907,11.331,-16.801,-23.443,-45.324,1.172,35.556,-16.801,1.954,-44.933,21.880,-58.999,-27.350,26.569,35.556
'[12:34:22.914 07/11/2076]',-12.503,25.006,-20.317,-32.430,5.079,33.993,-48.449,-31.258,2.344,17.192,-28.132,-7.033,-41.026,0.000,42.198,-17.192,6.252,-22.271,21.099,-67.204,-21.099,23.834,42.198
'[12:34:22.918 07/11/2076]',-20.708,29.695,-22.271,-33.993,-3.126,33.602,-46.886,-30.476,-0.781,16.410,-28.913,-10.159,-44.151,0.000,40.244,-20.317,6.252,-19.927,23.053,-70.720,-20.708,20.708,40.244
'[12:34:22.922 07/11/2076]',-36.337,33.993,-23.443,-42.979,-16.410,27.741,-41.416,-38.681,1.172,9.377,-22.662,-29.695,-40.635,-1.172,31.258,-31.258,7.033,-35.165,24.225,-70.330,-21.099,17.582,31.258
'[12:34:22.926 07/11/2076]',-35.165,34.774,-30.085,-43.370,-14.457,27.350,-44.542,-41.026,6.252,5.079,-16.801,-38.681,-33.602,-4.689,23.053,-28.913,8.205,-45.324,30.867,-65.641,-32.039,19.145,23.053
'[12:34:22.930 07/11/2076]',-29.304,37.118,-32.039,-41.807,-12.112,34.383,-48.449,-39.072,5.470,12.503,-10.549,-39.463,-26.960,-1.172,35.556,-39.853,9.377,-37.118,32.821,-55.092,-36.337,13.675,35.556
'[12:34:22.934 07/11/2076]',-2.344,37.118,-29.304,-38.681,8.596,39.463,-48.840,-33.211,2.344,15.238,-6.642,-35.946,-24.615,-0.781,46.496,-45.714,8.596,-32.430,30.085,-48.449,-42.589,13.675,46.496
'[12:34:22.938 07/11/2076]',10.940,33.211,-27.741,-25.006,17.192,37.118,-45.324,-17.582,-2.344,7.814,-3.907,-25.397,-27.741,2.735,33.993,-33.602,7.424,-34.774,28.523,-41.807,-46.105,17.582,33.993
'[12:34:22.941 07/11/2076]',-8.205,30.085,-28.913,-12.894,-7.814,33.602,-40.244,-5.470,-8.987,3.516,0.391,-19.536,-30.085,9.377,23.834,-27.350,4.298,-32.039,29.695,-46.496,-34.774,18.755,23.834
'[12:34:22.945 07/11/2076]',-14.847,27.741,-31.258,-5.470,-16.801,33.602,-41.807,0.391,-23.053,-1.954,11.722,-14.066,-37.509,8.205,31.648,-30.476,2.735,-29.695,32.039,-41.807,-35.946,14.066,31.648
'[12:34:22.949 07/11/2076]',-33.211,19.536,-37.118,-3.907,-40.635,30.085,-44.542,0.391,-28.523,-6.252,19.536,-10.549,-37.118,9.377,34.383,-32.430,0.391,-29.304,37.900,-33.993,-37.900,9.377,34.383
'[12:34:22.953 07/11/2076]',-14.457,17.192,-42.979,1.172,-29.304,32.039,-49.621,7.424,-31.648,-0.781,20.317,-1.954,-34.383,14.066,35.946,-30.085,1.172,-24.615,43.761,-29.695,-35.556,5.470,35.946
'[12:34:22.957 07/11/2076]',4.298,21.490,-47.277,2.735,-11.331,32.821,-49.621,9.768,-35.556,5.861,19.536,-0.781,-37.900,19.145,42.589,-35.165,1.563,-24.615,48.059,-29.695,-38.681,5.861,42.589
'[12:34:22.961 07/11/2076]',13.675,23.053,-45.324,-0.391,-4.689,32.430,-46.105,8.596,-30.476,7.424,18.755,-6.252,-33.602,21.880,37.900,-36.728,1.172,-28.523,46.105,-28.132,-42.979,10.940,37.900
'[12:34:22.965 07/11/2076]',17.973,24.225,-43.370,1.954,-2.735,36.728,-47.668,14.847,-31.258,13.284,14.847,-3.126,-33.993,27.741,35.165,-35.165,3.126,-16.801,44.151,-23.053,-44.542,16.020,35.165
'[12:34:22.969 07/11/2076]',-6.252,24.615,-41.416,6.252,-25.788,37.509,-48.059,19.145,-33.993,15.629,10.940,-0.781,-33.993,30.085,34.383,-38.681,-3.907,-10.549,42.198,-23.834,-37.509,20.708,34.383
'[12:34:22.973 07/11/2076]',-26.960,22.271,-42.198,1.954,-48.059,32.039,-45.714,16.410,-34.774,10.940,7.814,-9.377,-34.774,37.900,21.099,-49.621,-14.066,-17.973,42.979,-26.178,-24.615,25.788,21.099
'[12:34:22.977 07/11/2076]',-27.350,12.894,-44.542,6.642,-53.919,28.132,-46.105,20.317,-37.118,8.596,0.781,-8.596,-37.118,41.807,17.973,-59.780,-19.927,-17.192,45.324,-22.662,-12.894,23.834,17.973
'[12:34:22.980 07/11/2076]',-17.973,12.112,-46.496,4.689,-46.496,32.039,-48.840,16.410,-38.681,8.987,-2.344,-2.344,-34.774,33.993,23.834,-58.608,-16.410,-10.549,47.277,-20.708,-4.298,14.457,23.834
'[12:34:22.984 07/11/2076]',2.344,5.079,-48.840,0.000,-31.648,38.681,-51.966,3.907,-36.728,9.377,-0.391,-4.689,-30.867,27.741,34.383,-65.641,-16.801,-3.907,49.621,-13.284,-4.689,8.205,34.383
'[12:34:22.988 07/11/2076]',8.596,-1.954,-52.747,-0.391,-28.913,37.509,-51.575,-2.735,-32.039,3.126,4.689,-10.159,-31.258,24.615,36.337,-64.469,-17.192,-15.238,53.529,-3.907,-16.410,9.377,36.337
'[12:34:22.992 07/11/2076]',10.940,-7.033,-54.310,0.391,-25.788,33.993,-48.449,-8.205,-28.523,-1.172,9.768,-12.894,-33.211,27.741,30.085,-57.827,-19.145,-15.629,55.092,0.781,-21.099,15.238,30.085
'[12:34:22.996 07/11/2076]',15.238,-13.675,-52.747,2.344,-26.569,38.291,-50.403,-9.377,-30.085,0.781,12.112,-3.516,-32.430,24.225,44.933,-58.608,-19.927,-2.735,53.529,9.377,-23.053,10.549,44.933
'[12:34:23.000 07/11/2076]',-1.563,-15.629,-46.886,4.689,-41.026,42.198,-52.747,-6.642,-28.523,1.172,12.503,10.159,-27.741,22.271,50.403,-49.621,-21.099,3.516,47.668,13.284,-21.490,8.205,50.403
'[12:34:23.004 07/11/2076]',-14.457,-13.675,-41.807,4.689,-50.794,38.681,-49.621,-3.516,-28.132,-1.954,11.331,23.834,-26.178,19.536,41.416,-30.085,-20.708,3.907,42.589,10.159,-20.708,8.596,41.416
'[12:34:23.008 07/11/2076]',-21.880,-9.768,-39.072,2.344,-53.138,39.072,-47.277,-5.861,-30.085,-4.689,9.377,28.913,-28.523,17.582,35.946,-20.708,-23.053,3.126,39.853,3.516,-13.284,7.424,35.946
'[12:34:23.012 07/11/2076]',-22.662,-5.470,-34.774,-0.391,-48.059,39.853,-47.668,-7.424,-27.350,-6.642,8.205,30.085,-28.523,12.503,41.807,-21.880,-28.913,2.344,35.556,3.126,-16.801,3.126,41.807
'[12:34:23.016 07/11/2076]',-18.364,-4.689,-29.304,-2.735,-39.072,38.291,-46.886,-8.205,-26.178,-7.424,7.424,31.258,-29.304,11.722,42.979,-19.536,-29.304,0.391,30.085,3.126,-19.145,4.689,42.979
'[12:34:23.020 07/11/2076]',-14.847,2.735,-24.615,-5.079,-28.523,41.416,-46.496,-7.424,-26.960,-5.861,5.470,34.383,-31.258,10.940,47.668,-19.536,-32.039,4.298,25.397,-4.298,-10.549,2.735,47.668
'[12:34:23.023 07/11/2076]',-19.927,11.331,-8.205,-14.847,-28.132,45.714,-42.589,-6.642,-20.317,-4.298,5.470,33.211,-25.006,5.470,51.184,-17.582,-29.695,1.172,8.987,-10.159,-10.940,-1.172,51.184
'[12:34:23.027 07/11/2076]',-23.443,16.801,-3.907,-14.457,-29.695,44.151,-38.291,-1.172,-17.582,-1.954,3.126,28.913,-22.662,5.470,45.324,-16.020,-28.523,-2.344,4.689,-15.629,-14.066,3.907,45.324
'[12:34:23.031 07/11/2076]',-26.960,21.880,0.781,-19.145,-35.165,47.277,-36.728,1.563,-14.847,1.563,-1.954,31.648,-20.317,5.861,43.761,-12.112,-24.225,4.298,0.000,-24.615,-15.238,8.205,43.761
'[12:34:23.035 07/11/2076]',-32.039,24.225,2.735,-22.271,-41.807,50.403,-37.900,2.344,-15.238,3.516,-7.033,29.695,-19.927,3.126,42.979,-15.238,-23.443,6.642,-1.954,-30.085,-13.675,5.079,42.979
'[12:34:23.039 07/11/2076]',-13.675,23.834,2.735,-17.582,-24.225,46.496,-34.383,8.205,-9.768,2.344,-12.112,17.973,-21.099,12.112,28.913,-23.443,-26.569,-8.987,-1.954,-41.026,-4.689,12.503,28.913
'[12:34:23.043 07/11/2076]',-1.954,32.039,8.205,-22.662,-9.768,55.092,-34.383,4.689,-1.563,3.907,-11.722,6.642,-14.847,15.629,23.053,-25.788,-25.397,-3.907,-7.424,-48.059,-0.781,12.503,23.053
'[12:34:23.047 07/11/2076]',-0.391,41.416,17.973,-21.099,-2.344,77.753,-38.291,1.172,2.735,10.159,-7.814,8.987,-8.596,5.079,36.337,-18.364,-16.801,22.271,-17.192,-47.668,-4.298,4.298,36.337
'[12:34:23.051 07/11/2076]',15.629,45.324,20.708,-9.768,17.973,95.726,-44.542,3.516,8.987,10.549,-5.861,14.457,-3.907,-5.079,41.807,-4.298,-10.159,26.569,-19.927,-41.807,-14.847,-1.172,41.807
'[12:34:23.055 07/11/2076]',12.503,50.012,22.271,-3.907,23.443,96.899,-39.463,1.172,17.582,5.470,-3.126,9.377,-1.172,-8.596,34.774,5.861,-8.596,14.066,-21.490,-45.324,-17.192,0.781,34.774
'[12:34:23.059 07/11/2076]',0.391,50.403,18.364,5.079,17.973,96.117,-38.291,0.391,16.020,-2.344,-2.735,6.252,-5.470,-15.238,25.397,12.894,-10.549,10.940,-17.582,-47.668,-14.457,2.735,25.397
'[12:34:23.063 07/11/2076]',0.000,50.794,25.788,5.470,18.364,102.369,-40.244,2.735,10.940,-1.172,-1.563,8.205,-7.424,-17.192,33.602,8.596,-7.814,7.814,-25.006,-44.542,-12.112,-1.563,33.602
'[12:34:23.066 07/11/2076]',-13.284,56.264,30.476,2.735,5.470,110.183,-42.198,2.735,10.159,2.344,2.344,5.079,-3.516,-13.675,39.463,0.391,-3.126,10.940,-29.695,-52.747,-7.424,3.907,39.463
'[12:34:23.070 07/11/2076]',-8.596,58.217,29.304,1.563,4.689,120.342,-43.370,0.391,7.424,4.298,6.642,7.424,-3.907,-5.861,30.085,7.814,0.000,18.364,-28.523,-52.357,-9.768,8.596,30.085
'[12:34:23.074 07/11/2076]',-1.563,61.734,33.602,3.907,8.205,127.375,-41.416,4.298,3.907,5.861,13.675,8.987,-4.689,-6.642,32.430,13.675,6.252,23.834,-32.821,-57.045,-12.112,9.768,32.430
'[12:34:23.078 07/11/2076]',5.079,58.999,30.476,8.596,10.159,129.719,-39.072,3.907,10.159,8.205,17.973,5.861,3.516,-6.252,34.774,10.940,7.033,26.960,-29.695,-59.389,-5.861,5.861,34.774
'[12:34:23.082 07/11/2076]',18.364,54.701,27.741,11.331,18.755,132.454,-39.463,1.563,7.033,10.549,21.880,5.079,1.954,-1.563,37.118,7.814,7.814,37.118,-26.960,-57.827,-2.735,5.861,37.118
'[12:34:23.086 07/11/2076]',14.847,52.357,28.913,14.457,13.675,137.143,-42.979,3.516,2.735,11.722,26.178,7.424,3.516,-4.298,44.151,5.470,5.861,41.026,-28.132,-53.919,-2.735,4.298,44.151
'[12:34:23.090 07/11/2076]',13.675,51.575,25.006,21.099,11.722,141.050,-47.668,7.033,2.735,13.675,27.741,7.424,7.424,0.391,46.496,-2.344,3.126,39.072,-24.225,-56.264,2.344,7.424,46.496
'[12:34:23.094 07/11/2076]',5.861,45.714,17.973,24.615,5.079,136.752,-51.575,5.470,3.516,14.847,25.788,7.033,5.861,19.536,32.821,-5.861,3.126,28.913,-17.192,-57.045,5.470,25.788,32.821
'[12:34:23.098 07/11/2076]',4.298,39.853,13.284,29.695,4.298,137.924,-60.562,6.642,2.735,17.582,21.490,17.582,8.987,13.284,40.635,-2.735,5.470,30.476,-12.503,-54.701,8.205,22.271,40.635
'[12:34:23.102 07/11/2076]',1.954,30.476,-0.781,42.589,2.344,130.891,-69.548,11.331,3.516,14.847,10.549,28.913,8.596,9.377,41.807,-1.172,0.391,22.662,1.563,-57.827,20.708,18.364,41.807
'[12:34:23.105 07/11/2076]',12.503,28.913,-7.033,32.821,14.066,127.766,-70.720,-3.126,8.205,14.457,5.079,15.629,7.424,10.549,44.542,-16.801,-2.735,3.126,7.814,-57.827,30.867,11.722,44.542
'[12:34:23.109 07/11/2076]',17.582,33.211,-10.159,21.099,22.662,131.282,-73.455,-17.973,14.847,12.503,1.563,5.079,7.814,6.642,44.151,-22.271,-1.954,-3.126,10.940,-59.780,33.993,5.079,44.151
'[12:34:23.113 07/11/2076]',20.708,40.635,-16.020,15.629,27.350,150.037,-90.647,-24.615,13.675,13.675,-0.391,15.238,7.814,-5.079,54.310,-12.112,-0.391,11.331,16.801,-48.840,12.112,-1.563,54.310
'[12:34:23.117 07/11/2076]',22.271,42.979,-16.801,10.159,31.648,160.586,-101.978,-30.867,16.410,17.192,-1.563,19.927,9.377,-5.079,60.171,-11.331,0.391,17.192,17.582,-46.496,7.814,-2.735,60.171
'[12:34:23.121 07/11/2076]',-7.033,36.337,-25.397,5.470,7.033,153.944,-109.402,-41.416,16.801,9.768,-5.861,16.410,6.252,-6.642,40.635,-2.344,-2.735,5.861,26.178,-42.198,0.391,1.954,40.635
'[12:34:23.125 07/11/2076]',-7.424,28.523,-31.648,1.563,5.079,148.083,-115.263,-46.886,12.503,2.735,-10.159,14.066,1.563,-11.722,25.006,5.079,-5.079,-1.563,32.430,-39.853,-8.596,4.298,25.006
'[12:34:23.129 07/11/2076]',-8.596,21.490,-36.728,-3.516,-0.391,147.692,-122.686,-51.966,1.954,3.126,-14.066,6.252,-4.689,-17.582,28.913,-8.205,-7.424,-10.940,37.509,-32.821,-7.033,-5.861,28.913
'[12:34:23.133 07/11/2076]',-2.344,16.410,-33.993,-16.020,-2.735,151.990,-126.984,-58.608,0.391,5.861,-15.629,-1.954,-3.907,-15.629,26.569,-17.192,-6.642,-16.801,34.774,-27.350,-10.159,-10.549,26.569
'[12:34:23.137 07/11/2076]',17.192,26.178,-29.695,-20.708,12.894,162.540,-129.719,-52.747,-6.642,6.252,-18.364,2.735,-8.596,-14.457,18.364,-10.159,-3.126,-12.503,30.476,-31.648,-19.536,-6.642,18.364
'[12:34:23.141 07/11/2076]',13.284,32.430,-25.006,-23.053,7.424,169.573,-132.063,-46.496,-8.987,8.596,-17.973,2.735,-7.814,-8.205,14.066,-12.503,-3.907,-12.894,25.788,-35.165,-14.457,-6.642,14.066
'[12:34:23.145 07/11/2076]',1.172,36.337,-22.271,-29.304,-3.907,171.917,-130.110,-51.184,-11.722,10.159,-14.457,-5.861,-13.284,-0.391,12.112,-20.708,-6.252,-15.629,23.053,-41.807,-15.238,-1.954,12.112
'[12:34:23.148 07/11/2076]',1.172,35.165,-19.927,-32.821,-6.252,178.168,-131.282,-55.873,-11.722,12.894,-10.940,-7.033,-10.159,-0.391,10.940,-17.192,-1.172,-8.205,20.708,-39.463,-24.615,0.391,10.940
'[12:34:23.152 07/11/2076]',10.159,27.350,-23.053,-32.430,-4.689,185.592,-139.487,-57.827,-17.582,16.801,-11.331,-2.344,-12.894,-8.205,23.443,-17.192,-3.516,-2.344,23.834,-32.430,-34.774,-5.861,23.443
'[12:34:23.156 07/11/2076]',10.159,26.569,-19.536,-34.774,-7.033,190.281,-143.394,-55.482,-20.317,19.536,-10.940,-5.470,-18.364,-9.377,31.258,-19.927,-3.516,-10.159,20.317,-37.509,-41.416,-6.252,31.258
'[12:34:23.160 07/11/2076]',21.490,28.132,-10.159,-30.476,7.814,190.672,-144.957,-43.761,-16.801,17.192,-11.331,-4.298,-18.364,-9.768,28.523,-15.238,-3.516,-12.894,10.940,-43.761,-42.589,-5.470,28.523
'[12:34:23.164 07/11/2076]',32.430,22.271,-13.675,-14.847,20.708,193.407,-162.540,-25.006,-22.271,16.020,-20.317,17.192,-21.490,-11.722,35.556,-10.159,-3.907,3.907,14.457,-42.979,-39.853,-8.205,35.556
'[12:34:23.168 07/11/2076]',26.569,20.317,-11.722,-14.066,18.755,194.579,-170.354,-21.490,-21.099,10.940,-20.708,15.629,-22.662,-8.987,35.165,-17.192,-4.298,-1.563,12.503,-45.714,-35.165,-7.424,35.165
'[12:34:23.172 07/11/2076]',24.615,17.973,-10.940,-15.238,18.755,191.844,-171.136,-22.662,-17.582,0.391,-17.192,-1.172,-23.443,-5.861,23.443,-29.695,-4.298,-23.443,11.722,-45.714,-35.556,-3.516,23.443
'[12:34:23.176 07/11/2076]',28.523,11.722,-24.615,-10.549,21.099,191.453,-180.513,-26.960,-17.582,-8.596,-17.582,-7.814,-24.225,-11.722,13.675,-30.085,-5.470,-34.383,25.397,-33.993,-51.575,-3.126,13.675
'[12:34:23.180 07/11/2076]',31.258,5.470,-25.397,-15.629,17.192,203.565,-192.625,-32.430,-22.271,-5.079,-20.317,-7.424,-21.490,-24.225,25.397,-35.556,-2.735,-30.476,26.178,-22.662,-62.906,-12.112,25.397
'[12:34:23.184 07/11/2076]',27.741,9.768,-21.099,-13.675,14.847,213.333,-197.705,-27.741,-25.006,-3.907,-18.364,-5.079,-20.708,-34.383,38.291,-35.165,1.563,-30.867,21.880,-23.834,-72.283,-15.629,38.291
'[12:34:23.188 07/11/2076]',27.741,8.987,-25.006,-7.814,16.410,214.505,-199.658,-26.569,-22.271,-10.549,-19.927,-0.391,-21.099,-38.681,29.695,-23.834,0.391,-31.258,25.788,-25.397,-71.893,-15.238,29.695
'[12:34:23.191 07/11/2076]',28.913,5.861,-26.178,-5.079,16.410,216.068,-202.002,-26.569,-16.410,-17.973,-19.927,1.172,-20.317,-40.244,26.569,-19.145,-1.172,-33.993,26.960,-29.695,-65.641,-15.629,26.569
'[12:34:23.195 07/11/2076]',25.397,5.861,-23.443,-7.033,12.503,221.148,-204.347,-28.523,-9.377,-23.053,-14.066,0.781,-17.973,-42.589,38.681,-23.443,-3.907,-37.118,24.225,-28.523,-66.813,-16.410,38.681
'[12:34:23.199 07/11/2076]',28.913,4.689,-24.225,-2.344,16.410,223.883,-209.035,-23.834,-6.252,-26.178,-8.987,4.298,-17.582,-40.244,42.198,-21.099,-9.377,-35.556,25.006,-25.006,-61.343,-18.364,42.198
'[12:34:23.203 07/11/2076]',43.370,-0.781,-33.993,3.907,26.178,224.664,-219.194,-19.145,-6.252,-25.397,-7.424,14.066,-16.020,-37.509,40.244,-12.112,-15.629,-31.258,34.774,-17.192,-59.780,-19.145,40.244
'[12:34:23.207 07/11/2076]',42.198,-0.391,-37.900,8.205,24.615,227.009,-223.883,-15.238,-11.331,-22.662,0.781,14.066,-17.973,-34.383,42.589,-8.596,-19.536,-23.834,38.681,-14.847,-55.873,-18.755,42.589
'[12:34:23.211 07/11/2076]',34.383,1.172,-44.542,11.331,18.755,227.009,-226.227,-16.020,-12.112,-22.662,11.722,11.331,-17.582,-28.913,41.416,-5.861,-19.927,-13.284,45.324,-14.457,-53.529,-15.238,41.416
'[12:34:23.215 07/11/2076]',42.979,0.000,-51.184,14.066,21.099,235.604,-234.432,-15.629,-11.331,-17.973,18.364,19.145,-13.675,-25.397,46.105,1.954,-11.722,0.391,51.966,-12.894,-54.701,-13.675,46.105
'[12:34:23.219 07/11/2076]',19.145,-2.735,-54.701,17.973,-4.298,241.074,-241.465,-13.675,-5.470,-15.629,25.788,27.350,-7.033,-21.490,56.264,4.689,-10.159,3.907,55.482,-13.284,-55.482,-9.377,56.264
'[12:34:23.223 07/11/2076]',19.145,-3.516,-53.529,17.192,-6.642,244.591,-243.810,-14.066,-0.781,-13.284,30.476,25.006,-5.470,-14.457,64.078,-1.563,-10.159,-1.563,54.310,-16.410,-53.919,-4.298,64.078
'[12:34:23.227 07/11/2076]',28.132,-6.642,-55.092,21.490,-3.907,246.545,-248.107,-5.861,1.563,-7.814,25.006,29.304,-3.516,-6.642,58.608,0.781,-8.205,-5.861,55.873,-19.145,-47.277,0.391,58.608
'[12:34:23.230 07/11/2076]',26.960,-11.722,-58.217,24.225,-5.470,249.670,-255.531,-5.470,1.954,-3.516,21.490,31.648,-0.781,-8.205,50.012,11.722,-4.689,3.516,58.999,-13.675,-42.198,-2.344,50.012
'[12:34:23.234 07/11/2076]',19.927,-8.987,-47.277,14.457,-6.252,255.922,-259.829,-10.549,0.781,1.954,21.490,25.397,-0.781,-12.503,45.714,17.192,-5.079,14.457,48.059,-13.675,-39.072,-5.079,45.714
'[12:34:23.238 07/11/2076]',26.178,-10.159,-48.840,13.284,4.298,253.578,-262.173,-14.066,5.079,0.000,23.053,14.847,4.689,-17.192,27.741,27.350,-7.033,2.344,49.621,-10.159,-39.072,-7.033,27.741
'[12:34:23.242 07/11/2076]',25.397,-13.284,-50.403,8.205,4.689,248.889,-263.736,-19.145,6.642,0.391,22.662,1.954,5.861,-13.284,8.596,30.476,-7.814,-7.033,51.184,-8.596,-35.946,-6.252,8.596
'[12:34:23.246 07/11/2076]',17.582,-12.112,-45.324,2.344,-4.298,260.220,-269.597,-23.053,2.344,8.205,25.397,-3.907,6.252,-10.940,19.927,17.192,-8.205,-1.172,46.105,-3.126,-31.648,-11.331,19.927
'[12:34:23.250 07/11/2076]',26.178,-14.066,-44.151,-1.563,-3.126,269.988,-276.239,-23.443,1.563,17.192,26.178,-8.987,11.722,-6.252,26.569,4.689,-7.424,0.000,44.933,2.344,-24.615,-14.847,26.569
'[12:34:23.254 07/11/2076]',21.490,-14.066,-44.151,-5.470,-8.205,271.551,-278.974,-26.569,-1.563,20.317,19.927,-17.192,12.894,0.781,10.549,-2.735,-3.126,-7.033,44.933,0.781,-8.205,-8.596,10.549
'[12:34:23.258 07/11/2076]',9.768,-9.377,-36.728,-16.020,-14.066,275.849,-279.756,-33.211,-1.172,26.569,16.410,-29.304,12.894,4.298,7.814,-11.722,1.563,-10.549,37.509,-2.344,0.781,-5.079,7.814
'[12:34:23.262 07/11/2076]',6.252,-4.298,-30.867,-23.053,-10.159,277.021,-281.319,-37.509,-1.954,32.821,11.331,-41.416,13.284,0.000,13.675,-26.178,0.000,-10.940,31.648,-4.298,8.205,-6.252,13.675
'[12:34:23.266 07/11/2076]',3.126,-7.814,-29.695,-29.304,-12.503,277.411,-285.617,-43.370,-5.861,38.291,3.516,-50.794,11.331,-1.954,11.722,-35.556,-1.172,-14.066,30.476,-1.172,8.205,-7.033,11.722
'[12:34:23.270 07/11/2076]',-1.954,-10.940,-28.913,-29.304,-19.536,284.054,-293.822,-42.589,-4.298,43.761,-1.563,-53.529,13.284,-3.126,13.675,-40.635,-1.954,-15.238,29.695,3.907,4.298,-7.814,13.675
'[12:34:23.273 07/11/2076]',6.642,-12.112,-29.304,-32.039,-11.331,290.305,-303.199,-42.979,-3.516,41.416,-2.344,-62.515,15.238,-7.814,16.801,-51.184,-7.424,-17.973,30.085,8.596,2.344,-12.894,16.801
'[12:34:23.277 07/11/2076]',4.298,-16.020,-23.443,-32.039,-11.331,292.650,-309.451,-39.072,-3.907,33.211,-1.563,-66.422,13.284,-10.159,8.205,-50.794,-7.033,-31.258,24.225,6.642,9.768,-14.066,8.205
'[12:34:23.281 07/11/2076]',-0.391,-11.722,-17.582,-26.178,-8.596,302.027,-319.219,-30.476,-1.563,27.350,-2.735,-55.482,15.238,-14.457,11.331,-44.933,1.172,-28.132,18.364,-0.781,20.317,-15.238,11.331
'[12:34:23.285 07/11/2076]',4.689,-1.563,-9.768,-22.271,7.424,314.921,-326.252,-25.397,2.735,20.317,0.781,-45.324,11.331,-10.940,23.053,-43.761,3.516,-27.741,10.549,-14.847,31.648,-13.284,23.053
'[12:34:23.289 07/11/2076]',-6.642,3.516,-8.987,-14.066,3.126,314.530,-326.642,-18.755,0.391,7.814,0.391,-44.542,0.391,-8.596,20.317,-47.277,-1.563,-48.449,9.768,-31.648,46.105,-8.205,20.317
'[12:34:23.293 07/11/2076]',-17.192,7.033,-9.377,-9.768,-5.079,322.735,-329.768,-17.582,0.391,0.781,1.563,-44.151,-2.344,-11.331,22.271,-48.449,-2.344,-48.840,10.159,-34.774,44.933,-6.642,22.271
'[12:34:23.297 07/11/2076]',-22.662,15.238,-11.722,-3.126,-3.516,343.053,-341.099,-20.708,-2.344,0.000,7.033,-35.946,-2.735,-18.755,41.416,-50.012,-0.781,-28.132,12.503,-29.695,41.807,-10.940,41.416
'[12:34:23.301 07/11/2076]',-24.615,23.834,-12.112,5.079,1.563,359.463,-352.039,-16.410,-5.470,-4.689,10.940,-22.662,-0.781,-31.258,51.575,-40.635,0.781,-28.523,12.894,-31.648,40.635,-15.629,51.575
'[12:34:23.305 07/11/2076]',-26.960,19.145,-14.066,15.238,0.391,362.198,-355.946,-12.503,-9.377,-14.066,12.894,-18.755,-1.954,-37.900,42.198,-31.648,2.344,-45.324,14.847,-31.258,44.933,-18.364,42.198
'[12:34:23.309 07/11/2076]',-29.304,17.192,-15.629,25.006,1.563,365.714,-359.853,-9.768,-15.629,-22.271,16.020,-14.847,-5.861,-42.198,34.774,-22.662,7.814,-55.482,16.410,-34.774,52.747,-19.145,34.774
'[12:34:23.313 07/11/2076]',-24.225,12.503,-25.397,37.118,6.252,377.045,-373.529,-8.987,-15.238,-18.755,15.238,-7.814,-6.642,-44.542,50.403,-26.178,13.675,-65.250,26.178,-36.728,51.184,-20.708,50.403
'[12:34:23.316 07/11/2076]',-20.708,9.768,-28.523,41.807,8.596,391.893,-387.204,-11.722,-16.410,-12.894,14.066,-7.814,-9.768,-42.979,63.297,-31.258,25.006,-72.283,29.304,-38.291,44.542,-15.238,63.297
'[12:34:23.320 07/11/2076]',-21.880,13.675,-37.118,49.231,12.503,403.614,-396.972,-16.020,-10.940,-5.079,9.768,-5.470,-8.205,-38.291,64.078,-27.741,34.383,-75.018,37.900,-38.681,39.463,-5.861,64.078
'[12:34:23.324 07/11/2076]',-21.880,21.880,-41.807,51.184,21.490,409.475,-402.442,-19.536,-4.298,-1.172,6.642,-2.735,-7.033,-33.993,67.595,-26.178,37.118,-75.409,42.589,-48.449,39.072,5.079,67.595
'[12:34:23.328 07/11/2076]',-20.317,23.834,-46.105,51.184,24.225,422.369,-415.336,-23.834,-1.172,2.735,3.907,-4.689,-7.424,-28.132,66.422,-28.913,38.291,-81.661,46.886,-52.357,44.151,7.424,66.422
'[12:34:23.332 07/11/2076]',-15.629,23.443,-47.277,44.542,25.397,443.858,-435.263,-28.913,0.000,7.033,0.391,-3.516,-4.689,-29.304,60.952,-21.099,40.635,-84.396,48.059,-50.794,44.933,3.126,60.952
'[12:34:23.336 07/11/2076]',-21.099,19.536,-50.012,38.681,18.755,448.938,-443.858,-36.728,-2.735,9.377,-0.781,-3.516,-6.252,-35.165,57.436,-13.284,34.774,-83.614,50.794,-48.840,45.714,-2.735,57.436
'[12:34:23.340 07/11/2076]',-19.145,19.927,-51.184,34.774,21.099,448.156,-444.249,-40.635,-2.344,7.814,-4.689,-7.814,-7.424,-41.807,55.092,-12.112,28.132,-92.210,51.966,-52.747,48.059,-7.814,55.092
'[12:34:23.344 07/11/2076]',-20.708,22.662,-52.747,32.821,23.053,445.421,-443.468,-42.979,-0.781,5.470,-11.331,-14.066,-9.768,-43.761,41.026,-7.424,25.006,-104.322,53.529,-55.482,50.403,-7.424,41.026
'[12:34:23.348 07/11/2076]',-23.053,26.569,-50.403,33.993,25.788,434.481,-431.355,-42.198,3.126,5.470,-21.099,-10.159,-3.907,-46.105,32.039,-3.126,25.006,-91.819,51.184,-57.827,61.734,-6.642,32.039
'[12:34:23.352 07/11/2076]',-31.258,26.178,-48.449,40.244,19.927,427.057,-427.448,-32.821,7.814,-1.954,-27.350,-1.954,-1.563,-46.105,24.615,0.000,16.801,-96.899,49.231,-66.813,76.972,-3.516,24.615
'[12:34:23.355 07/11/2076]',-32.821,35.946,-44.933,33.602,19.927,433.700,-426.276,-35.556,15.238,-0.781,-26.960,-15.629,1.563,-37.118,19.145,-11.722,10.940,-105.104,45.714,-72.283,85.177,-0.781,19.145
'[12:34:23.359 07/11/2076]',-28.523,35.946,-48.449,28.523,22.271,428.620,-417.289,-44.933,21.099,-0.781,-22.271,-34.383,7.814,-34.774,10.940,-19.145,7.033,-105.495,49.231,-69.548,85.568,-1.172,10.940
'[12:34:23.363 07/11/2076]',-19.927,32.821,-47.277,26.178,23.053,409.866,-393.065,-48.449,16.801,5.861,-18.755,-25.397,8.987,-43.370,28.913,-15.238,1.954,-81.661,48.059,-57.827,64.078,-6.642,28.913
'[12:34:23.367 07/11/2076]',-7.814,33.602,-51.575,28.523,31.258,395.800,-372.357,-52.357,13.284,14.847,-17.192,-25.006,10.549,-41.026,37.900,-19.536,0.000,-70.720,52.357,-54.310,57.045,-9.768,37.900
'[12:34:23.371 07/11/2076]',-1.172,32.430,-48.840,29.304,36.337,387.595,-357.118,-54.310,9.768,12.894,-13.675,-24.615,7.814,-40.244,28.913,-11.331,1.954,-77.753,49.621,-55.092,48.840,-6.252,28.913
'[12:34:23.375 07/11/2076]',4.689,33.602,-44.151,36.728,41.026,385.250,-342.271,-51.966,5.470,12.112,-11.722,-18.755,5.470,-34.383,16.410,0.391,2.344,-72.283,44.933,-61.734,54.310,-4.298,16.410
'[12:34:23.379 07/11/2076]',-3.126,38.681,-37.509,40.635,32.821,384.469,-325.861,-51.966,-1.172,15.238,-5.861,-16.801,3.126,-30.867,24.225,-5.079,1.172,-60.952,38.291,-67.204,60.171,-6.642,24.225
'[12:34:23.383 07/11/2076]',-8.987,39.463,-32.430,41.807,23.834,380.562,-307.888,-56.264,-3.907,14.847,5.470,-17.192,4.689,-29.695,32.039,-7.033,5.470,-57.436,33.211,-67.595,59.780,-9.377,32.039
'[12:34:23.387 07/11/2076]',1.954,35.165,-30.476,52.747,29.695,377.045,-294.212,-52.747,-8.205,19.536,9.377,-7.424,5.079,-25.788,30.085,3.907,4.298,-39.463,31.258,-68.767,59.780,-7.424,30.085
'[12:34:23.391 07/11/2076]',9.377,30.085,-31.648,62.906,32.821,371.184,-282.491,-50.403,-13.284,21.880,12.112,-0.391,3.516,-22.662,33.993,6.252,2.735,-35.946,32.430,-69.939,59.389,-6.252,33.993
'[12:34:23.395 07/11/2076]',19.536,30.085,-27.350,65.641,42.979,365.714,-267.643,-51.966,-12.112,20.708,20.317,-1.172,6.252,-19.927,38.291,4.298,4.689,-46.105,28.132,-72.283,61.734,-6.252,38.291
'[12:34:23.398 07/11/2076]',21.099,31.648,-23.834,71.502,46.886,357.509,-248.889,-53.919,-15.238,19.536,25.788,6.642,6.252,-21.490,40.244,12.112,8.205,-48.059,24.615,-73.065,66.422,-9.768,40.244
'[12:34:23.402 07/11/2076]',10.940,33.993,-19.536,80.488,41.807,345.397,-232.088,-48.449,-19.536,16.020,29.304,22.662,5.079,-23.834,53.919,14.847,9.377,-45.714,20.317,-75.018,70.330,-14.457,53.919
'[12:34:23.406 07/11/2076]',5.861,31.258,-14.847,85.177,39.072,337.973,-220.366,-47.668,-19.536,5.079,35.946,27.741,5.861,-26.178,60.952,8.205,9.377,-55.092,15.629,-76.190,79.707,-19.145,60.952
'[12:34:23.410 07/11/2076]',-2.344,26.569,-10.159,91.429,31.258,330.940,-212.943,-42.589,-22.271,-7.814,39.072,35.165,0.391,-23.443,62.515,4.298,6.642,-62.125,10.940,-80.098,91.819,-18.364,62.515
'[12:34:23.414 07/11/2076]',1.954,19.145,-0.391,104.713,34.383,328.205,-214.505,-21.099,-24.225,-13.675,37.509,63.297,-0.781,-24.225,76.972,11.722,6.642,-44.542,1.172,-81.270,100.415,-21.490,76.972
'[12:34:23.418 07/11/2076]',11.722,16.410,5.079,105.104,40.635,325.861,-207.863,-17.192,-21.099,-18.755,40.635,65.641,0.781,-21.490,79.316,7.033,3.126,-59.780,-4.298,-82.833,107.057,-21.099,79.316
'[12:34:23.422 07/11/2076]',10.940,22.271,7.814,97.680,39.463,323.516,-203.175,-18.755,-10.940,-22.662,45.324,47.277,7.814,-14.847,73.846,-7.814,1.563,-95.336,-7.033,-89.084,117.998,-19.536,73.846
'[12:34:23.426 07/11/2076]',11.722,23.443,9.768,94.945,40.244,307.106,-192.234,-12.112,-4.298,-19.536,44.933,43.370,12.112,-13.675,74.628,-8.205,7.033,-129.719,-8.987,-82.442,105.495,-17.582,74.628
'[12:34:23.430 07/11/2076]',12.503,23.834,10.940,92.601,37.900,298.510,-185.592,-8.596,-1.563,-8.987,42.979,47.277,18.755,-14.847,103.932,-28.132,13.675,-121.905,-10.159,-74.628,97.289,-17.192,103.932
'[12:34:23.434 07/11/2076]',14.066,22.662,20.317,89.084,35.946,291.477,-178.950,-0.391,0.781,-6.642,42.198,52.747,21.880,-14.457,129.328,-46.496,18.755,-124.249,-19.536,-72.674,94.554,-14.457,129.328
'[12:34:23.438 07/11/2076]',22.271,17.192,26.178,94.945,43.370,286.007,-179.341,13.284,-0.391,-11.331,37.509,65.641,17.582,-10.159,129.328,-44.933,17.582,-128.547,-25.397,-68.376,95.336,-6.642,129.328
'[12:34:23.441 07/11/2076]',29.304,16.410,34.383,99.243,47.277,285.617,-176.606,25.006,1.172,-15.629,37.900,73.065,14.847,-1.563,131.282,-46.496,16.020,-124.249,-33.602,-72.283,97.289,1.954,131.282
'[12:34:23.445 07/11/2076]',34.383,16.020,37.900,98.071,50.012,279.365,-170.354,29.695,0.391,-16.410,39.072,73.065,14.847,5.470,124.249,-48.059,15.238,-131.673,-37.118,-71.111,104.713,0.781,124.249
'[12:34:23.449 07/11/2076]',39.853,11.331,39.072,93.773,52.357,268.034,-164.103,29.695,0.391,-14.457,37.900,70.720,21.099,6.252,108.620,-41.026,14.457,-140.269,-38.291,-64.469,111.355,-3.907,108.620
'[12:34:23.453 07/11/2076]',46.105,5.861,30.867,97.289,54.310,256.703,-162.149,33.211,1.172,-8.205,30.867,76.972,24.225,8.205,103.541,-33.993,19.536,-147.302,-30.085,-57.436,101.197,-3.126,103.541
'[12:34:23.457 07/11/2076]',43.370,1.563,28.523,89.084,48.840,240.684,-156.679,32.039,-3.126,-8.205,27.350,74.237,22.271,3.126,96.117,-31.648,17.582,-153.553,-27.741,-57.827,98.071,-8.205,96.117
'[12:34:23.461 07/11/2076]',48.059,-3.516,20.708,86.349,56.264,219.585,-150.037,27.350,-0.781,-13.675,23.443,67.985,24.225,-2.735,83.223,-26.569,16.020,-166.447,-19.927,-56.654,97.289,-10.549,83.223
'[12:34:23.465 07/11/2076]',56.654,-7.424,7.033,91.429,67.595,200.830,-146.911,26.960,2.344,-15.238,13.284,74.628,25.397,-10.159,80.488,-19.927,17.192,-168.010,-6.252,-52.747,87.521,-13.284,80.488
'[12:34:23.469 07/11/2076]',49.621,-13.675,-0.781,92.991,65.641,182.857,-143.785,24.615,4.298,-19.145,3.516,77.363,25.397,-12.503,75.018,-19.536,14.066,-174.261,1.563,-50.403,88.303,-15.629,75.018
'[12:34:23.473 07/11/2076]',48.840,-20.317,-13.284,92.991,67.985,170.354,-146.520,16.020,9.377,-27.350,-4.298,67.595,24.225,-10.159,59.780,-27.741,5.079,-191.062,14.066,-49.231,98.462,-17.582,59.780
'[12:34:23.477 07/11/2076]',48.449,-33.211,-31.648,99.243,65.641,158.242,-153.553,12.503,9.377,-32.821,-16.410,65.641,19.536,-9.768,55.482,-38.681,2.735,-204.737,32.430,-45.324,96.117,-15.629,55.482
'[12:34:23.480 07/11/2076]',49.621,-45.324,-41.416,99.243,61.734,150.037,-152.772,2.735,7.033,-30.476,-16.020,67.204,19.536,-12.503,68.767,-47.668,7.424,-193.797,42.198,-34.774,84.786,-14.457,68.767
'[12:34:23.484 07/11/2076]',53.138,-55.092,-50.794,98.071,63.297,132.845,-142.222,-7.814,7.033,-32.039,-12.112,68.767,18.755,-17.973,79.707,-48.449,6.252,-197.314,51.575,-28.132,77.363,-18.755,79.707
'[12:34:23.488 07/11/2076]',51.184,-66.813,-65.641,103.932,61.343,116.044,-134.408,-19.927,6.252,-36.728,-8.205,62.515,17.582,-22.271,79.707,-50.403,3.126,-221.538,66.422,-23.053,70.720,-14.457,79.707
'[12:34:23.492 07/11/2076]',48.840,-72.283,-75.800,106.667,58.217,108.620,-126.203,-32.821,3.907,-39.072,-2.344,57.827,10.549,-23.053,84.005,-50.403,4.689,-239.902,76.581,-21.099,59.780,-6.642,84.005
'[12:34:23.496 07/11/2076]',43.370,-77.753,-79.707,110.183,48.449,107.057,-119.560,-39.072,-2.344,-33.993,0.391,59.389,6.642,-25.006,98.462,-57.045,2.735,-242.637,80.488,-13.284,65.641,-15.629,98.462
'[12:34:23.500 07/11/2076]',30.867,-85.958,-89.084,114.872,30.867,105.885,-117.216,-47.277,-8.987,-32.430,0.000,59.389,0.391,-26.178,104.713,-61.343,-1.172,-242.247,89.866,-9.377,69.939,-18.364,104.713
'[12:34:23.504 07/11/2076]',27.741,-89.866,-92.991,119.170,22.271,110.965,-118.779,-50.403,-16.801,-36.337,1.954,60.171,-4.298,-26.569,100.415,-58.608,-5.470,-237.558,93.773,-8.987,74.628,-16.410,100.415
'[12:34:23.508 07/11/2076]',31.258,-95.726,-90.256,122.295,18.755,114.481,-115.263,-50.403,-15.629,-37.509,2.735,55.092,-4.689,-26.569,99.243,-62.125,-8.596,-233.260,91.038,-10.159,85.958,-20.317,99.243
'[12:34:23.512 07/11/2076]',21.490,-98.462,-89.084,130.891,8.205,114.090,-108.230,-49.621,-14.066,-37.118,4.298,51.575,-8.987,-25.397,120.342,-78.926,-5.079,-240.293,89.866,-7.033,86.740,-23.443,120.342
'[12:34:23.516 07/11/2076]',18.364,-101.587,-88.303,136.752,2.735,114.481,-103.150,-48.840,-13.675,-41.026,10.549,54.310,-10.549,-25.397,136.752,-88.303,-2.344,-248.107,89.084,-7.424,80.098,-15.238,136.752
'[12:34:23.520 07/11/2076]',17.582,-102.369,-85.568,142.613,-1.172,115.653,-94.164,-46.105,-15.238,-40.635,17.192,60.952,-13.675,-29.304,160.195,-93.382,4.298,-252.405,86.349,-5.470,65.250,-9.768,160.195
'[12:34:23.523 07/11/2076]',19.536,-100.024,-81.661,153.162,3.907,114.090,-85.177,-41.026,-16.410,-39.853,26.569,67.595,-18.364,-27.741,180.904,-94.945,11.722,-262.173,82.442,-1.954,53.138,-3.907,180.904
'[12:34:23.527 07/11/2076]',15.238,-104.322,-79.707,160.195,5.861,107.057,-82.833,-37.118,-19.145,-44.933,32.039,71.502,-18.364,-26.178,177.387,-91.819,14.066,-270.769,80.488,-3.516,64.078,0.391,177.387
'[12:34:23.531 07/11/2076]',14.066,-106.667,-66.422,174.261,8.987,112.137,-84.396,-20.317,-23.053,-43.761,35.946,83.614,-14.066,-26.960,181.685,-86.740,19.536,-261.001,67.204,-4.298,88.694,-1.172,181.685
'[12:34:23.535 07/11/2076]',1.954,-110.574,-57.045,192.234,1.172,117.607,-86.349,-5.861,-22.271,-39.072,37.118,92.210,-8.596,-21.099,191.844,-93.382,23.443,-262.564,57.827,-2.735,121.123,-5.861,191.844
'[12:34:23.539 07/11/2076]',-18.364,-118.779,-56.654,207.473,-14.066,125.812,-100.415,2.344,-22.271,-40.635,37.509,89.084,-8.205,-11.331,194.969,-109.792,26.569,-293.822,57.436,-7.814,150.427,-0.781,194.969
'[12:34:23.543 07/11/2076]',-14.066,-117.216,-51.966,209.817,-12.112,135.580,-99.243,1.954,-14.457,-38.291,43.761,85.568,-1.172,-5.470,198.486,-115.263,35.946,-295.385,52.747,-6.252,154.335,5.079,198.486
'[12:34:23.547 07/11/2076]',0.391,-115.263,-53.919,209.817,-0.391,135.971,-89.866,-4.298,-13.284,-27.350,50.403,90.256,-0.391,-2.735,225.446,-121.123,49.231,-281.319,54.701,1.954,139.878,6.642,225.446
'[12:34:23.551 07/11/2076]',20.708,-113.309,-61.734,208.254,21.490,121.514,-75.409,-12.894,-10.549,-24.615,51.966,98.462,-2.344,-5.079,230.916,-106.667,58.608,-280.928,62.515,14.847,118.388,5.079,230.916
'[12:34:23.555 07/11/2076]',32.039,-111.355,-57.436,203.565,34.383,115.263,-67.985,-14.847,-1.954,-26.960,51.184,92.210,0.391,-1.954,200.440,-82.442,61.343,-298.901,58.217,12.894,116.435,10.940,200.440
'[12:34:23.559 07/11/2076]',12.112,-114.090,-60.952,210.989,16.410,111.746,-64.860,-14.457,-5.470,-26.960,48.840,90.256,-6.252,1.563,178.559,-66.032,59.780,-305.934,61.734,14.847,123.858,15.629,178.559
'[12:34:23.563 07/11/2076]',2.735,-116.825,-62.906,209.426,5.861,110.574,-62.125,-21.099,-9.377,-26.960,41.807,88.303,-6.252,-3.126,169.182,-64.078,58.608,-311.404,63.687,19.927,138.315,7.424,169.182
'[12:34:23.566 07/11/2076]',-5.079,-113.309,-64.469,200.049,-4.298,115.653,-60.562,-32.821,-5.861,-29.304,37.900,81.661,0.000,-6.642,163.712,-71.502,63.297,-316.093,65.250,18.755,145.348,8.596,163.712
'[12:34:23.570 07/11/2076]',2.735,-108.230,-75.800,191.453,-5.470,118.779,-61.734,-40.244,-4.298,-40.635,36.728,81.270,2.735,-11.331,167.619,-84.786,69.158,-316.093,76.581,21.880,140.659,5.470,167.619
'[12:34:23.574 07/11/2076]',16.020,-106.276,-85.177,181.294,3.516,116.825,-66.422,-47.277,-3.126,-52.747,33.211,80.488,5.079,-17.192,173.480,-101.197,72.283,-324.298,85.958,19.536,147.302,0.391,173.480
'[12:34:23.578 07/11/2076]',31.258,-99.243,-87.912,168.400,15.629,113.700,-71.893,-44.933,1.563,-62.125,32.430,76.581,8.596,-21.099,163.321,-101.197,70.720,-339.927,88.694,19.536,142.613,-5.079,163.321
'[12:34:23.582 07/11/2076]',28.132,-101.978,-91.819,164.493,7.033,106.667,-77.753,-36.728,-3.516,-67.204,31.648,72.283,7.033,-28.913,150.427,-93.773,70.720,-346.960,92.601,25.006,141.441,-12.894,150.427
'[12:34:23.586 07/11/2076]',24.225,-107.839,-94.164,159.023,1.954,93.382,-78.926,-33.993,-11.331,-71.111,28.132,69.548,2.735,-41.416,145.739,-91.038,60.171,-345.006,94.945,34.383,139.096,-25.006,145.739
'[12:34:23.590 07/11/2076]',24.615,-110.965,-100.024,156.288,3.126,81.661,-84.396,-29.304,-20.708,-75.018,21.099,65.641,-5.861,-48.059,135.189,-89.084,50.403,-364.542,100.806,40.635,134.408,-31.258,135.189
'[12:34:23.594 07/11/2076]',21.880,-110.183,-109.011,155.897,3.907,69.548,-90.256,-23.443,-23.834,-84.005,16.020,61.734,-7.424,-53.529,118.388,-85.568,51.184,-381.734,109.792,45.324,130.501,-35.165,118.388
'[12:34:23.598 07/11/2076]',21.490,-109.792,-113.700,152.381,7.814,62.515,-98.462,-20.317,-29.695,-84.396,5.079,70.720,-8.596,-58.999,114.872,-83.614,54.310,-384.469,114.481,47.668,135.971,-41.416,114.872
'[12:34:23.602 07/11/2076]',9.768,-107.839,-115.263,156.288,6.642,53.919,-110.574,-7.033,-36.728,-90.647,-8.596,86.740,-14.847,-60.171,102.759,-76.190,51.184,-407.912,116.044,37.900,147.692,-39.463,102.759
'[12:34:23.605 07/11/2076]',-1.563,-101.197,-110.574,150.427,4.298,50.403,-109.792,-8.205,-36.337,-93.773,-12.503,71.893,-16.410,-57.436,85.177,-81.270,44.151,-416.899,111.355,34.383,157.070,-38.681,85.177
'[12:34:23.609 07/11/2076]',-4.689,-102.759,-103.150,148.083,8.205,39.853,-97.680,-13.675,-35.165,-94.945,-17.192,57.045,-17.192,-58.217,66.032,-80.488,41.807,-414.554,103.932,33.993,165.665,-39.072,66.032
'[12:34:23.613 07/11/2076]',-0.391,-107.839,-98.852,155.897,16.801,19.927,-75.018,-13.675,-33.602,-95.726,-21.099,63.687,-16.410,-69.158,80.879,-81.270,41.807,-398.535,99.634,45.324,153.162,-46.105,80.879
'[12:34:23.617 07/11/2076]',-0.391,-112.527,-94.554,163.712,21.880,8.987,-54.701,-20.317,-29.695,-96.117,-19.536,62.125,-11.331,-75.018,86.740,-82.442,44.542,-384.860,95.336,55.873,149.255,-50.012,86.740
'[12:34:23.621 07/11/2076]',-1.172,-117.998,-96.508,175.043,26.178,3.126,-39.072,-31.258,-25.006,-102.369,-17.973,57.436,-10.159,-74.628,69.548,-72.283,53.138,-395.800,97.289,57.045,152.772,-46.105,69.548
'[12:34:23.625 07/11/2076]',-7.814,-119.170,-104.713,188.718,23.834,-3.126,-24.225,-40.244,-22.662,-105.885,-16.410,58.217,-16.020,-69.158,69.158,-70.330,62.906,-400.488,105.495,51.966,143.785,-36.728,69.158
'[12:34:23.629 07/11/2076]',-14.457,-119.560,-107.057,192.625,21.490,-5.079,-8.205,-55.482,-25.397,-102.759,-10.940,56.654,-22.271,-64.469,79.316,-73.455,66.813,-396.190,107.839,53.529,138.706,-32.821,79.316
'[12:34:23.633 07/11/2076]',-11.722,-122.686,-98.852,194.969,24.615,-4.298,8.205,-67.204,-28.132,-92.601,-2.344,54.310,-25.006,-57.045,80.879,-66.813,68.376,-380.562,99.634,57.436,138.706,-30.085,80.879
'[12:34:23.637 07/11/2076]',-8.205,-128.938,-89.866,201.612,25.397,-2.735,20.708,-69.548,-28.523,-80.098,1.563,67.595,-25.788,-47.277,83.614,-48.840,73.065,-362.198,90.647,60.952,130.891,-21.880,83.614
'[12:34:23.641 07/11/2076]',-0.781,-124.640,-66.422,196.142,31.258,5.861,32.430,-66.813,-27.350,-70.720,11.722,74.628,-23.053,-37.509,92.601,-41.807,71.502,-339.145,67.204,55.482,128.938,-14.847,92.601
'[12:34:23.645 07/11/2076]',0.391,-126.984,-53.919,199.658,29.304,17.582,42.198,-71.502,-26.960,-64.469,26.178,67.595,-20.317,-28.523,99.634,-47.277,71.893,-329.768,54.701,57.436,128.938,-6.252,99.634
'[12:34:23.648 07/11/2076]',2.344,-114.481,-61.343,206.300,26.960,30.867,53.138,-79.707,-24.615,-59.389,38.291,64.078,-17.192,-27.350,114.481,-50.012,78.535,-313.748,62.125,50.794,119.170,-3.516,114.481
'[12:34:23.652 07/11/2076]',5.470,-106.667,-66.813,211.770,25.006,40.244,60.952,-84.786,-24.225,-53.529,46.105,60.952,-21.490,-22.271,132.063,-58.608,79.316,-299.292,67.595,44.542,112.527,-0.781,132.063
'[12:34:23.656 07/11/2076]',4.298,-99.243,-76.581,217.241,22.662,53.529,60.171,-92.601,-25.397,-51.184,55.482,44.542,-27.350,-13.675,141.832,-75.018,76.190,-293.822,77.363,41.026,112.527,0.781,141.832
'[12:34:23.660 07/11/2076]',-1.172,-90.256,-86.349,218.022,16.020,64.860,57.045,-99.634,-25.397,-46.886,60.171,31.648,-30.867,-10.159,139.487,-78.144,79.316,-284.054,87.131,37.509,114.481,-0.781,139.487
'[12:34:23.664 07/11/2076]',-4.689,-87.521,-84.786,219.585,9.377,75.800,47.277,-92.601,-32.821,-32.039,60.952,42.589,-35.165,1.172,148.083,-73.846,88.303,-252.405,85.568,30.476,112.137,6.252,148.083
'[12:34:23.668 07/11/2076]',-3.126,-84.396,-78.926,212.161,6.252,83.614,47.668,-94.164,-35.165,-22.271,71.111,34.383,-34.774,8.987,153.944,-79.316,95.336,-247.326,79.707,29.304,100.024,14.457,153.944
'[12:34:23.672 07/11/2076]',-0.391,-78.535,-76.581,201.612,1.954,87.912,52.357,-98.462,-37.118,-16.020,82.442,12.503,-35.946,10.549,154.725,-87.131,100.415,-256.703,77.363,31.258,78.535,17.192,154.725
'[12:34:23.676 07/11/2076]',7.814,-78.926,-66.032,193.797,2.344,79.316,62.906,-89.475,-40.244,-12.894,89.475,6.252,-37.118,9.768,152.381,-81.661,98.852,-250.842,66.813,30.867,58.999,18.755,152.381
'[12:34:23.680 07/11/2076]',10.549,-74.628,-55.092,189.109,-0.391,74.237,69.548,-74.628,-40.635,-5.470,91.819,7.424,-31.648,4.298,164.884,-84.005,96.899,-237.949,55.873,33.211,50.794,7.424,164.884
'[12:34:23.684 07/11/2076]',12.112,-71.111,-51.966,185.201,-1.954,66.422,70.330,-61.734,-44.542,-5.079,90.256,4.298,-30.476,1.954,169.182,-93.773,92.601,-234.823,52.747,35.556,49.621,0.000,169.182
'[12:34:23.688 07/11/2076]',3.907,-71.502,-52.747,183.639,-12.112,60.562,61.343,-47.277,-47.277,-12.503,82.442,7.033,-28.913,3.126,148.474,-92.210,85.177,-235.604,53.529,31.648,55.092,2.735,148.474
'[12:34:23.691 07/11/2076]',-2.344,-68.767,-55.482,174.261,-26.960,59.389,53.529,-40.244,-49.621,-18.364,72.674,0.391,-32.821,6.252,132.845,-101.197,84.396,-249.670,56.264,31.258,45.714,9.377,132.845
'[12:34:23.695 07/11/2076]',-7.814,-69.548,-52.357,161.758,-42.979,61.343,47.668,-35.556,-55.873,-17.973,61.343,-17.192,-37.900,3.907,129.328,-125.031,80.879,-256.703,53.138,41.026,37.118,7.814,129.328
'[12:34:23.699 07/11/2076]',-17.582,-70.330,-45.714,148.864,-60.562,62.125,40.244,-28.523,-60.171,-20.317,49.231,-24.225,-40.635,3.516,116.825,-135.971,76.581,-258.657,46.496,49.231,34.774,8.596,116.825
'[12:34:23.703 07/11/2076]',-23.834,-71.502,-35.946,139.878,-75.409,64.469,30.867,-13.284,-64.469,-20.317,36.728,-22.271,-42.198,-2.735,116.435,-141.832,76.190,-260.611,36.728,53.138,35.165,4.298,116.435
'[12:34:23.707 07/11/2076]',-28.913,-75.409,-26.569,132.454,-86.349,69.158,19.536,-3.126,-69.548,-19.145,30.085,-25.006,-42.979,-4.689,113.309,-148.864,73.455,-266.471,27.350,54.701,46.105,1.172,113.309
'[12:34:23.711 07/11/2076]',-32.821,-75.800,-30.867,127.766,-92.991,67.595,8.205,2.735,-74.237,-22.662,26.569,-22.662,-42.589,-8.205,101.978,-144.176,74.237,-278.584,31.648,55.092,58.217,-4.298,101.978
'[12:34:23.715 07/11/2076]',-37.509,-78.144,-39.463,125.031,-103.541,68.767,-4.689,7.424,-78.535,-23.834,20.708,-12.503,-42.198,-11.722,98.071,-138.706,77.363,-281.319,40.244,59.780,57.045,-3.907,98.071
'[12:34:23.719 07/11/2076]',-43.370,-76.581,-42.198,114.872,-114.090,72.283,-18.364,10.159,-83.614,-26.178,16.801,-10.940,-44.933,-14.457,98.462,-142.222,70.720,-284.444,42.979,59.780,58.608,-4.689,98.462
'[12:34:23.723 07/11/2076]',-51.575,-71.893,-47.277,107.057,-121.905,77.753,-36.337,14.066,-85.568,-30.867,14.847,-19.536,-44.933,-11.722,90.256,-155.116,60.952,-297.338,48.059,56.264,69.939,-5.079,90.256
'[12:34:23.727 07/11/2076]',-62.906,-66.813,-39.072,109.011,-126.593,84.786,-54.310,34.383,-85.177,-36.728,15.629,-15.629,-44.542,-9.377,92.601,-160.195,53.919,-293.822,39.853,42.979,82.833,-0.391,92.601
'[12:34:23.730 07/11/2076]',-63.297,-64.469,-40.244,103.541,-126.984,89.475,-60.562,31.648,-85.958,-35.946,20.708,-13.284,-45.714,-11.722,102.369,-158.242,56.654,-276.630,41.026,41.807,82.833,-1.954,102.369
'[12:34:23.734 07/11/2076]',-60.952,-58.999,-46.105,96.899,-119.170,78.926,-56.264,25.397,-86.740,-35.165,24.615,-10.549,-47.277,-17.582,109.402,-151.209,56.654,-267.253,46.886,42.198,77.363,-9.768,109.402
'[12:34:23.738 07/11/2076]',-61.734,-51.184,-60.171,91.038,-110.183,60.952,-53.529,18.755,-90.647,-46.886,23.053,-11.722,-57.436,-24.615,102.369,-144.957,48.449,-281.709,60.952,40.635,60.952,-9.768,102.369
'[12:34:23.742 07/11/2076]',-60.171,-43.761,-76.581,75.018,-104.322,46.886,-59.389,8.987,-92.601,-56.654,17.582,-23.443,-64.078,-29.695,89.866,-150.427,41.416,-290.305,77.363,36.337,49.621,-11.331,89.866
'[12:34:23.746 07/11/2076]',-57.827,-37.900,-90.647,57.436,-99.634,34.383,-69.548,3.126,-101.197,-58.217,11.331,-33.211,-69.548,-40.244,100.415,-171.526,29.304,-293.822,91.429,38.681,41.416,-20.708,100.415
'[12:34:23.750 07/11/2076]',-61.734,-33.211,-82.442,50.794,-97.289,29.695,-82.051,20.708,-104.322,-59.780,8.987,-37.118,-68.376,-46.105,103.932,-181.685,17.582,-293.431,83.223,35.946,49.231,-25.006,103.932
'[12:34:23.754 07/11/2076]',-69.548,-35.946,-91.038,58.217,-102.759,37.900,-101.587,26.178,-102.369,-60.952,7.033,-46.496,-66.422,-47.668,96.899,-185.592,11.331,-287.961,91.819,35.556,66.813,-22.271,96.899
'[12:34:23.758 07/11/2076]',-82.442,-44.933,-93.773,63.687,-109.792,38.291,-107.839,19.536,-102.369,-56.654,5.861,-51.966,-68.376,-50.403,96.899,-181.685,13.675,-285.226,94.554,37.900,78.926,-18.755,96.899
'[12:34:23.762 07/11/2076]',-92.991,-49.621,-92.601,67.985,-111.355,32.039,-105.885,16.410,-102.369,-50.794,3.516,-57.045,-68.767,-53.138,94.164,-178.168,17.582,-283.272,93.382,42.589,88.694,-21.099,94.164
'[12:34:23.766 07/11/2076]',-102.759,-54.310,-88.694,62.515,-114.872,20.317,-102.759,11.331,-102.369,-49.621,-4.298,-55.873,-70.330,-60.952,90.256,-171.526,22.662,-281.319,89.475,38.681,91.819,-25.397,90.256
'[12:34:23.770 07/11/2076]',-100.415,-53.529,-79.316,51.575,-109.402,5.861,-95.726,16.020,-105.885,-50.012,-12.112,-52.747,-76.190,-69.939,87.131,-161.758,23.443,-281.319,80.098,33.993,80.488,-30.867,87.131
'[12:34:23.773 07/11/2076]',-94.945,-45.714,-67.204,37.509,-100.806,-5.470,-91.429,25.788,-103.932,-51.966,-17.973,-57.827,-75.800,-76.581,80.488,-161.368,23.834,-293.040,67.985,26.178,76.190,-38.681,80.488
'[12:34:23.777 07/11/2076]',-92.210,-38.681,-62.906,29.304,-91.429,-16.020,-91.429,33.211,-101.978,-60.562,-25.006,-60.171,-76.972,-82.442,65.641,-155.116,19.145,-306.325,63.687,18.755,75.800,-42.589,65.641
'[12:34:23.781 07/11/2076]',-90.647,-36.728,-62.515,28.132,-85.958,-19.927,-96.508,39.072,-100.024,-63.297,-32.821,-56.264,-77.363,-84.786,60.171,-150.818,19.145,-296.947,63.297,16.801,74.237,-41.026,60.171
'[12:34:23.785 07/11/2076]',-97.680,-38.291,-64.078,25.788,-88.694,-21.099,-103.541,38.681,-100.415,-62.515,-37.118,-60.171,-81.270,-82.833,59.780,-157.070,16.410,-296.557,64.860,16.801,77.363,-39.072,59.780
'[12:34:23.789 07/11/2076]',-103.150,-39.072,-60.171,23.443,-86.349,-15.629,-116.435,39.072,-97.289,-64.078,-44.542,-75.409,-86.740,-72.674,46.886,-169.573,12.894,-315.311,60.952,5.861,92.991,-30.085,46.886
'[12:34:23.793 07/11/2076]',-104.322,-37.900,-54.310,17.973,-84.786,-11.331,-117.607,34.383,-92.210,-59.780,-43.370,-92.601,-88.694,-66.422,45.324,-178.950,14.847,-293.040,55.092,3.516,94.164,-26.178,45.324
'[12:34:23.797 07/11/2076]',-104.322,-33.602,-42.979,6.642,-87.521,-4.298,-110.574,27.350,-87.912,-45.714,-39.072,-98.852,-82.442,-65.641,55.092,-179.341,21.099,-272.723,43.761,8.987,84.005,-27.350,55.092
'[12:34:23.801 07/11/2076]',-107.448,-27.350,-36.337,1.563,-88.303,-6.642,-95.726,18.755,-83.223,-35.556,-35.556,-99.243,-75.800,-69.939,62.906,-171.917,24.225,-255.140,37.118,12.894,76.972,-29.304,62.906
'[12:34:23.805 07/11/2076]',-112.527,-22.662,-29.695,-5.079,-91.819,-2.735,-87.521,10.159,-75.409,-30.867,-32.430,-107.448,-72.674,-66.813,58.608,-166.447,24.615,-253.968,30.476,10.159,67.595,-22.271,58.608
'[12:34:23.809 07/11/2076]',-116.435,-17.973,-25.397,-14.457,-97.680,0.391,-80.098,0.781,-71.502,-25.006,-28.913,-110.965,-74.237,-60.171,59.389,-162.930,22.271,-246.935,26.178,7.033,49.621,-10.159,59.389
'[12:34:23.813 07/11/2076]',-120.342,-20.317,-21.490,-17.192,-103.150,-0.391,-73.846,-3.126,-70.720,-14.847,-28.132,-112.137,-76.581,-53.919,73.065,-169.963,17.582,-238.730,22.271,5.470,40.635,-6.252,73.065
'[12:34:23.816 07/11/2076]',-112.137,-17.973,-16.801,-28.132,-94.554,0.391,-68.376,-13.284,-66.422,-5.079,-23.443,-116.825,-75.018,-42.979,80.098,-175.043,18.755,-222.711,17.582,-1.172,28.523,4.689,80.098
'[12:34:23.820 07/11/2076]',-106.667,-20.317,-16.410,-32.821,-91.038,-0.391,-66.032,-19.145,-64.860,0.781,-19.927,-113.700,-76.581,-28.523,75.800,-168.791,17.973,-209.426,17.192,-5.470,16.801,16.801,75.800
'[12:34:23.824 07/11/2076]',-107.057,-26.960,-19.536,-34.383,-88.303,-7.814,-62.125,-29.304,-66.422,7.424,-17.582,-115.263,-79.707,-18.755,74.237,-168.010,17.582,-204.737,20.317,-9.768,12.894,26.178,74.237
'[12:34:23.828 07/11/2076]',-111.746,-29.304,-18.755,-35.165,-81.270,-15.629,-58.608,-40.635,-67.985,15.238,-11.331,-123.858,-84.786,-8.205,76.581,-172.308,21.490,-208.645,19.536,-18.364,17.973,33.993,76.581
'[12:34:23.832 07/11/2076]',-121.514,-33.993,-17.973,-39.463,-83.223,-23.834,-55.482,-51.575,-74.628,22.271,-5.861,-127.766,-91.819,-1.172,82.833,-176.215,22.662,-186.764,18.755,-21.880,17.973,38.681,82.833
'[12:34:23.836 07/11/2076]',-132.063,-36.337,-16.410,-36.337,-89.475,-33.993,-49.231,-50.012,-82.833,26.569,3.126,-126.984,-97.289,2.735,90.647,-176.996,12.112,-174.261,17.192,-21.099,16.020,38.291,90.647
'[12:34:23.840 07/11/2076]',-141.441,-35.946,-14.847,-36.337,-92.601,-43.761,-44.933,-48.449,-89.866,26.178,9.768,-128.156,-99.634,7.033,90.256,-179.341,3.516,-179.731,15.629,-21.490,20.317,36.728,90.256
'[12:34:23.844 07/11/2076]',-145.739,-31.258,-18.755,-39.072,-104.713,-48.059,-44.933,-38.291,-98.071,19.145,16.410,-121.123,-106.276,12.503,83.614,-173.089,-9.377,-160.977,19.536,-21.880,7.033,36.728,83.614
'[12:34:23.848 07/11/2076]',-142.613,-22.662,-21.490,-37.900,-115.653,-44.542,-42.979,-23.053,-103.541,17.973,21.490,-99.634,-110.965,20.317,87.131,-160.977,-16.020,-137.534,22.271,-22.662,-7.424,35.556,87.131
'[12:34:23.852 07/11/2076]',-141.050,-15.238,-17.973,-34.383,-125.812,-37.900,-42.198,-4.298,-106.667,16.801,22.271,-78.535,-114.481,27.350,91.038,-150.427,-18.755,-125.812,18.755,-33.211,-10.159,33.602,91.038
'[12:34:23.855 07/11/2076]',-140.269,-3.516,-16.020,-39.463,-139.096,-24.615,-39.072,0.781,-107.057,14.457,29.695,-76.972,-119.560,31.258,101.587,-154.335,-19.536,-113.309,16.801,-39.463,-22.662,30.867,101.587
'[12:34:23.859 07/11/2076]',-135.971,14.457,-9.377,-45.324,-144.957,-10.940,-26.960,4.689,-100.024,14.457,37.118,-75.409,-114.872,33.602,109.011,-151.990,-17.192,-87.131,10.159,-47.277,-32.039,27.741,109.011
'[12:34:23.863 07/11/2076]',-129.719,24.225,-8.596,-44.151,-150.818,-9.768,-9.377,10.549,-100.024,12.894,38.681,-52.747,-104.713,14.457,130.501,-141.832,-15.238,-106.276,9.377,-37.900,-46.496,10.159,130.501
'[12:34:23.867 07/11/2076]',-127.766,32.821,-10.159,-46.886,-160.977,-10.940,5.079,13.284,-101.978,7.424,35.946,-33.602,-96.899,-7.033,143.785,-131.282,-12.112,-92.210,10.940,-32.821,-57.827,-8.596,143.785
'[12:34:23.871 07/11/2076]',-122.295,42.589,-21.880,-46.886,-169.182,-14.457,14.457,18.755,-101.587,-8.205,27.741,-14.847,-90.647,-26.569,134.799,-113.309,-12.894,-107.448,22.662,-35.165,-69.939,-24.615,134.799
'[12:34:23.875 07/11/2076]',-118.779,41.807,-29.304,-45.324,-176.215,-27.741,23.443,27.350,-107.057,-25.006,17.192,-0.391,-87.131,-48.059,114.481,-94.164,-20.708,-98.462,30.085,-35.165,-67.204,-46.496,114.481
'[12:34:23.879 07/11/2076]',-119.560,40.244,-37.509,-44.542,-188.327,-44.151,34.774,32.821,-118.779,-38.681,7.814,8.987,-89.084,-82.051,122.686,-92.210,-20.317,-116.044,38.291,-30.085,-74.628,-79.316,122.686
'[12:34:23.883 07/11/2076]',-116.435,37.118,-44.542,-46.496,-191.062,-60.171,45.324,32.821,-125.812,-50.403,-0.391,12.503,-90.647,-112.137,125.031,-85.568,-20.708,-109.402,45.324,-22.271,-87.912,-103.541,125.031
'[12:34:23.887 07/11/2076]',-115.653,32.821,-47.277,-46.105,-193.407,-75.018,49.231,40.635,-135.580,-65.641,-9.768,21.490,-95.726,-143.785,122.686,-73.846,-26.178,-131.282,48.059,-15.238,-99.243,-122.295,122.686
'[12:34:23.891 07/11/2076]',-115.653,23.053,-55.092,-43.761,-197.705,-84.786,42.979,44.933,-144.957,-80.098,-17.582,19.536,-103.150,-170.354,129.328,-78.535,-28.523,-152.381,55.873,-6.252,-109.011,-137.143,129.328
'[12:34:23.895 07/11/2076]',-114.872,15.629,-62.515,-44.542,-202.784,-85.568,34.774,43.370,-148.083,-88.303,-22.271,8.987,-110.183,-179.731,126.593,-86.740,-23.053,-166.056,63.297,0.391,-120.342,-134.408,126.593
'[12:34:23.898 07/11/2076]',-114.090,8.596,-66.032,-41.807,-204.347,-82.442,25.006,45.324,-148.864,-94.945,-26.569,2.735,-109.792,-186.764,124.249,-95.726,-19.927,-168.400,66.813,6.252,-114.481,-136.361,124.249
'[12:34:23.902 07/11/2076]',-110.965,1.563,-67.985,-35.556,-205.519,-73.455,12.894,49.621,-148.474,-97.680,-32.430,5.079,-107.448,-186.764,129.328,-109.011,-17.973,-179.341,68.767,12.894,-105.885,-132.063,129.328
'[12:34:23.906 07/11/2076]',-109.792,0.391,-64.078,-25.397,-204.347,-51.575,-0.781,55.873,-142.613,-97.289,-35.946,0.391,-102.759,-176.606,128.156,-125.812,-10.549,-181.685,64.860,12.112,-85.568,-120.733,128.156
'[12:34:23.910 07/11/2076]',-108.230,2.344,-57.045,-20.708,-198.486,-32.039,-16.410,61.343,-134.799,-98.852,-42.198,-3.516,-96.508,-165.275,117.998,-136.361,-3.516,-180.122,57.827,10.549,-65.641,-107.839,117.998
'[12:34:23.914 07/11/2076]',-101.978,-7.033,-53.529,-8.987,-195.751,-10.549,-39.853,72.283,-130.501,-96.899,-56.264,16.020,-87.912,-154.725,112.137,-137.534,1.954,-188.327,54.310,12.503,-39.072,-96.117,112.137
'[12:34:23.918 07/11/2076]',-97.680,-10.940,-50.012,-7.814,-190.281,6.252,-52.747,66.813,-121.905,-95.726,-57.436,11.722,-79.707,-139.878,100.806,-144.567,7.424,-182.076,50.794,15.629,-18.755,-82.833,100.806
'[12:34:23.922 07/11/2076]',-86.349,-12.894,-55.482,-10.159,-175.824,15.629,-60.562,52.357,-106.667,-100.415,-56.264,-3.516,-71.502,-117.998,80.879,-159.023,12.894,-174.652,56.264,18.755,-8.205,-62.515,80.879
'[12:34:23.926 07/11/2076]',-72.283,-15.238,-55.482,-8.987,-156.288,17.192,-60.952,44.151,-94.164,-104.713,-53.138,-1.563,-58.608,-101.197,60.952,-155.507,13.284,-176.996,56.264,21.099,6.642,-48.840,60.952
'[12:34:23.930 07/11/2076]',-60.171,-18.364,-58.999,-8.205,-139.487,14.847,-58.608,33.602,-87.521,-98.071,-50.012,2.344,-45.324,-91.819,67.595,-164.103,22.271,-190.672,59.780,33.211,12.503,-44.542,67.595
'[12:34:23.934 07/11/2076]',-53.919,-25.006,-58.999,-7.814,-124.640,2.344,-51.966,25.006,-81.270,-93.382,-50.012,7.814,-35.165,-83.614,66.813,-164.884,32.821,-208.645,59.780,39.072,19.145,-36.728,66.813
'[12:34:23.938 07/11/2076]',-51.575,-35.556,-58.608,-3.907,-110.965,-3.126,-60.952,21.490,-75.018,-94.554,-54.701,15.629,-28.523,-71.893,48.449,-157.070,35.165,-215.678,59.389,38.291,35.946,-25.006,48.449
'[12:34:23.941 07/11/2076]',-55.092,-46.496,-64.860,-0.781,-101.978,-0.391,-78.535,10.940,-71.111,-96.117,-59.780,13.675,-26.960,-62.906,35.946,-159.023,35.946,-221.929,65.641,40.244,50.403,-17.582,35.946
'[12:34:23.945 07/11/2076]',-56.264,-55.092,-62.906,0.391,-88.303,-11.331,-79.707,3.516,-64.078,-94.164,-60.171,6.642,-24.225,-50.794,30.085,-166.838,33.993,-225.446,63.687,44.542,59.780,-6.642,30.085
'[12:34:23.949 07/11/2076]',-60.171,-60.952,-62.906,2.735,-76.972,-29.695,-69.939,-5.861,-56.264,-92.601,-59.389,0.391,-18.364,-36.337,16.801,-170.354,33.602,-227.399,63.687,46.496,79.707,4.298,16.801
'[12:34:23.953 07/11/2076]',-64.469,-65.641,-59.780,6.252,-66.813,-45.324,-61.343,-10.940,-50.794,-91.819,-60.171,1.563,-13.675,-26.569,5.079,-166.447,35.556,-229.744,60.562,48.449,93.773,13.284,5.079
'[12:34:23.957 07/11/2076]',-67.985,-69.939,-54.310,3.126,-60.171,-77.753,-33.211,-17.582,-46.496,-92.601,-58.608,-5.470,-8.987,-23.053,-3.907,-168.010,40.244,-233.651,55.092,51.966,105.495,16.801,-3.907
'[12:34:23.961 07/11/2076]',-71.111,-73.846,-53.138,0.000,-53.138,-108.230,-11.331,-27.350,-42.589,-96.117,-57.045,-14.847,-8.596,-18.364,-17.192,-167.228,42.589,-240.293,53.919,53.138,113.700,22.662,-17.192
'[12:34:23.965 07/11/2076]',-71.111,-78.535,-50.403,-5.861,-46.886,-128.156,-1.954,-30.476,-40.635,-99.243,-60.171,-10.549,-12.112,-17.582,-23.053,-158.632,41.416,-243.810,51.184,58.217,107.839,25.788,-23.053
'[12:34:23.969 07/11/2076]',-73.065,-84.396,-42.979,-5.470,-42.589,-153.553,13.675,-25.397,-37.118,-107.448,-63.297,-8.987,-15.238,-15.238,-26.960,-159.805,35.556,-240.293,43.761,58.608,120.342,26.178,-26.960
'[12:34:23.973 07/11/2076]',-84.005,-85.568,-41.026,-6.252,-41.416,-188.327,35.946,-25.788,-32.821,-117.607,-66.813,-26.178,-22.271,-7.424,-32.821,-181.294,25.006,-230.916,41.807,53.529,137.534,32.821,-32.821
'[12:34:23.977 07/11/2076]',-92.991,-93.382,-42.979,-5.079,-41.807,-226.618,56.264,-23.834,-24.225,-134.408,-73.065,-37.509,-28.132,0.781,-44.933,-196.923,14.066,-221.929,43.761,49.621,157.070,39.072,-44.933
'[12:34:23.980 07/11/2076]',-96.117,-95.336,-39.853,-5.861,-41.026,-247.326,74.628,-25.788,-13.675,-141.832,-74.628,-42.979,-23.443,3.907,-45.714,-209.035,11.722,-214.115,40.635,50.012,173.089,42.589,-45.714
'[12:34:23.984 07/11/2076]',-98.852,-96.508,-43.761,-9.768,-38.681,-269.988,93.382,-36.337,-2.344,-149.646,-72.674,-57.436,-19.536,9.768,-49.621,-223.492,7.424,-210.598,44.542,57.045,175.824,50.794,-49.621
'[12:34:23.988 07/11/2076]',-92.210,-103.541,-49.621,-11.331,-26.960,-302.808,114.872,-45.324,13.675,-162.540,-72.283,-74.237,-14.457,7.814,-66.422,-223.101,-1.172,-216.459,50.403,65.641,171.136,56.654,-66.422
'[12:34:23.992 07/11/2076]',-87.521,-104.322,-42.979,-10.549,-17.582,-327.424,140.269,-43.370,28.132,-164.103,-70.720,-84.786,-12.112,13.675,-76.581,-217.631,-2.344,-215.678,43.761,66.032,164.493,69.939,-76.581
'[12:34:23.996 07/11/2076]',-90.256,-105.885,-38.681,-5.470,-14.457,-348.523,160.586,-41.026,33.602,-154.335,-67.595,-92.601,-11.722,14.847,-62.906,-221.538,-0.391,-219.194,39.463,72.674,161.758,69.939,-62.906
'[12:34:24.000 07/11/2076]',-93.773,-113.700,-42.589,-1.563,-13.284,-372.747,179.341,-47.277,38.291,-143.394,-65.250,-102.759,-12.112,17.192,-52.357,-226.227,1.954,-221.929,43.370,76.581,166.838,68.767,-52.357
'[12:34:24.004 07/11/2076]',-97.680,-114.090,-49.231,6.252,-14.066,-394.628,201.221,-48.840,44.151,-130.891,-60.562,-110.574,-11.722,29.695,-53.529,-222.711,6.642,-216.459,50.012,76.581,167.619,76.581,-53.529
'[12:34:24.008 07/11/2076]',-97.680,-115.653,-54.701,10.159,-12.503,-415.336,222.711,-53.919,46.886,-112.918,-52.357,-122.686,-8.596,44.933,-53.919,-224.664,14.847,-208.254,55.482,80.879,169.963,85.958,-53.919
'[12:34:24.012 07/11/2076]',-93.773,-117.998,-62.906,14.847,-9.377,-433.700,243.419,-61.734,49.621,-93.773,-45.324,-136.361,-2.735,58.608,-53.138,-230.134,24.615,-205.519,63.687,86.349,173.480,91.038,-53.138
'[12:34:24.016 07/11/2076]',-85.177,-119.951,-63.687,18.755,-4.298,-451.282,264.127,-60.952,54.701,-75.800,-35.165,-144.567,3.126,71.893,-49.231,-228.962,34.383,-197.314,64.469,92.210,165.275,100.415,-49.231
'[12:34:24.020 07/11/2076]',-75.800,-119.560,-56.264,17.192,-2.344,-460.659,286.007,-58.608,59.389,-55.482,-25.006,-144.567,10.549,82.051,-34.774,-226.227,42.589,-185.983,57.045,92.601,158.632,105.104,-34.774
'[12:34:24.023 07/11/2076]',-66.032,-113.700,-56.264,15.629,1.563,-470.037,310.232,-64.469,63.687,-39.853,-13.284,-150.427,16.020,92.210,-21.880,-228.181,50.794,-178.168,57.045,89.084,153.944,106.667,-21.880
'[12:34:24.027 07/11/2076]',-58.999,-108.230,-52.747,16.410,2.344,-483.321,336.020,-60.952,65.250,-30.085,-3.907,-148.864,17.582,104.322,-20.317,-219.585,56.264,-170.745,53.529,84.005,146.911,109.792,-20.317
'[12:34:24.031 07/11/2076]',-50.403,-96.508,-48.059,10.940,4.689,-492.698,359.072,-57.436,64.078,-13.284,3.126,-139.096,23.443,112.527,-13.284,-208.645,66.032,-162.540,48.840,78.535,138.706,108.230,-13.284
'[12:34:24.035 07/11/2076]',-42.589,-85.177,-40.244,3.516,7.033,-502.857,380.562,-51.575,58.217,1.172,4.689,-130.501,25.788,130.110,-16.410,-205.910,71.893,-148.474,41.026,69.939,141.832,113.309,-16.410
'[12:34:24.039 07/11/2076]',-34.774,-73.846,-32.039,-1.172,9.377,-521.612,403.614,-37.509,53.138,8.205,4.298,-133.626,23.443,148.864,-28.913,-210.989,71.502,-125.812,32.821,53.138,144.176,121.905,-28.913
'[12:34:24.043 07/11/2076]',-21.099,-62.125,-26.569,-14.847,16.410,-529.426,420.415,-35.946,51.966,22.271,6.642,-141.441,28.523,160.586,-31.648,-218.413,81.270,-110.183,27.350,48.449,136.752,124.249,-31.648
'[12:34:24.047 07/11/2076]',-2.344,-50.012,-17.973,-27.350,25.397,-522.784,430.183,-35.165,47.668,45.324,5.470,-134.799,37.900,163.712,-14.457,-223.883,98.462,-105.885,18.755,49.621,123.077,120.342,-14.457
'[12:34:24.051 07/11/2076]',9.377,-41.026,-20.317,-32.821,26.960,-517.705,434.481,-31.648,36.728,59.780,4.689,-125.031,40.244,160.977,-6.252,-218.803,111.746,-117.216,21.099,55.482,95.726,115.653,-6.252
'[12:34:24.055 07/11/2076]',16.020,-30.867,-24.225,-41.416,23.053,-523.175,445.812,-28.913,27.350,69.158,3.516,-122.295,38.681,165.665,-13.284,-213.333,123.077,-118.779,25.006,53.529,77.363,116.435,-13.284
'[12:34:24.059 07/11/2076]',19.145,-19.927,-19.536,-52.357,16.020,-529.426,461.832,-23.443,14.847,76.581,0.391,-115.653,34.383,169.573,-18.755,-209.035,128.938,-114.872,20.317,47.277,67.204,116.435,-18.755
'[12:34:24.063 07/11/2076]',19.145,-12.112,-20.708,-60.562,-0.781,-534.896,474.725,-16.020,-1.954,80.879,-4.298,-108.230,26.960,166.056,-14.457,-213.333,131.282,-112.527,21.490,46.496,50.794,109.792,-14.457
'[12:34:24.066 07/11/2076]',23.053,-7.814,-26.569,-69.548,-10.549,-543.883,487.228,-15.629,-14.066,82.442,-6.642,-105.104,24.615,162.149,-15.238,-216.850,134.017,-107.057,27.350,46.886,45.324,102.369,-15.238
'[12:34:24.070 07/11/2076]',31.258,-6.252,-28.913,-74.237,-16.410,-554.823,502.076,-10.940,-27.350,82.051,-12.894,-91.819,23.443,152.381,-19.536,-207.863,131.673,-100.024,29.695,51.184,31.258,96.508,-19.536
'[12:34:24.074 07/11/2076]',29.695,-3.907,-26.178,-78.926,-28.523,-568.107,516.532,-1.172,-41.807,76.190,-16.801,-81.270,21.490,141.050,-27.741,-200.440,125.812,-94.554,26.960,48.449,28.132,91.038,-27.741
'[12:34:24.078 07/11/2076]',31.258,0.000,-32.821,-76.972,-32.039,-582.173,529.035,5.079,-51.966,67.204,-18.364,-73.846,18.364,137.924,-37.509,-197.705,123.858,-93.773,33.602,45.714,36.337,84.786,-37.509
'[12:34:24.082 07/11/2076]',33.211,7.814,-24.615,-78.926,-35.165,-591.941,544.274,19.145,-58.217,63.297,-20.317,-64.469,20.317,134.017,-43.370,-191.844,125.812,-92.210,25.397,41.416,41.026,79.316,-43.370
'[12:34:24.086 07/11/2076]',33.211,11.722,-26.178,-80.879,-43.761,-597.802,552.088,25.397,-68.376,55.873,-25.397,-52.747,18.364,123.468,-50.403,-183.639,127.766,-100.024,26.960,38.291,49.231,66.813,-50.403
'[12:34:24.090 07/11/2076]',35.165,16.410,-34.774,-80.488,-48.059,-608.352,557.949,34.383,-78.144,45.714,-29.304,-48.059,9.768,116.825,-59.389,-179.341,126.984,-104.322,35.556,37.509,44.151,58.999,-59.389
'[12:34:24.094 07/11/2076]',35.165,16.801,-42.198,-80.488,-56.264,-623.590,564.982,42.589,-87.521,39.853,-33.993,-41.026,1.563,107.839,-62.906,-170.354,127.375,-108.230,42.979,37.509,33.602,53.529,-62.906
'[12:34:24.098 07/11/2076]',31.648,14.457,-53.138,-80.098,-67.204,-638.437,568.107,48.840,-99.243,37.900,-42.589,-21.490,-2.735,95.336,-60.952,-158.242,125.421,-106.276,53.919,38.681,27.741,46.105,-60.952
'[12:34:24.102 07/11/2076]',23.834,14.847,-59.780,-78.535,-72.283,-659.536,571.624,59.780,-100.806,31.258,-54.310,-9.768,-2.735,87.521,-67.595,-151.990,113.700,-93.773,60.562,29.304,41.416,41.026,-67.595
'[12:34:24.105 07/11/2076]',23.443,25.397,-69.158,-80.098,-69.939,-673.211,582.955,58.608,-93.382,28.523,-52.357,-21.880,0.391,89.866,-60.952,-169.182,108.230,-79.316,69.939,21.490,41.026,46.105,-60.952
'[12:34:24.109 07/11/2076]',24.225,32.430,-77.363,-85.568,-66.032,-686.496,594.286,50.794,-86.349,22.662,-50.012,-33.993,4.689,87.912,-69.158,-173.089,100.806,-69.939,78.144,13.675,47.277,46.105,-69.158
'[12:34:24.113 07/11/2076]',29.695,39.463,-84.005,-89.866,-59.780,-684.542,593.114,45.714,-82.833,21.099,-48.059,-25.397,9.377,69.939,-55.873,-160.195,92.210,-75.409,84.786,19.536,26.569,36.728,-55.873
'[12:34:24.117 07/11/2076]',33.211,49.621,-91.429,-86.740,-57.045,-684.933,595.067,50.403,-82.442,21.880,-41.416,-14.847,7.424,61.343,-42.198,-145.348,86.349,-73.455,92.210,19.536,-0.781,34.383,-42.198
'[12:34:24.121 07/11/2076]',33.602,52.747,-100.806,-82.051,-54.701,-693.138,599.365,50.794,-79.707,18.364,-40.635,-4.689,1.172,60.562,-48.840,-120.733,78.535,-69.158,101.587,12.894,-16.020,37.509,-48.840
'[12:34:24.125 07/11/2076]',27.350,49.621,-105.495,-79.316,-57.827,-702.515,600.537,50.794,-80.488,16.020,-44.933,-0.391,-4.689,56.654,-60.952,-101.978,68.767,-66.032,106.276,8.987,-21.099,34.383,-60.952
'[12:34:24.129 07/11/2076]',26.569,51.575,-101.587,-78.535,-58.217,-706.813,606.398,55.482,-81.661,22.271,-44.151,-1.954,-7.424,57.045,-44.933,-110.574,60.562,-55.092,102.369,5.470,-26.178,30.476,-44.933
'[12:34:24.133 07/11/2076]',25.397,47.668,-106.667,-69.939,-59.389,-712.283,611.477,55.482,-80.879,27.741,-39.853,-6.252,-7.814,59.389,-32.430,-119.560,61.734,-51.575,107.448,5.470,-28.913,31.648,-32.430
'[12:34:24.137 07/11/2076]',18.364,40.635,-106.667,-68.767,-65.641,-721.270,616.557,53.529,-85.177,27.350,-40.244,-2.735,-10.940,53.138,-29.304,-114.090,55.873,-50.012,107.448,7.424,-27.741,28.913,-29.304
'[12:34:24.141 07/11/2076]',13.284,44.933,-99.634,-58.999,-67.595,-725.568,627.106,64.078,-81.270,32.430,-36.728,0.391,-7.814,51.184,-19.536,-109.011,49.231,-39.463,100.415,2.735,-31.648,31.258,-19.536
'[12:34:24.145 07/11/2076]',5.470,44.542,-105.495,-52.357,-72.283,-731.038,634.139,61.343,-76.972,31.648,-30.476,-1.563,-11.331,54.310,-19.145,-101.978,42.979,-32.430,106.276,0.000,-29.304,30.476,-19.145
'[12:34:24.148 07/11/2076]',0.781,44.933,-103.932,-48.449,-73.455,-730.256,638.437,57.436,-64.860,28.132,-28.132,3.516,-15.238,57.045,-21.880,-80.879,37.118,-28.132,104.713,-1.172,-28.132,29.695,-21.880
'[12:34:24.152 07/11/2076]',-1.563,44.933,-104.322,-37.900,-74.628,-728.303,642.735,60.171,-57.045,27.350,-23.443,16.801,-15.238,53.529,-11.722,-64.078,25.006,-18.364,105.104,-3.907,-27.350,26.178,-11.722
'[12:34:24.156 07/11/2076]',-6.252,44.542,-104.322,-30.476,-78.926,-729.475,650.159,60.562,-49.231,21.099,-17.582,17.192,-17.973,55.482,-4.689,-61.343,13.284,-3.126,105.104,-8.205,-23.834,26.178,-4.689
'[12:34:24.160 07/11/2076]',-12.112,39.072,-104.322,-22.271,-82.833,-736.508,656.410,61.343,-45.714,12.894,-10.940,21.490,-23.834,53.919,-0.781,-52.357,7.424,5.470,105.104,-10.940,-22.662,28.913,-0.781
'[12:34:24.164 07/11/2076]',-20.708,35.165,-99.634,-10.549,-88.694,-740.024,659.536,71.502,-47.668,14.066,-10.549,48.449,-22.662,41.416,17.582,-32.821,7.033,10.940,100.415,-12.894,-25.006,25.397,17.582
'[12:34:24.168 07/11/2076]',-27.741,33.993,-96.508,-8.596,-91.429,-739.634,662.271,67.595,-44.933,14.066,-3.126,46.105,-21.490,39.853,18.755,-26.178,7.424,18.364,97.289,-13.284,-24.225,23.834,18.755
'[12:34:24.172 07/11/2076]',-27.741,32.039,-94.945,-12.894,-84.005,-743.150,665.788,55.092,-33.993,7.814,4.298,29.695,-23.834,35.946,11.722,-16.410,8.596,14.066,95.726,-16.410,-30.867,23.443,11.722
'[12:34:24.176 07/11/2076]',-21.099,31.258,-96.899,-10.549,-71.502,-744.322,665.006,51.575,-21.099,2.735,7.814,25.397,-21.880,29.304,4.689,1.563,6.642,2.344,97.680,-14.066,-46.886,21.490,4.689
'[12:34:24.180 07/11/2076]',-16.801,30.867,-94.945,-13.284,-63.687,-738.462,659.145,46.105,-13.675,4.298,10.159,21.099,-17.582,18.755,18.364,2.344,6.252,-6.252,95.726,-8.596,-55.873,11.331,18.364
'[12:34:24.184 07/11/2076]',-12.503,26.960,-93.773,-12.894,-56.654,-730.647,648.987,43.761,-10.940,2.344,14.847,18.364,-14.066,6.642,30.476,1.954,5.861,-12.112,94.554,-10.549,-53.919,1.563,30.476
'[12:34:24.188 07/11/2076]',-12.894,25.006,-98.462,-9.377,-54.310,-733.773,646.252,44.542,-10.159,-3.907,19.145,21.490,-14.066,0.781,26.178,13.284,6.252,-12.112,99.243,-13.284,-56.654,0.391,26.178
'[12:34:24.191 07/11/2076]',-17.973,27.741,-101.197,-11.331,-58.608,-741.587,652.894,41.807,-13.284,-5.079,24.225,17.973,-12.503,-3.126,25.788,12.894,5.079,-2.735,101.978,-18.755,-53.138,-0.781,25.788
'[12:34:24.195 07/11/2076]',-18.364,32.821,-103.541,-16.020,-60.562,-736.508,653.284,36.337,-17.582,-4.298,32.821,9.377,-16.801,-6.252,37.118,5.861,5.079,5.470,104.322,-22.271,-59.389,-5.861,37.118
'[12:34:24.199 07/11/2076]',-13.675,37.118,-104.322,-19.927,-60.562,-720.488,641.954,35.165,-13.675,-6.642,40.635,7.814,-22.271,-6.642,49.621,7.424,4.689,11.722,105.104,-19.927,-84.005,-6.252,49.621
'[12:34:24.203 07/11/2076]',-14.457,43.370,-96.117,-26.569,-62.906,-707.204,634.921,38.681,-12.503,-3.516,43.370,11.331,-24.615,-9.768,63.297,9.377,5.079,16.410,96.899,-23.053,-98.071,-5.470,63.297
'[12:34:24.207 07/11/2076]',-9.768,50.403,-89.866,-28.132,-61.343,-687.668,626.716,42.198,-8.596,-6.252,49.621,5.079,-25.788,-10.549,73.455,2.735,7.424,24.615,90.647,-24.615,-105.495,-9.377,73.455
'[12:34:24.211 07/11/2076]',-5.079,52.357,-86.349,-32.039,-60.562,-663.834,613.431,37.118,-3.126,-9.377,55.873,-3.516,-23.443,-12.112,73.065,1.563,10.159,28.913,87.131,-28.132,-102.759,-10.549,73.065
'[12:34:24.215 07/11/2076]',-7.424,54.701,-84.786,-30.867,-67.595,-645.861,605.226,37.900,-2.735,-5.861,58.217,-1.172,-15.629,-18.755,75.800,7.033,15.238,31.648,85.568,-26.178,-104.322,-11.722,75.800
'[12:34:24.219 07/11/2076]',-7.814,52.357,-86.740,-26.960,-77.363,-620.464,588.816,37.509,-1.954,-3.516,57.827,0.000,-9.377,-23.053,78.535,6.642,17.582,40.244,87.521,-25.788,-97.680,-16.020,78.535
'[12:34:24.223 07/11/2076]',-12.503,53.138,-87.521,-30.867,-85.568,-585.299,557.558,32.821,1.954,-6.642,57.436,-14.066,-5.470,-19.536,71.502,-6.642,14.457,53.138,88.303,-31.258,-85.958,-13.675,71.502
'[12:34:24.227 07/11/2076]',-15.629,58.217,-81.661,-30.085,-86.349,-552.479,524.347,43.370,7.033,-5.079,52.747,-15.629,3.907,-14.066,63.687,-13.284,19.145,60.171,82.442,-41.026,-76.972,-1.172,63.687
'[12:34:24.230 07/11/2076]',-15.238,53.919,-73.065,-35.556,-88.303,-534.115,504.029,44.933,12.894,-3.907,46.886,-15.238,6.252,-9.377,58.999,-14.066,28.132,58.999,73.846,-35.946,-67.985,-3.126,58.999
'[12:34:24.234 07/11/2076]',-16.020,46.496,-65.641,-45.714,-87.521,-527.863,488.010,43.370,17.582,-8.596,41.416,-25.788,7.424,-12.112,50.794,-19.536,26.960,51.966,66.422,-30.476,-62.515,-5.470,50.794
'[12:34:24.238 07/11/2076]',-17.192,37.509,-73.065,-48.059,-83.614,-532.161,468.864,42.979,17.973,-23.443,36.728,-38.681,2.735,-22.271,31.648,-18.364,18.364,33.993,73.846,-17.973,-67.204,-7.424,31.648
'[12:34:24.242 07/11/2076]',-24.615,23.053,-80.098,-53.919,-89.475,-537.241,448.938,39.072,14.847,-34.383,28.132,-53.138,-5.861,-33.993,18.755,-22.271,10.549,19.145,80.879,-7.424,-67.204,-17.192,18.755
'[12:34:24.246 07/11/2076]',-38.291,13.284,-84.005,-57.436,-96.508,-537.631,428.230,36.337,8.596,-39.853,20.317,-63.687,-10.159,-47.668,26.178,-41.807,-1.563,8.205,84.786,0.391,-58.608,-25.397,26.178
'[12:34:24.250 07/11/2076]',-42.198,26.960,-80.098,-57.436,-79.707,-524.347,406.740,41.807,12.112,-39.853,13.675,-68.376,-7.424,-47.668,30.085,-56.654,-8.205,2.735,80.879,-4.689,-44.151,-19.927,30.085
'[12:34:24.254 07/11/2076]',-38.291,37.118,-68.767,-58.999,-57.827,-507.155,385.641,47.668,29.304,-41.026,5.470,-69.548,3.516,-39.072,18.755,-58.999,-4.298,-3.126,69.548,-14.457,-24.615,-12.112,18.755
'[12:34:24.258 07/11/2076]',-43.370,42.198,-57.827,-57.827,-49.621,-494.652,370.403,53.529,37.900,-48.449,0.781,-69.548,11.722,-36.728,6.642,-60.952,-7.424,-7.814,58.608,-18.364,-4.298,-9.377,6.642
'[12:34:24.262 07/11/2076]',-43.761,57.045,-54.701,-58.217,-35.165,-480.977,356.728,57.045,44.151,-55.092,-0.781,-72.283,19.536,-38.681,3.126,-67.985,-10.549,-13.284,55.482,-22.271,14.066,-12.112,3.126
'[12:34:24.266 07/11/2076]',-42.198,61.734,-51.184,-60.171,-30.867,-466.129,344.225,58.217,48.449,-61.343,-0.391,-69.548,29.304,-46.105,-0.781,-66.032,-10.940,-16.801,51.966,-19.145,25.397,-21.880,-0.781
'[12:34:24.270 07/11/2076]',-55.873,68.376,-50.794,-62.515,-37.900,-451.282,333.675,51.966,42.198,-63.297,-1.954,-66.422,33.602,-55.092,-0.391,-67.985,-14.847,-16.801,51.575,-16.410,42.198,-32.039,-0.391
'[12:34:24.273 07/11/2076]',-56.654,80.488,-41.026,-72.283,-30.867,-434.481,328.596,45.324,41.026,-60.562,-1.172,-71.111,34.774,-58.217,4.298,-73.455,-17.973,-12.894,41.807,-19.536,43.761,-32.821,4.298
'[12:34:24.277 07/11/2076]',-56.264,89.084,-35.556,-74.628,-28.132,-419.243,321.563,46.496,39.072,-58.608,1.563,-71.893,35.556,-58.217,1.172,-68.376,-13.675,-16.410,36.337,-26.178,43.761,-33.993,1.172
'[12:34:24.281 07/11/2076]',-59.389,95.726,-37.118,-75.018,-25.397,-404.786,311.404,41.026,35.165,-51.966,2.735,-64.078,36.337,-58.999,3.907,-60.171,-2.735,-25.006,37.900,-30.476,43.370,-34.774,3.907
'[12:34:24.285 07/11/2076]',-63.687,100.806,-25.006,-75.800,-29.695,-393.065,305.153,51.184,25.006,-47.668,4.298,-52.747,33.211,-62.515,12.112,-53.919,2.735,-26.178,25.788,-39.072,44.933,-39.463,12.112
'[12:34:24.289 07/11/2076]',-71.111,103.932,-24.615,-71.502,-37.509,-375.482,286.789,59.780,8.596,-51.966,7.814,-48.840,22.662,-63.297,14.066,-57.436,2.344,-16.020,25.397,-51.575,56.264,-42.589,14.066
'[12:34:24.293 07/11/2076]',-76.190,109.792,-20.708,-76.972,-35.556,-365.714,282.100,53.138,0.781,-50.794,13.284,-49.231,19.927,-64.860,10.940,-51.966,6.642,-9.768,21.490,-56.264,65.250,-50.403,10.940
'[12:34:24.297 07/11/2076]',-78.926,106.276,-1.954,-85.177,-35.165,-365.714,289.133,49.621,-12.503,-42.198,14.457,-33.993,17.192,-76.972,23.053,-38.681,7.814,-16.801,2.735,-46.105,60.952,-62.125,23.053
'[12:34:24.301 07/11/2076]',-77.753,101.978,-8.205,-79.316,-30.867,-373.919,293.822,45.714,-23.443,-39.072,17.192,-25.788,12.503,-86.349,28.913,-26.569,5.861,-26.178,8.987,-39.463,51.966,-68.376,28.913
'[12:34:24.305 07/11/2076]',-79.316,103.932,-1.172,-85.958,-24.615,-373.138,292.650,41.026,-23.053,-39.072,17.582,-28.523,8.987,-82.051,11.722,-13.675,5.079,-37.900,1.954,-40.244,45.714,-63.297,11.722
'[12:34:24.309 07/11/2076]',-81.661,101.197,1.563,-80.488,-24.225,-371.575,286.789,47.668,-24.615,-38.291,13.675,-35.556,4.689,-81.270,2.344,-10.549,4.298,-45.324,-0.781,-45.324,48.059,-62.515,2.344
'[12:34:24.313 07/11/2076]',-85.958,96.508,-4.298,-81.661,-32.039,-366.886,276.630,44.542,-34.383,-32.039,9.768,-42.979,-1.563,-85.958,13.284,-24.615,4.689,-55.873,5.079,-41.026,43.761,-67.985,13.284
'[12:34:24.316 07/11/2076]',-89.475,103.541,1.563,-89.084,-37.509,-352.430,271.160,43.761,-39.853,-25.006,8.987,-50.794,-6.252,-85.958,18.364,-32.821,11.722,-53.919,-0.781,-43.761,38.291,-70.330,18.364
'[12:34:24.320 07/11/2076]',-87.912,102.369,0.000,-87.521,-41.026,-339.927,263.736,41.416,-45.714,-16.410,7.424,-48.449,-7.814,-86.349,17.973,-26.960,21.099,-62.906,0.781,-45.324,37.900,-71.893,17.973
'[12:34:24.324 07/11/2076]',-90.647,105.104,0.391,-90.647,-47.668,-327.424,260.611,37.118,-53.529,-8.596,6.642,-47.277,-10.159,-88.303,21.099,-25.006,30.476,-57.827,0.391,-48.449,27.741,-68.767,21.099
'[12:34:24.328 07/11/2076]',-79.707,116.435,0.781,-90.647,-37.900,-311.404,257.485,37.118,-54.310,-3.516,8.987,-48.840,-7.814,-82.833,17.973,-24.615,40.244,-55.873,0.000,-57.436,26.178,-66.032,17.973
'[12:34:24.332 07/11/2076]',-75.800,127.375,7.424,-92.210,-33.602,-296.166,257.485,37.900,-51.966,2.735,10.940,-44.933,-3.516,-74.628,16.020,-20.708,49.621,-52.747,-6.642,-67.595,26.960,-64.078,16.020
'[12:34:24.336 07/11/2076]',-70.720,136.752,14.066,-94.164,-29.695,-284.054,260.611,38.291,-49.621,10.159,14.847,-42.979,-0.391,-69.548,25.006,-21.490,52.747,-44.933,-13.284,-72.283,21.099,-64.078,25.006
'[12:34:24.340 07/11/2076]',-69.158,146.520,15.238,-95.726,-29.695,-270.379,259.829,35.946,-51.184,12.503,17.582,-42.198,-5.470,-58.999,25.006,-21.880,49.621,-30.476,-14.457,-76.190,13.675,-60.562,25.006
'[12:34:24.344 07/11/2076]',-75.018,151.209,9.768,-93.382,-39.853,-257.875,256.313,32.821,-51.184,13.284,19.536,-34.383,-10.940,-50.403,20.317,-10.159,45.714,-17.192,-8.987,-80.879,4.298,-54.701,20.317
'[12:34:24.348 07/11/2076]',-65.641,151.990,19.536,-87.521,-34.774,-240.684,250.452,42.198,-50.794,18.755,19.145,-11.722,-13.675,-41.807,22.271,9.768,46.105,-5.079,-18.755,-83.223,0.391,-49.231,22.271
'[12:34:24.352 07/11/2076]',-57.045,154.335,24.615,-77.363,-30.476,-226.618,242.637,57.436,-50.794,16.801,14.457,14.847,-17.973,-33.602,19.927,28.132,41.807,9.768,-23.834,-89.475,-4.298,-41.026,19.927
