'Time and date','FP1-F7','F7-T7','T7-P7','P7-O1','FP1-F3','F3-C3','C3-P3','P3-O1','FP2-F4','F4-C4','C4-P4','P4-O2','FP2-F8','F8-T8','T8-P8','P8-O2','FZ-CZ','CZ-PZ','P7-T7','T7-FT9','FT9-FT10','FT10-T8','T8-P8','ECG'
'hh:mm:ss.mmm dd/mm/yyyy','uV','uV','uV','uV','uV','uV','uV','uV','uV','uV','uV','uV','uV','uV','uV','uV','uV','uV','uV','uV','uV','uV','uV','uV'
'[18:53:30.000 08/07/2079]',-30.867,110.183,-39.072,237.558,185.201,-96.899,-12.112,201.612,57.436,-55.092,-3.907,94.554,-2.735,78.926,-54.310,71.111,17.582,5.079,39.853,11.722,-59.780,78.144,-54.310,-380.562
'[18:53:30.004 08/07/2079]',0.391,0.391,0.391,0.391,0.391,0.391,0.391,0.391,0.391,0.391,0.391,0.391,0.391,0.391,0.391,0.391,0.391,0.391,0.391,0.391,0.391,0.391,0.391,0.391
'[18:53:30.008 08/07/2079]',0.391,0.391,0.391,0.391,0.391,0.391,0.391,0.391,0.391,0.391,0.391,0.391,0.391,0.391,0.391,0.391,0.391,0.391,0.391,0.391,0.391,0.391,0.391,0.781
'[18:53:30.012 08/07/2079]',1.172,-1.172,0.391,0.391,0.391,0.781,0.391,0.000,0.391,0.391,0.391,0.391,0.391,0.000,0.391,0.391,0.391,0.391,0.391,0.391,0.391,0.391,0.391,0.391
'[18:53:30.016 08/07/2079]',0.000,0.391,0.391,0.781,0.391,0.000,0.391,0.391,0.391,0.000,0.391,0.781,-0.391,2.344,-0.391,0.391,0.391,0.391,0.391,0.391,1.172,1.172,-0.391,-0.781
'[18:53:30.020 08/07/2079]',-3.126,7.424,-0.781,-0.781,0.391,-1.563,0.391,2.344,0.781,0.391,0.391,1.172,0.000,2.735,-0.391,1.172,0.391,0.391,1.563,-0.781,0.000,0.391,-0.391,-2.344
'[18:53:30.023 08/07/2079]',-1.954,7.033,-0.781,-1.954,0.391,-0.391,0.391,1.563,1.563,1.172,0.391,0.391,1.954,-1.563,1.563,1.563,0.781,0.391,1.563,0.391,-1.954,-2.344,1.563,-1.563
'[18:53:30.027 08/07/2079]',3.907,-4.689,0.781,2.344,1.172,2.344,1.172,-1.954,0.391,1.563,0.000,-0.781,1.954,-4.689,2.735,0.391,0.391,1.172,0.000,1.954,0.391,-1.563,2.735,0.391
'[18:53:30.031 08/07/2079]',4.298,-7.814,1.563,5.861,1.954,0.781,1.172,-0.781,-0.391,0.000,0.391,0.391,-0.781,0.781,0.391,0.391,0.000,1.172,-0.781,0.000,3.126,2.344,0.391,0.391
'[18:53:30.035 08/07/2079]',-3.907,6.642,-0.781,-0.781,0.391,-3.516,0.391,4.298,0.781,-0.781,0.781,1.172,-1.172,3.907,-0.781,0.391,0.781,-0.781,1.563,-0.781,0.391,1.172,-0.781,-5.470
'[18:53:30.039 08/07/2079]',-12.112,20.317,-1.172,-6.252,0.000,-5.470,-0.781,6.642,2.735,0.391,1.172,1.954,-0.391,7.424,-0.781,1.563,1.954,-0.781,1.954,0.781,-2.735,0.000,-0.781,-23.053
'[18:53:30.043 08/07/2079]',-27.350,51.184,-7.033,-4.689,8.205,-14.847,3.126,14.066,7.424,0.391,4.298,9.377,-2.735,23.443,-6.642,9.768,3.516,1.563,7.814,-7.814,-1.172,0.391,-6.642,-41.026
'[18:53:30.047 08/07/2079]',-33.211,80.488,-19.145,-11.722,8.987,-19.927,6.252,19.536,14.457,7.424,0.781,7.424,7.814,-1.172,5.470,18.755,7.814,0.781,19.927,-9.377,-14.847,-20.317,5.470,-56.264
'[18:53:30.051 08/07/2079]',-27.350,59.389,-9.377,0.391,12.503,-21.880,10.159,20.317,15.238,11.722,-1.172,2.344,11.722,-17.973,15.629,17.973,10.940,5.079,10.159,3.907,-14.847,-28.913,15.629,-57.827
'[18:53:30.055 08/07/2079]',-19.145,50.403,-16.020,15.238,21.099,-19.536,10.940,16.801,15.238,12.503,-1.563,0.000,9.768,-25.788,28.132,14.457,13.675,7.033,16.801,-3.516,-9.377,-30.867,28.132,-53.529
'[18:53:30.059 08/07/2079]',-16.410,43.370,-15.238,12.894,18.364,-23.834,9.377,19.536,17.582,14.066,-1.954,-2.735,10.549,-22.662,26.960,10.940,14.457,1.172,16.020,3.516,-15.629,-24.615,26.960,-48.449
'[18:53:30.063 08/07/2079]',-17.973,39.463,-3.126,4.298,17.973,-18.364,4.689,17.192,17.973,14.847,2.344,-10.549,9.377,-16.410,31.258,1.563,17.973,0.781,3.907,12.894,-15.238,-21.099,31.258,-47.668
'[18:53:30.066 08/07/2079]',-21.099,37.118,-6.252,10.940,21.099,-12.112,-2.344,14.457,17.192,16.020,2.344,-2.344,3.516,-1.563,26.960,5.079,15.629,1.172,7.033,5.470,-8.596,-7.814,26.960,-49.621
'[18:53:30.070 08/07/2079]',-23.053,42.589,-10.159,6.642,19.536,-16.801,3.516,8.987,18.755,20.708,-1.172,-4.689,10.159,7.424,10.940,4.298,11.722,0.781,10.940,-5.079,7.814,-3.126,10.940,-51.575
'[18:53:30.074 08/07/2079]',-34.774,30.867,1.172,7.033,8.987,-21.099,-1.563,18.364,14.066,19.927,-5.470,-3.907,7.424,-4.689,15.238,5.470,11.331,-1.563,-0.391,10.940,7.033,-10.940,15.238,-49.231
'[18:53:30.078 08/07/2079]',-37.118,32.430,-16.801,11.331,3.907,-25.397,-7.424,19.145,12.503,21.099,-10.159,-6.642,9.768,-4.689,10.549,0.391,10.159,-2.344,17.582,4.689,10.159,-10.549,10.549,-46.105
'[18:53:30.082 08/07/2079]',-35.556,30.476,-18.364,2.735,0.000,-26.569,-6.642,12.503,11.722,24.225,-14.457,-13.675,12.503,-14.457,16.410,-7.424,8.596,-5.861,19.145,5.079,13.284,-21.880,16.410,-42.198
'[18:53:30.086 08/07/2079]',-28.132,29.695,-19.927,-2.344,-1.563,-23.053,-7.424,11.331,10.940,22.271,-9.377,-14.847,9.377,-10.549,15.629,-5.470,8.596,-8.596,20.708,12.894,-6.252,-15.238,15.629,-38.291
'[18:53:30.090 08/07/2079]',-21.490,33.211,-25.788,-5.470,1.172,-20.708,-11.722,10.940,7.033,20.317,-8.596,-10.549,7.814,-23.443,27.741,-4.298,9.377,-7.424,26.569,7.814,-8.987,-26.178,27.741,-35.165
'[18:53:30.094 08/07/2079]',-16.410,33.211,-21.490,-8.596,8.596,-22.662,-8.987,8.596,8.205,18.364,-15.629,-9.768,5.861,-24.225,19.927,-0.781,7.424,-8.596,22.271,-5.079,1.954,-25.006,19.927,-31.258
'[18:53:30.098 08/07/2079]',-18.364,40.244,-30.867,-7.424,6.252,-26.569,-9.768,12.503,4.298,10.549,-17.973,-6.642,4.298,-17.582,3.126,0.391,3.907,-13.284,31.648,-4.298,0.000,-16.410,3.126,-30.085
'[18:53:30.102 08/07/2079]',-12.503,26.178,-26.178,-2.344,7.814,-28.523,-12.112,16.801,1.563,2.735,-18.364,-0.391,5.079,-24.225,1.954,1.563,2.344,-14.457,26.960,8.205,-3.907,-18.364,1.954,-26.569
'[18:53:30.105 08/07/2079]',-7.033,12.503,-20.317,-3.126,8.987,-30.476,-8.596,11.722,0.391,-1.954,-20.708,0.000,5.079,-8.987,-17.192,-1.172,0.391,-14.457,21.099,15.238,-1.563,-3.516,-17.192,-25.006
'[18:53:30.109 08/07/2079]',-3.907,15.238,-26.569,-6.252,7.033,-28.523,-8.987,7.814,1.563,-1.954,-17.973,-1.563,9.768,-17.973,-4.298,-7.814,0.391,-16.410,27.350,15.629,-0.781,-16.410,-4.298,-26.569
'[18:53:30.113 08/07/2079]',-3.907,21.490,-32.039,-11.331,3.516,-30.476,-7.814,8.596,1.172,-1.954,-16.801,3.126,8.987,-25.397,4.689,-3.126,0.391,-17.582,32.821,17.582,-10.549,-24.225,4.689,-26.178
'[18:53:30.117 08/07/2079]',8.596,15.629,-26.569,-19.927,11.722,-15.629,-14.457,-3.516,8.596,2.735,-15.238,2.735,13.675,-14.847,1.563,-1.563,6.642,-10.940,27.350,19.536,-11.331,-24.615,1.563,-30.085
'[18:53:30.121 08/07/2079]',11.722,25.788,-41.807,0.781,15.238,-11.331,-23.443,14.847,7.814,-0.391,-16.410,7.033,11.722,-14.847,-2.735,3.516,5.079,-9.377,42.589,-5.470,-2.344,-24.225,-2.735,-28.523
'[18:53:30.125 08/07/2079]',1.172,22.662,-39.072,-5.470,3.126,-15.629,-24.615,16.020,0.391,-10.549,-17.973,7.814,6.642,-21.099,-6.642,0.391,0.000,-11.331,39.853,3.516,0.781,-32.821,-6.642,-31.258
'[18:53:30.129 08/07/2079]',-5.470,6.642,-19.536,-4.298,-2.344,-14.066,-27.741,21.099,-8.205,-16.801,-13.675,16.801,1.954,-15.238,-13.675,3.907,-1.563,-8.205,20.317,21.099,-1.563,-17.582,-13.675,-26.960
'[18:53:30.133 08/07/2079]',-10.940,0.391,-7.424,-3.907,-4.689,-15.238,-20.317,18.364,-13.284,-20.708,-9.377,11.722,-1.954,-13.675,-14.066,-1.172,-2.735,-5.861,8.205,17.582,7.033,-12.112,-14.066,-23.443
'[18:53:30.137 08/07/2079]',-10.940,-8.205,-11.331,-5.470,-10.549,-16.020,-14.847,5.470,-18.364,-18.364,-9.377,6.252,-6.252,-50.012,16.801,0.000,-5.470,-7.424,12.112,18.364,7.033,-43.761,16.801,-15.238
'[18:53:30.141 08/07/2079]',-5.470,-3.126,-10.940,-10.940,-4.689,-10.549,-15.238,0.391,-8.596,-7.424,-7.033,5.861,-9.377,-21.099,6.642,5.861,3.126,-5.861,11.722,19.927,-11.722,-23.443,6.642,-10.549
'[18:53:30.145 08/07/2079]',8.596,9.768,-1.954,-4.298,14.066,-1.172,-8.596,7.424,7.814,4.689,-0.391,4.689,-4.689,-5.079,14.457,12.112,16.020,1.563,2.735,5.861,-21.490,-12.894,14.457,-9.377
'[18:53:30.148 08/07/2079]',13.284,15.629,-25.397,-1.954,11.722,-4.298,-7.814,1.563,3.907,4.689,-0.781,1.172,-8.596,-3.126,17.192,4.298,12.894,0.391,26.178,1.954,-24.225,-20.708,17.192,-12.112
'[18:53:30.152 08/07/2079]',11.722,14.457,-7.033,-12.112,7.814,-1.172,-0.391,0.000,2.344,7.814,0.391,0.000,-7.033,11.722,2.344,3.126,15.238,-0.781,7.814,10.159,-25.397,-6.252,2.344,-16.801
'[18:53:30.156 08/07/2079]',12.112,10.940,1.954,-5.861,12.112,-0.391,0.781,5.470,1.954,7.033,2.344,-0.781,-4.689,19.145,-3.516,0.391,17.973,1.563,-1.172,5.861,-20.708,12.894,-3.516,-12.894
'[18:53:30.160 08/07/2079]',7.814,-4.298,1.172,-3.907,9.377,-1.172,-3.516,-3.907,-1.563,6.642,0.000,-4.689,-8.205,-2.344,6.642,3.126,16.801,0.000,-0.391,10.940,-18.364,0.391,6.642,1.563
'[18:53:30.164 08/07/2079]',2.344,-3.516,10.159,-7.814,6.252,2.735,-4.689,-3.126,3.516,11.722,-2.344,-8.596,-5.861,-14.847,17.582,8.205,20.708,-2.735,-9.377,15.238,-20.317,-11.331,17.582,29.304
'[18:53:30.168 08/07/2079]',7.033,0.781,0.000,2.344,11.331,0.391,-5.861,4.298,6.642,11.722,0.000,-3.126,-7.033,-8.205,15.238,15.629,25.006,0.391,0.781,12.894,-23.834,-7.424,15.238,67.595
'[18:53:30.172 08/07/2079]',12.503,1.954,-5.079,-1.954,15.238,-4.689,-0.391,-3.126,8.987,16.020,2.344,-7.033,-8.987,-0.391,26.178,4.298,24.615,5.079,5.861,4.298,-25.397,-1.563,26.178,91.429
'[18:53:30.176 08/07/2079]',5.861,17.973,-13.675,-7.033,10.940,-7.424,4.689,-4.689,4.298,15.238,0.391,-7.424,-12.894,3.907,20.708,0.781,21.880,0.391,14.457,0.000,-20.708,-1.563,20.708,98.462
'[18:53:30.180 08/07/2079]',6.252,24.225,-24.225,-7.814,5.861,-17.192,4.689,4.689,-2.344,11.331,0.391,-2.735,-16.801,14.457,5.079,3.126,17.973,-1.172,25.006,-5.470,-14.066,-0.391,5.079,84.396
'[18:53:30.184 08/07/2079]',14.847,-1.172,-4.689,-14.457,13.675,-6.642,-1.954,-10.940,4.298,14.066,2.344,-10.159,-9.377,19.145,5.079,-2.344,17.582,0.391,5.470,8.205,-4.298,2.344,5.079,61.734
'[18:53:30.188 08/07/2079]',15.238,-1.954,-8.596,-7.424,16.020,4.298,-13.675,-8.596,3.126,13.284,-2.735,-2.735,-9.768,2.735,10.940,7.033,13.284,-2.344,9.377,-1.563,-0.391,-6.252,10.940,39.072
'[18:53:30.191 08/07/2079]',12.112,-8.596,-14.066,-5.079,11.722,0.000,-23.053,-3.126,3.907,10.549,-4.689,-3.126,-8.205,2.344,6.642,5.470,10.159,-8.205,14.847,13.284,-4.689,-10.159,6.642,22.271
'[18:53:30.195 08/07/2079]',13.675,-5.079,-10.549,-28.132,13.675,-0.391,-26.178,-16.801,4.298,5.470,-5.861,-4.689,-10.940,4.298,4.689,0.781,7.033,-9.768,11.331,11.722,-23.053,3.126,4.689,7.424
'[18:53:30.199 08/07/2079]',7.033,14.847,-29.695,-16.410,10.549,-5.861,-20.317,-8.987,0.000,0.781,-10.549,-3.516,-16.801,-8.987,8.987,2.735,1.563,-12.112,30.476,-10.549,-29.304,2.344,8.987,-2.735
'[18:53:30.203 08/07/2079]',11.722,19.536,-42.589,-18.364,10.159,-12.503,-15.629,-12.112,-3.126,-3.907,-11.331,-5.861,-21.880,5.470,-16.020,5.470,-2.344,-16.801,43.370,-14.847,-32.039,11.331,-16.020,-16.020
'[18:53:30.207 08/07/2079]',19.145,18.364,-35.946,-19.536,12.112,-14.457,-13.284,-2.344,0.000,-3.516,-12.112,-5.079,-18.755,-6.252,-7.424,10.549,-2.735,-14.457,36.728,-16.410,-28.132,-6.642,-7.424,-25.006
'[18:53:30.211 08/07/2079]',15.238,26.960,-35.165,-15.238,14.847,-8.596,-14.457,-1.172,4.298,-2.344,-9.768,-0.781,-15.629,-5.470,7.033,4.689,-1.172,-9.768,35.946,-29.695,-22.271,0.391,7.033,-37.509
'[18:53:30.215 08/07/2079]',14.457,1.563,-22.271,-8.596,13.675,-3.126,-23.834,-1.954,3.907,-3.516,-8.205,6.642,-16.020,20.317,-10.940,5.470,-3.126,-11.722,23.053,-1.172,-21.099,19.145,-10.940,-46.886
'[18:53:30.219 08/07/2079]',16.801,-5.079,4.298,-16.801,12.503,1.563,-19.536,3.516,8.596,-4.298,-3.126,11.331,-11.331,-3.516,12.503,15.238,-1.172,-10.549,-3.516,13.284,-35.946,-2.344,12.503,-53.919
'[18:53:30.223 08/07/2079]',16.801,-9.768,5.079,-8.987,14.066,3.516,-19.536,3.126,5.470,-4.298,-5.470,14.847,-17.973,-9.377,17.582,20.317,-1.563,-8.205,-4.298,5.079,-43.370,5.079,17.582,-55.873
'[18:53:30.227 08/07/2079]',8.987,-10.549,-5.470,-9.377,9.377,-1.563,-19.536,-6.642,1.954,-9.377,-6.252,5.470,-21.490,-12.894,4.298,21.099,-5.470,-12.503,6.252,0.000,-26.960,-3.126,4.298,-58.217
'[18:53:30.230 08/07/2079]',9.377,7.814,-13.675,-10.159,8.596,-3.516,-7.033,-5.079,6.252,-4.689,-5.470,-2.344,-15.238,-44.542,26.960,24.615,-3.126,-10.549,14.457,-12.112,-21.099,-39.853,26.960,-56.654
'[18:53:30.234 08/07/2079]',13.675,-7.424,-10.940,-7.033,10.549,1.954,-12.112,-13.675,7.424,-4.298,-4.689,-8.987,-12.503,-42.979,28.132,15.629,-1.954,-3.907,11.722,-4.689,-10.940,-39.463,28.132,-52.747
'[18:53:30.238 08/07/2079]',7.424,-25.397,-13.284,5.079,7.033,7.814,-23.834,-17.582,3.516,-5.861,-7.033,-9.768,-16.801,-30.867,19.927,5.861,-1.563,-4.689,14.066,0.391,0.781,-24.225,19.927,-51.966
'[18:53:30.242 08/07/2079]',4.298,-19.145,-3.516,-2.344,3.126,11.331,-16.020,-19.145,6.642,-1.172,-7.424,-10.940,-12.112,-12.894,8.987,2.344,-0.391,-6.252,4.298,6.252,-7.814,-7.033,8.987,-53.138
'[18:53:30.246 08/07/2079]',11.722,-17.192,5.470,-9.377,3.907,16.020,-18.755,-10.549,6.642,-1.954,-6.642,-6.252,-12.112,-5.470,-1.954,10.549,0.391,-7.814,-4.689,10.940,-29.695,2.344,-1.954,-61.343
'[18:53:30.250 08/07/2079]',7.814,-15.238,2.735,-8.596,1.563,13.284,-13.675,-14.457,0.781,-2.735,-8.987,-5.861,-21.099,4.298,-17.582,15.238,-1.172,-8.987,-1.954,0.391,-31.648,19.145,-17.582,-67.204
'[18:53:30.254 08/07/2079]',11.331,5.470,-4.298,-14.066,3.126,14.847,-2.735,-17.192,0.781,-2.735,-7.033,-8.205,-22.662,-12.894,-10.940,28.523,-1.172,-9.377,5.079,-16.410,-47.668,5.079,-10.940,-68.376
'[18:53:30.258 08/07/2079]',9.768,7.424,-6.642,-14.457,0.000,16.020,-10.549,-10.159,1.563,-0.391,-5.861,-12.112,-22.662,-25.397,12.894,16.801,1.563,-10.940,7.424,-12.894,-41.026,-14.847,12.894,-59.780
'[18:53:30.262 08/07/2079]',7.033,-1.954,-8.205,-9.377,-1.172,12.894,-16.410,-8.987,2.344,0.391,-8.596,-3.126,-22.271,-22.662,16.801,17.582,5.470,-10.549,8.987,-8.205,-32.821,-13.675,16.801,-50.794
'[18:53:30.266 08/07/2079]',3.126,-0.781,-10.549,-5.470,-0.391,4.298,-7.814,-10.549,4.689,1.954,-9.768,-2.735,-18.364,-25.788,24.225,12.894,8.205,-12.894,11.331,-9.768,-27.741,-14.457,24.225,-52.747
'[18:53:30.270 08/07/2079]',12.503,-8.205,-11.722,-6.642,1.172,0.781,-6.642,-10.940,7.033,5.079,-7.424,-5.079,-14.847,-21.099,25.006,8.987,8.205,-17.192,12.503,-1.172,-25.006,-22.271,25.006,-61.343
'[18:53:30.273 08/07/2079]',12.503,-10.159,-12.503,-4.689,1.563,-5.470,-7.814,-3.907,5.079,1.172,-10.159,0.000,-14.457,-5.470,5.079,9.768,7.424,-17.192,13.284,-2.344,-21.490,-6.642,5.079,-53.919
'[18:53:30.277 08/07/2079]',10.159,-6.252,-15.629,-3.907,0.391,-16.410,1.563,-2.344,1.954,-2.344,-10.549,-1.954,-17.192,-8.596,5.861,7.033,3.126,-17.192,16.410,-17.192,-25.006,5.079,5.861,1.954
'[18:53:30.281 08/07/2079]',7.424,-8.596,-18.364,-4.689,-1.954,-4.298,-14.066,-3.516,3.126,-1.954,-14.066,-1.954,-15.629,-7.424,3.126,4.298,0.391,-21.099,19.145,-3.126,-21.490,-0.391,3.126,120.733
'[18:53:30.285 08/07/2079]',6.642,-14.457,-21.099,-1.954,-6.642,-5.079,-23.053,3.126,3.126,-3.126,-19.145,4.298,-13.675,6.252,-8.596,0.781,-1.172,-22.662,21.880,0.781,-16.410,14.066,-8.596,272.332
'[18:53:30.289 08/07/2079]',4.689,-28.523,-23.053,0.000,-8.205,-9.768,-23.443,-5.861,-0.781,-7.033,-21.880,6.252,-17.973,-12.503,1.563,5.079,-5.470,-21.490,23.834,3.126,-5.079,-0.781,1.563,386.422
'[18:53:30.293 08/07/2079]',-2.735,-37.900,-22.662,-6.642,-11.722,-14.847,-25.397,-17.192,-1.954,-6.252,-25.397,-1.563,-21.490,-16.801,2.735,-1.563,-10.549,-25.788,23.443,15.238,-1.563,-8.205,2.735,410.256
'[18:53:30.297 08/07/2079]',-5.861,-34.774,-23.053,-16.410,-16.020,-16.020,-28.132,-20.317,-2.735,-5.861,-25.006,-6.642,-19.145,-3.907,-12.112,-7.033,-10.940,-25.788,23.834,19.927,4.689,-8.987,-12.112,334.066
'[18:53:30.301 08/07/2079]',0.391,-35.946,-34.383,-16.410,-16.020,-19.927,-27.741,-21.880,-5.861,-12.112,-25.006,-11.722,-17.192,-18.364,-10.940,-8.596,-14.847,-22.271,35.165,13.284,5.079,-21.099,-10.940,196.923
'[18:53:30.305 08/07/2079]',5.470,-36.337,-41.807,-14.066,-13.284,-21.099,-24.615,-26.960,-5.861,-8.987,-29.695,-19.927,-16.410,-3.907,-32.039,-13.284,-17.973,-23.053,42.589,8.205,1.954,-1.954,-32.039,61.343
'[18:53:30.309 08/07/2079]',-1.954,-17.192,-53.529,-19.927,-17.973,-21.880,-24.615,-27.741,-6.252,-9.768,-32.821,-17.582,-14.847,-13.284,-29.304,-9.768,-19.536,-26.569,54.310,3.126,8.205,-21.099,-29.304,-32.430
'[18:53:30.313 08/07/2079]',-2.735,7.424,-78.535,-18.364,-19.927,-20.708,-27.741,-23.053,-7.033,-11.331,-37.118,-16.410,-16.020,-17.973,-32.430,-7.033,-23.053,-27.741,79.316,-13.675,-3.126,-19.536,-32.430,-103.150
'[18:53:30.316 08/07/2079]',0.781,-16.801,-55.482,-17.582,-16.020,-19.927,-21.880,-32.039,-12.503,-11.331,-30.085,-11.722,-25.397,-26.178,-12.894,-2.735,-25.397,-23.053,56.264,0.391,-10.549,-20.317,-12.894,-156.679
'[18:53:30.320 08/07/2079]',-1.172,-21.880,-37.509,-26.960,-16.020,-16.020,-14.847,-40.635,-12.503,-10.549,-25.397,-10.159,-26.960,-21.099,-14.457,2.344,-25.788,-21.880,38.291,5.470,-15.629,-14.847,-14.457,-227.009
'[18:53:30.324 08/07/2079]',6.252,-20.708,-16.410,-20.708,-14.066,-7.424,-17.973,-11.331,-10.940,-7.814,-17.973,-4.689,-27.350,-10.940,-10.940,6.252,-21.099,-15.629,17.192,7.814,-31.648,-3.516,-10.940,-299.683
'[18:53:30.328 08/07/2079]',10.159,-41.026,0.000,-15.238,-12.112,-8.987,-19.145,-6.252,-7.814,-9.377,-19.145,1.563,-22.271,-19.927,-7.814,14.066,-19.145,-12.894,0.781,18.364,-20.708,-10.549,-7.814,-371.966
'[18:53:30.332 08/07/2079]',5.470,-37.509,-0.391,-8.596,-10.549,-11.722,-7.814,-10.940,-6.642,-4.298,-18.364,-2.344,-18.755,-14.847,-12.894,12.894,-17.973,-11.331,1.172,8.596,3.126,-8.596,-12.894,-391.893
'[18:53:30.336 08/07/2079]',5.861,-18.364,-10.159,-4.298,-10.159,8.596,-19.145,-6.252,-3.126,-2.735,-15.629,-0.781,-12.503,10.549,-31.258,7.424,-14.847,-10.940,10.940,-0.781,7.424,13.284,-31.258,-343.053
'[18:53:30.340 08/07/2079]',1.563,-23.443,-6.642,1.172,-11.722,7.424,-14.847,-8.205,-3.516,-3.516,-10.940,6.252,-10.159,-19.145,13.675,1.954,-14.457,-3.907,7.424,5.470,8.596,-12.894,13.675,-244.200
'[18:53:30.344 08/07/2079]',1.954,-20.317,-8.987,-0.781,-9.768,7.814,-8.205,-17.582,-1.563,0.000,-5.470,6.252,-8.205,2.735,12.503,-9.768,-12.112,1.172,9.768,3.126,1.172,15.238,12.503,-141.441
'[18:53:30.348 08/07/2079]',1.172,-9.377,23.443,-14.066,-13.675,17.973,0.391,-5.079,-0.781,2.344,0.000,9.768,-7.033,-7.814,25.006,1.172,-9.768,7.424,-22.662,7.424,-10.940,-1.172,25.006,-57.045
'[18:53:30.352 08/07/2079]',10.940,-19.145,16.410,-2.735,-15.238,13.675,2.344,4.298,3.907,4.689,-1.954,11.722,1.954,-6.642,15.238,6.642,-7.424,9.377,-15.629,12.503,-12.112,-3.126,15.238,-9.377
'[18:53:30.355 08/07/2079]',12.503,-20.708,9.377,-4.298,-12.112,10.940,2.735,-4.689,2.735,3.907,-1.563,5.861,1.954,-5.079,10.549,2.344,-5.079,8.987,-8.596,1.563,-1.563,0.391,10.549,11.331
'[18:53:30.359 08/07/2079]',5.861,-13.284,7.424,-13.675,-13.284,12.894,0.391,-13.284,1.172,1.954,0.000,0.391,-5.079,12.112,-7.033,3.516,-5.079,1.563,-6.642,-5.470,-2.735,19.927,-7.033,19.927
'[18:53:30.363 08/07/2079]',-0.781,0.781,-22.662,-7.033,-16.020,10.549,-10.549,-12.503,1.172,0.000,-0.391,3.126,-5.470,24.225,-10.549,-3.907,-0.781,-5.079,23.443,-13.284,-5.861,28.523,-10.549,25.397
'[18:53:30.367 08/07/2079]',3.516,-20.317,-15.629,-7.814,-8.205,1.563,-10.549,-22.271,0.781,-0.391,-2.344,1.172,-7.814,-3.126,12.112,-2.344,2.735,-7.424,16.410,-1.172,-6.252,3.516,12.112,28.132
'[18:53:30.371 08/07/2079]',5.079,-26.178,-3.516,-5.861,-2.735,0.391,-5.861,-21.099,0.391,-3.907,-1.563,-0.391,-10.159,-8.596,8.205,3.516,4.298,-10.159,4.298,-3.126,-7.814,5.079,8.205,29.695
'[18:53:30.375 08/07/2079]',1.954,-23.443,-5.861,-3.907,-5.470,-4.298,-6.252,-12.894,3.907,-6.642,-1.172,-0.781,-5.861,-5.861,5.470,0.391,5.079,-13.675,6.642,1.172,-5.470,1.172,5.470,39.463
'[18:53:30.379 08/07/2079]',0.391,-25.006,-4.689,-5.861,-5.079,-12.112,-3.126,-13.675,6.252,-10.940,0.781,-2.735,1.563,-3.907,-6.252,0.781,5.079,-13.675,5.470,8.987,10.940,-5.079,-6.252,62.906
'[18:53:30.383 08/07/2079]',1.954,-26.569,3.126,-12.503,-3.907,6.252,-12.894,-21.490,3.516,-10.940,4.298,-5.470,-4.298,8.596,-11.331,-1.954,3.516,-12.503,-2.344,14.847,-5.861,12.894,-11.331,91.038
'[18:53:30.387 08/07/2079]',2.735,-10.549,-12.894,-16.020,-7.814,8.596,-12.503,-25.006,0.781,-8.987,2.735,-7.424,-7.424,29.695,-26.178,-8.987,-0.391,-14.457,13.675,-3.907,-1.172,28.913,-26.178,114.872
'[18:53:30.391 08/07/2079]',5.861,-10.159,-19.927,-13.284,-10.159,8.205,-17.582,-16.801,0.781,-1.954,-5.470,-0.391,-8.205,-8.205,3.907,3.516,0.781,-13.675,20.708,4.298,-12.503,-15.238,3.907,119.560
'[18:53:30.395 08/07/2079]',5.470,-14.066,-16.020,-10.940,-9.377,5.079,-15.629,-14.847,0.391,0.391,-8.596,0.391,-7.814,-22.271,16.020,5.470,1.563,-11.331,16.801,2.735,-14.847,-21.099,16.020,108.230
'[18:53:30.398 08/07/2079]',0.391,-8.205,-17.973,-12.112,-16.020,-1.172,-5.470,-12.894,-2.344,-1.563,-7.814,-0.391,-7.814,-25.006,20.708,-1.172,-3.126,-10.159,18.755,-12.503,-3.907,-19.927,20.708,95.336
'[18:53:30.402 08/07/2079]',-1.563,-23.053,-12.894,-1.563,-23.053,-0.781,-5.861,-7.814,-2.735,-3.907,-5.470,16.801,-4.689,-34.383,30.085,11.331,-2.344,-7.814,13.675,6.252,-1.563,-32.430,30.085,94.554
'[18:53:30.406 08/07/2079]',1.563,-27.741,-10.549,-1.172,-23.834,2.344,-5.861,-10.159,-5.079,-6.642,0.391,13.675,-3.907,-14.847,12.894,6.252,-2.344,-3.516,11.331,5.079,-1.954,-9.768,12.894,105.495
'[18:53:30.410 08/07/2079]',-1.954,-23.053,-6.252,-1.563,-26.960,0.391,1.563,-8.596,-7.814,-6.642,0.781,19.536,-3.907,1.563,3.126,3.907,-4.298,-0.781,7.033,0.391,0.781,7.814,3.126,117.607
'[18:53:30.414 08/07/2079]',2.344,-5.470,-17.582,-8.596,-26.960,6.252,1.563,-8.987,-2.344,-2.344,0.000,22.662,2.735,7.424,1.954,3.126,-5.079,0.781,18.364,-7.033,3.126,4.298,1.954,123.077
'[18:53:30.418 08/07/2079]',9.768,-11.331,-7.033,-7.424,-22.271,9.768,0.391,-3.516,-0.391,0.000,0.781,14.847,8.987,0.781,10.940,-5.861,-4.298,3.516,7.814,0.000,7.033,-7.424,10.940,116.044
'[18:53:30.422 08/07/2079]',12.503,-17.973,-5.470,-3.126,-20.708,1.172,10.940,-5.079,0.391,1.954,2.735,17.192,9.377,15.629,7.814,-12.503,-8.596,8.205,6.252,-1.954,14.066,8.205,7.814,106.276
'[18:53:30.426 08/07/2079]',8.596,-23.053,-7.033,-11.722,-22.662,7.424,0.781,-18.364,-1.954,-1.954,0.391,15.238,7.424,6.252,8.987,-14.066,-12.894,2.344,7.814,-2.735,24.615,0.781,8.987,99.634
'[18:53:30.430 08/07/2079]',4.689,-25.788,-2.735,-8.596,-25.788,8.987,-4.689,-10.549,-4.689,-3.516,-0.781,17.192,3.907,0.781,4.298,-3.516,-12.503,0.391,3.516,3.907,19.927,-6.252,4.298,96.899
'[18:53:30.434 08/07/2079]',5.079,-32.430,-9.377,-5.861,-24.615,4.689,-1.172,-21.099,-7.814,-2.735,-2.735,16.410,0.000,2.344,-3.516,1.172,-12.894,0.781,10.159,3.126,19.536,-0.781,-3.516,98.852
'[18:53:30.438 08/07/2079]',0.781,-22.271,-8.205,-0.391,-27.741,10.940,3.516,-17.582,-8.987,0.000,-3.126,15.629,-2.344,-10.940,11.722,3.907,-12.894,3.516,8.987,-11.331,14.457,-7.814,11.722,104.713
'[18:53:30.441 08/07/2079]',-3.516,-12.503,1.563,-6.252,-33.602,14.847,7.033,-8.987,-7.814,0.391,-1.954,16.410,-0.391,-13.675,9.377,10.940,-9.768,3.126,-0.781,-3.907,-0.391,-10.940,9.377,114.481
'[18:53:30.445 08/07/2079]',-3.126,-12.503,3.516,1.172,-34.774,15.629,8.987,-1.563,-7.814,1.954,0.000,14.847,0.000,-15.238,14.066,8.987,-5.470,7.033,-2.735,1.954,-5.079,-14.066,14.066,125.812
'[18:53:30.449 08/07/2079]',-4.689,-12.503,-3.516,8.987,-34.383,12.894,15.238,-5.079,-7.424,0.781,0.781,14.457,-2.735,-2.735,4.298,10.159,-5.861,8.205,4.298,-7.424,-5.470,1.172,4.298,138.706
'[18:53:30.453 08/07/2079]',-4.298,-12.894,-7.424,-1.563,-33.602,10.549,15.629,-19.145,-5.079,-3.907,1.563,16.410,0.781,4.298,-17.973,19.927,-3.516,2.344,8.205,-2.344,-11.331,11.331,-17.973,151.990
'[18:53:30.457 08/07/2079]',-0.781,-15.238,-14.066,0.781,-29.695,7.424,5.079,-12.112,-6.252,-1.563,0.391,10.549,-2.344,2.735,-6.252,8.205,-2.344,3.126,14.847,-2.344,-12.503,5.861,-6.252,159.805
'[18:53:30.461 08/07/2079]',0.781,-16.020,-23.834,-0.781,-27.350,-0.391,3.907,-14.457,-4.298,1.954,-0.781,10.159,-2.735,22.662,-8.596,-4.298,-2.735,5.470,24.615,-11.722,-7.814,28.913,-8.596,166.056
'[18:53:30.465 08/07/2079]',0.391,-18.755,-19.145,-12.503,-29.695,2.735,1.563,-23.443,-2.735,2.735,-1.172,0.781,0.781,1.172,8.596,-12.112,-3.516,3.516,19.927,-0.391,-12.503,8.987,8.596,170.354
'[18:53:30.469 08/07/2079]',6.252,-23.443,0.391,-3.516,-27.741,18.364,-3.907,-5.079,0.000,8.987,-1.172,3.516,3.907,-19.927,38.291,-10.940,0.391,6.252,0.391,5.470,-8.596,-16.410,38.291,183.639
'[18:53:30.473 08/07/2079]',6.642,-25.788,-1.563,3.516,-28.132,14.457,4.298,-6.252,-2.344,9.377,-2.735,4.298,5.470,-3.126,10.549,-5.470,1.172,11.331,2.344,-0.781,5.470,0.391,10.549,195.360
'[18:53:30.477 08/07/2079]',0.391,-19.145,-0.391,0.000,-29.695,11.722,12.503,-13.675,0.781,6.252,-4.689,5.079,10.549,-13.284,8.596,1.954,0.391,10.940,1.172,-2.344,9.377,-8.987,8.596,209.426
'[18:53:30.480 08/07/2079]',-4.689,-11.331,5.861,-2.344,-30.085,12.894,15.238,-10.159,2.344,5.861,-3.126,14.847,14.066,-16.410,11.722,10.159,3.516,12.112,-5.079,3.126,7.814,-13.284,11.722,227.399
'[18:53:30.484 08/07/2079]',2.735,-12.112,-4.298,0.391,-28.523,9.768,12.503,-7.033,0.000,5.861,-2.735,14.066,11.331,-5.079,0.391,10.549,3.516,16.410,5.079,-0.391,0.391,-1.954,0.391,240.684
'[18:53:30.488 08/07/2079]',1.172,-19.145,-3.516,0.000,-26.960,7.424,12.894,-15.238,0.391,5.861,-0.391,5.079,13.284,-1.172,5.861,-7.033,1.172,17.582,4.298,-5.079,9.768,6.252,5.861,257.094
'[18:53:30.492 08/07/2079]',-2.735,-19.536,1.172,-0.391,-28.523,10.159,7.424,-10.549,-4.298,2.344,0.391,11.722,7.033,-6.642,9.768,0.000,0.391,14.457,-0.391,-6.642,14.457,2.344,9.768,263.736
'[18:53:30.496 08/07/2079]',-4.689,-20.708,4.689,-1.954,-30.476,7.814,4.689,-4.298,-6.642,1.563,-0.781,8.987,6.252,3.516,-5.861,-1.954,-0.781,12.503,-3.907,1.172,8.205,14.066,-5.861,275.458
'[18:53:30.500 08/07/2079]',-4.689,-17.582,-5.079,-0.391,-27.350,2.344,7.814,-11.722,-9.377,0.781,0.391,5.079,5.079,25.788,-23.443,-10.159,-2.735,14.066,5.861,-5.470,14.066,33.211,-23.443,278.584
'[18:53:30.504 08/07/2079]',1.172,-21.490,-1.563,-4.689,-25.006,5.470,10.159,-17.192,-10.940,0.781,2.735,11.722,2.344,0.391,3.516,-3.516,-5.470,15.238,2.344,-3.907,4.689,11.722,3.516,285.226
'[18:53:30.508 08/07/2079]',3.516,-21.880,-6.642,1.954,-27.350,-1.172,7.814,-1.563,-7.033,5.470,-0.391,18.364,6.642,-14.066,22.271,1.172,-3.907,16.410,7.424,8.987,-7.424,-5.861,22.271,282.882
'[18:53:30.512 08/07/2079]',1.563,-19.927,-3.516,-4.689,-30.476,1.563,4.298,-1.954,-6.642,5.861,0.000,8.205,8.205,-18.755,23.834,-6.252,-3.907,21.880,4.298,6.642,0.391,-16.020,23.834,273.114
'[18:53:30.516 08/07/2079]',-4.298,-14.847,9.768,-0.781,-28.132,17.192,0.000,1.954,-6.252,8.987,0.391,9.768,7.424,-20.708,25.397,0.391,-4.298,26.960,-8.987,-5.861,9.768,-12.894,25.397,250.061
'[18:53:30.520 08/07/2079]',-7.033,-24.615,8.205,5.861,-31.258,14.457,-5.079,5.470,-9.377,4.298,-0.781,15.629,5.079,-18.364,16.020,5.470,-6.252,23.443,-7.424,7.424,2.735,-6.642,16.020,221.929
'[18:53:30.523 08/07/2079]',-8.205,-22.662,3.907,-1.172,-33.993,14.066,-6.642,0.391,-13.675,-1.172,1.172,0.000,1.954,-1.563,-6.642,-8.596,-7.033,25.397,-3.126,5.470,4.298,5.861,-6.642,186.374
'[18:53:30.527 08/07/2079]',-5.079,-8.596,-3.516,-0.781,-25.397,14.457,-1.954,-4.298,-9.768,0.391,11.722,7.033,4.689,22.662,-4.689,-14.847,-4.298,29.695,4.298,-9.768,7.424,32.039,-4.689,147.692
'[18:53:30.531 08/07/2079]',-4.298,-15.238,1.172,3.126,-24.615,8.987,-0.781,1.172,-8.205,-7.814,12.112,17.192,4.689,8.987,4.689,-7.033,-5.079,25.788,-0.391,5.470,11.722,8.205,4.689,105.495
'[18:53:30.535 08/07/2079]',1.954,-14.847,10.549,-10.940,-25.397,5.079,11.722,-4.689,-4.689,-4.689,10.159,5.861,10.159,4.689,0.000,-8.987,-3.516,26.569,-9.768,8.596,16.801,0.781,0.000,62.125
'[18:53:30.539 08/07/2079]',-1.172,-7.424,18.755,-4.298,-17.582,18.364,5.470,0.000,0.000,0.781,8.987,3.907,10.549,-8.987,17.973,-6.642,-1.563,26.569,-17.973,-12.112,25.788,-5.079,17.973,16.801
'[18:53:30.543 08/07/2079]',-17.973,-10.940,23.053,0.391,-24.225,13.675,3.907,1.172,-4.689,-1.563,-1.563,10.159,3.126,-23.053,12.503,7.033,-7.424,19.927,-22.271,-10.159,20.317,0.000,12.503,-35.165
'[18:53:30.547 08/07/2079]',-19.927,-10.159,11.331,-3.907,-30.867,10.549,2.344,-4.298,-10.159,-3.907,-4.298,2.735,-3.907,-28.523,10.549,5.079,-8.987,12.894,-10.549,-3.516,0.391,0.781,10.549,-86.740
'[18:53:30.551 08/07/2079]',-11.722,-8.205,-5.079,-0.391,-27.741,9.768,0.391,-8.205,-7.814,-3.907,-1.954,3.907,-2.344,-22.271,6.252,7.033,-5.470,12.894,5.861,-8.987,-4.298,4.689,6.252,-142.222
'[18:53:30.555 08/07/2079]',-8.987,-14.457,-6.252,3.907,-22.271,8.987,0.781,-12.503,-8.596,-4.298,0.391,5.470,-4.689,-20.317,8.596,7.424,-2.735,13.675,7.033,-8.987,0.781,3.907,8.596,-194.579
'[18:53:30.559 08/07/2079]',-7.814,-8.987,-3.126,3.516,-22.271,5.470,3.516,-4.689,-9.768,-6.252,2.735,8.987,-7.814,-12.503,5.470,9.377,0.781,9.768,3.907,-2.344,-3.907,3.907,5.470,-244.200
'[18:53:30.563 08/07/2079]',-7.033,-8.596,-1.172,-5.079,-25.006,0.391,6.252,-3.516,-5.079,-0.391,3.907,4.298,-3.516,-13.675,14.847,3.907,4.298,9.768,1.954,-1.563,1.563,-8.987,14.847,-280.147
'[18:53:30.566 08/07/2079]',-10.940,-14.066,18.364,-1.172,-19.145,17.582,-3.516,-3.126,-5.079,2.735,5.470,2.735,-2.344,-15.238,19.536,3.126,7.424,13.284,-17.582,-6.642,21.099,-14.847,19.536,-303.199
'[18:53:30.570 08/07/2079]',-13.675,-23.443,25.788,0.391,-21.490,9.768,4.298,-1.954,-7.033,-3.516,8.987,3.907,-3.907,-16.020,11.331,10.159,2.735,10.940,-25.006,-4.298,21.490,-9.377,11.331,-313.748
'[18:53:30.574 08/07/2079]',-10.159,-22.271,21.099,-3.126,-24.225,5.861,1.172,1.954,-3.126,-5.470,10.940,6.252,0.391,-10.159,1.172,15.238,4.298,8.987,-20.317,4.689,10.159,-5.470,1.172,-316.484
'[18:53:30.578 08/07/2079]',-9.377,-20.708,11.722,-3.516,-21.099,5.079,-1.954,-3.126,-4.689,-11.331,15.629,3.907,0.781,-16.801,4.298,14.066,5.470,11.331,-10.940,2.735,10.940,-8.596,4.298,-316.874
'[18:53:30.582 08/07/2079]',-14.066,-22.271,5.470,-3.516,-24.615,-0.781,1.954,-10.159,-7.424,-16.410,18.364,3.126,-3.907,-19.145,-1.563,23.053,1.954,9.768,-4.689,6.252,-8.205,6.252,-1.563,-314.921
'[18:53:30.586 08/07/2079]',-8.987,-21.099,5.079,-3.516,-26.960,-2.735,7.424,-6.252,-4.298,-16.801,21.880,0.391,-3.126,-10.159,-0.391,14.847,3.907,9.377,-4.298,10.159,-17.973,12.112,-0.391,-310.623
'[18:53:30.590 08/07/2079]',-11.331,-18.364,-2.735,-2.344,-26.178,-8.596,9.768,-9.377,-3.907,-12.894,22.271,3.126,-3.907,-12.894,15.238,10.159,5.470,12.894,3.516,2.344,-5.861,0.391,15.238,-303.199
'[18:53:30.594 08/07/2079]',-19.536,-21.880,20.317,-3.126,-25.788,-9.768,16.410,-5.079,-4.298,-13.675,25.788,0.391,-3.907,-12.112,14.847,8.987,4.298,15.238,-19.536,-3.516,6.642,3.907,14.847,-294.994
'[18:53:30.598 08/07/2079]',-24.615,-12.112,28.913,-9.377,-28.523,-8.596,20.317,-0.391,-4.298,-14.847,27.741,4.689,-2.735,7.033,2.735,5.079,3.516,14.066,-28.132,-0.781,11.331,12.112,2.735,-284.054
'[18:53:30.602 08/07/2079]',-15.629,-2.735,21.099,-20.708,-26.178,-9.768,25.006,-7.424,-5.079,-14.066,30.867,7.424,0.391,0.391,12.894,3.516,3.907,16.020,-20.317,-7.814,6.252,6.642,12.894,-270.379
'[18:53:30.605 08/07/2079]',-13.284,-8.205,18.755,-18.755,-24.225,1.954,14.066,-13.675,-8.596,-19.536,32.821,3.907,0.000,3.907,-2.735,5.861,5.470,16.801,-17.973,-8.205,8.205,16.410,-2.735,-247.326
'[18:53:30.609 08/07/2079]',-19.536,-0.781,10.159,-23.053,-28.132,0.391,15.238,-20.708,-11.331,-21.880,30.476,2.344,-4.298,0.391,2.735,0.000,4.689,13.675,-9.377,-9.768,1.563,17.973,2.735,-223.101
'[18:53:30.613 08/07/2079]',-16.020,8.596,-3.907,-23.053,-25.397,-1.954,12.503,-19.927,-6.252,-22.662,35.946,1.563,0.781,-10.159,20.317,-3.907,8.205,13.675,4.689,-9.377,2.735,-1.172,20.317,-198.877
'[18:53:30.617 08/07/2079]',-17.192,-0.781,2.735,-7.424,-24.225,1.954,5.470,-5.470,-7.033,-25.006,41.807,1.563,2.735,-5.861,15.238,-1.172,8.987,17.192,-1.954,-7.814,8.987,2.735,15.238,-181.294
'[18:53:30.621 08/07/2079]',-10.159,-5.470,8.596,-5.470,-20.317,7.033,5.079,-4.298,-6.252,-26.569,41.807,0.391,1.172,-12.112,19.927,-1.563,3.516,18.755,-7.814,-10.159,13.675,-7.424,19.927,-172.698
'[18:53:30.625 08/07/2079]',-1.172,-0.781,5.470,-5.079,-25.006,14.066,0.000,9.377,0.391,-27.350,45.324,-3.516,9.768,-4.298,17.582,-8.596,-0.781,15.629,-4.689,-9.377,8.987,-6.252,17.582,-164.884
'[18:53:30.629 08/07/2079]',4.689,-4.689,3.907,0.781,-28.523,23.443,-2.735,13.284,-1.172,-38.291,52.357,-3.907,4.689,12.112,-3.516,-5.861,-8.596,21.880,-3.126,-8.987,6.642,7.033,-3.516,-158.242
'[18:53:30.633 08/07/2079]',4.298,-7.033,-1.954,3.907,-28.913,21.099,7.424,-0.391,-0.781,-35.165,41.807,-7.814,1.954,9.768,-8.205,-6.642,-19.145,26.178,2.735,-13.284,2.735,12.894,-8.205,-148.083
'[18:53:30.637 08/07/2079]',-1.563,11.331,-18.364,2.344,-32.430,14.066,22.662,-11.331,-3.126,-35.556,46.105,-14.457,-2.344,9.377,-1.172,-13.675,-28.132,26.960,19.145,-24.615,-3.516,14.847,-1.172,-138.315
'[18:53:30.641 08/07/2079]',0.391,9.377,-16.410,6.252,-25.788,10.549,25.006,-10.159,-3.126,-30.867,42.589,-9.768,-1.563,1.954,5.470,-8.205,-29.695,34.774,17.192,-12.894,-10.549,7.033,5.470,-135.580
'[18:53:30.645 08/07/2079]',-13.675,12.112,-13.675,2.344,-24.225,1.954,17.973,-8.987,-9.768,-28.523,35.556,-7.424,-4.689,11.722,-9.377,-8.596,-33.602,23.443,14.457,-9.377,-8.205,25.006,-9.377,-135.189
'[18:53:30.648 08/07/2079]',-9.377,-5.079,13.284,-4.298,-16.410,1.954,19.927,-10.940,-7.424,-27.350,32.430,-8.596,-0.391,-5.470,1.563,-7.814,-25.788,9.768,-12.503,14.847,-8.987,8.205,1.563,-133.626
'[18:53:30.652 08/07/2079]',-16.410,-21.099,39.853,1.563,-12.503,19.536,0.000,-2.344,-5.079,-27.741,34.383,-8.987,-1.172,22.271,-14.066,-15.629,-21.490,0.000,-39.072,33.993,1.563,33.602,-14.066,-122.686
'[18:53:30.656 08/07/2079]',-29.304,-28.913,53.529,4.689,-17.192,8.596,14.847,-5.861,-5.470,-28.132,31.258,-8.987,-1.563,19.927,-19.536,-10.940,-19.536,1.172,-52.747,39.072,13.284,30.867,-19.536,-109.792
'[18:53:30.660 08/07/2079]',-37.118,-35.556,69.939,1.172,-20.317,0.781,30.867,-12.894,-3.516,-25.397,26.178,-12.112,-2.344,2.735,-7.424,-8.596,-19.145,8.205,-69.158,45.324,14.847,14.066,-7.424,-97.289
'[18:53:30.664 08/07/2079]',-36.728,9.377,23.443,-3.516,-24.225,3.907,33.602,-20.317,0.000,-18.755,24.225,-16.410,2.735,7.033,-6.252,-16.020,-19.927,20.317,-22.662,0.391,21.880,11.722,-6.252,-88.303
'[18:53:30.668 08/07/2079]',-17.973,-1.172,10.159,-3.126,-26.960,11.331,18.755,-16.020,-0.781,-16.801,20.317,-13.284,6.642,-8.205,-1.563,-8.596,-19.927,28.913,-9.377,5.861,8.987,-4.689,-1.563,-76.581
'[18:53:30.672 08/07/2079]',-8.205,-1.954,-5.861,3.516,-19.145,20.708,-11.331,-1.563,-0.781,-20.708,17.973,-4.298,8.596,-8.205,-4.298,-4.689,-17.582,24.225,6.642,-9.377,13.675,-1.954,-4.298,-67.204
'[18:53:30.676 08/07/2079]',-1.172,1.563,-17.582,-2.344,-15.238,17.192,-28.913,6.252,1.563,-18.755,22.271,-2.735,10.549,9.377,-8.596,-9.377,-16.410,6.252,18.364,-16.410,8.987,17.582,-8.596,-60.562
'[18:53:30.680 08/07/2079]',-0.391,-10.549,-4.298,-7.814,-16.801,15.629,-37.900,14.847,0.000,-24.225,30.085,-1.954,9.377,-1.563,-0.391,-3.516,-18.755,-1.954,5.079,-3.126,7.424,4.689,-0.391,-53.529
'[18:53:30.684 08/07/2079]',4.298,-11.722,3.126,-6.252,-11.722,10.940,-28.913,18.755,0.781,-17.973,26.178,-2.735,12.112,-16.020,11.722,-2.344,-16.410,-3.907,-2.344,-9.768,8.596,-4.689,11.722,-48.449
'[18:53:30.688 08/07/2079]',16.801,-15.238,1.563,-10.940,-7.033,12.894,-18.755,5.470,2.735,-6.642,23.443,-13.284,13.284,-11.331,14.457,-10.940,-16.410,-6.252,-0.781,-16.020,15.629,-2.735,14.457,-37.118
'[18:53:30.691 08/07/2079]',9.768,-17.973,5.470,-12.503,-17.973,24.615,-22.662,1.172,-1.172,-13.284,21.880,-10.159,7.424,-12.503,8.205,-7.033,-16.801,-5.079,-4.689,-7.033,14.066,-5.079,8.205,-23.834
'[18:53:30.695 08/07/2079]',9.377,-27.350,15.629,-14.457,-20.708,25.788,-21.490,0.391,-0.391,-24.225,26.178,-5.079,5.079,-21.880,14.457,-2.735,-14.066,0.391,-14.847,8.596,3.907,-15.238,14.457,-15.238
'[18:53:30.699 08/07/2079]',16.020,-66.422,28.913,-0.391,-18.364,15.629,-16.801,-0.391,-1.954,-32.039,38.291,3.126,3.907,-8.987,4.689,6.252,-21.490,7.033,-28.132,29.695,11.722,0.781,4.689,-21.490
'[18:53:30.703 08/07/2079]',28.523,-80.488,48.840,-13.284,-14.847,8.987,-8.205,-2.344,-4.298,-47.668,52.357,6.642,-0.781,-7.424,-1.563,17.582,-25.788,-0.781,-48.059,32.039,5.079,4.689,-1.563,-37.900
'[18:53:30.707 08/07/2079]',41.026,-106.276,67.204,-30.085,-10.159,8.205,-10.549,-14.066,-2.735,-55.873,59.780,-4.298,2.735,-10.549,-1.172,4.689,-27.350,1.172,-66.422,53.138,10.940,-3.516,-1.172,-57.045
'[18:53:30.711 08/07/2079]',52.747,-107.839,59.389,-35.556,-2.735,10.940,-12.112,-26.569,-2.344,-51.575,60.562,-9.377,7.424,8.987,-14.066,-6.642,-26.178,-3.126,-58.608,42.589,27.741,16.020,-14.066,-64.078
'[18:53:30.715 08/07/2079]',59.780,-99.243,52.357,-46.105,-1.563,21.880,-16.020,-35.946,-5.861,-52.357,60.171,-9.377,6.642,21.880,-21.490,-16.020,-21.099,-19.927,-51.575,34.774,30.476,28.132,-21.490,-59.389
'[18:53:30.719 08/07/2079]',48.449,-99.634,57.436,-53.138,-14.066,23.834,-12.112,-43.761,-11.722,-52.357,53.138,-11.722,2.735,-2.344,-1.172,-23.443,-15.238,-7.814,-56.654,46.105,23.834,5.861,-1.172,-45.714
'[18:53:30.723 08/07/2079]',46.496,-90.647,45.324,-35.165,-14.457,22.662,-14.847,-25.788,-10.549,-39.853,42.589,5.861,3.907,-11.722,10.549,-7.424,-11.722,4.298,-44.542,30.476,28.132,-4.689,10.549,-32.039
'[18:53:30.727 08/07/2079]',33.602,-82.051,48.449,-22.662,-14.066,32.821,-28.132,-13.284,-11.722,-25.397,26.569,2.344,0.391,-13.284,13.675,-10.159,-13.675,9.377,-47.668,26.178,23.443,-3.907,13.675,-24.615
'[18:53:30.730 08/07/2079]',20.708,-65.641,55.092,-22.662,-12.894,48.059,-43.761,-3.516,-4.689,-19.145,19.145,2.344,7.033,-18.755,23.053,-14.847,-14.066,6.642,-54.310,30.867,16.410,-14.457,23.053,-21.099
'[18:53:30.734 08/07/2079]',22.271,-53.919,44.542,-35.556,-4.298,48.059,-48.449,-16.410,0.000,-25.006,31.648,1.172,7.814,-2.344,13.284,-12.112,-12.503,-3.516,-43.761,21.880,15.629,-8.596,13.284,-17.582
'[18:53:30.738 08/07/2079]',25.397,-51.966,37.118,2.735,6.252,62.125,-61.734,7.033,1.563,-28.523,33.211,-3.516,8.987,-5.079,15.629,-17.192,-9.768,-8.596,-36.337,10.940,12.894,4.298,15.629,-14.457
'[18:53:30.742 08/07/2079]',13.284,-53.529,43.370,-7.424,-1.563,45.324,-48.059,0.781,-3.126,-28.913,28.132,-4.689,3.907,-9.768,12.503,-16.410,-16.801,-15.238,-42.589,24.615,8.205,-3.126,12.503,-10.940
'[18:53:30.746 08/07/2079]',12.503,-39.463,28.913,-22.271,-5.470,23.053,-36.337,-0.781,-6.252,-25.006,24.225,-5.861,-1.563,-14.066,17.192,-14.847,-19.145,-8.987,-28.132,16.020,0.391,-7.033,17.192,-8.205
'[18:53:30.750 08/07/2079]',5.861,-47.277,29.304,-14.847,-8.987,19.927,-38.291,1.172,-13.675,-16.020,8.987,-4.689,-10.159,-14.457,8.987,-10.549,-24.615,0.781,-28.523,18.755,0.781,-3.126,8.987,-0.391
'[18:53:30.754 08/07/2079]',-4.298,-51.575,34.774,-20.317,-12.112,32.039,-49.231,-11.722,-15.238,-10.159,0.391,-6.642,-10.940,-17.973,8.205,-11.722,-28.523,-12.503,-33.993,24.615,4.298,-5.470,8.205,10.940
'[18:53:30.758 08/07/2079]',-5.079,-12.894,3.126,-26.960,-10.159,32.821,-54.310,-10.159,-10.159,-21.490,14.847,-1.563,-7.424,-13.675,17.973,-16.410,-26.569,-45.714,-2.344,0.000,5.861,-9.377,17.973,25.397
'[18:53:30.762 08/07/2079]',-6.642,-24.225,3.126,-17.582,-10.159,27.350,-56.264,-5.861,-5.470,-17.973,11.722,-4.689,-3.907,-3.126,3.516,-14.457,-10.940,-50.403,-2.344,8.987,6.252,0.781,3.516,37.509
'[18:53:30.766 08/07/2079]',-13.675,-16.020,2.344,-6.252,-10.159,23.834,-35.165,-11.331,-2.344,-8.205,9.377,-9.768,0.391,-12.503,16.020,-15.238,-7.033,-33.993,-1.563,-4.298,16.801,-6.252,16.020,48.449
'[18:53:30.770 08/07/2079]',-11.722,-8.596,-11.722,-7.033,-8.987,6.252,-19.927,-16.410,3.126,-6.252,1.954,-4.298,7.814,1.954,-5.079,-10.159,-6.252,-33.211,12.503,-7.424,23.443,2.735,-5.079,55.092
'[18:53:30.773 08/07/2079]',-15.238,-19.536,-1.172,-7.424,-16.801,-5.079,-6.642,-12.503,3.907,2.344,-10.159,-4.298,6.642,-1.954,-7.814,-5.861,-5.861,-26.569,1.954,4.298,6.642,7.033,-7.814,51.575
'[18:53:30.777 08/07/2079]',-16.801,-4.689,-10.159,-8.596,-18.364,-12.503,4.689,-13.675,0.391,6.642,-12.894,-1.563,1.172,-25.006,15.629,-0.781,-9.377,-19.927,10.940,-18.755,-0.391,-7.033,15.629,43.761
'[18:53:30.781 08/07/2079]',-19.145,-6.252,-6.642,-11.722,-16.801,3.516,-12.503,-16.801,4.689,1.563,-11.722,0.391,6.642,-17.582,6.252,-1.172,-8.987,-29.304,7.424,-9.377,11.722,-8.987,6.252,28.523
'[18:53:30.785 08/07/2079]',-14.847,-0.391,-12.894,-12.112,-18.755,2.344,-8.987,-15.238,-0.391,-0.391,-5.079,0.391,1.954,-16.801,7.033,0.000,-8.596,-28.523,13.675,-10.549,1.172,-8.987,7.033,22.662
'[18:53:30.789 08/07/2079]',-19.536,4.298,-7.033,-7.424,-15.629,2.344,-8.987,-6.642,-4.689,-3.516,2.735,-0.391,-6.642,-7.033,9.377,-1.954,-7.033,-9.377,7.814,-21.099,6.642,1.563,9.377,21.490
'[18:53:30.793 08/07/2079]',-25.788,-1.172,-6.252,-10.940,-16.410,1.563,-8.987,-19.927,-5.861,-16.020,11.331,-2.344,-9.377,2.344,-3.126,-2.344,-17.582,-5.079,7.033,-17.582,19.145,6.252,-3.126,28.523
'[18:53:30.797 08/07/2079]',-22.271,12.112,-13.284,-13.675,-17.192,-8.987,5.079,-15.629,-0.781,-10.159,4.689,-3.516,-4.689,3.907,-17.973,7.033,-23.053,-14.457,14.066,-23.443,11.331,5.470,-17.973,36.337
'[18:53:30.801 08/07/2079]',-9.377,3.126,-7.814,-13.284,-12.894,-0.781,0.391,-12.894,5.470,-4.689,2.344,-5.861,-2.344,-25.006,16.801,7.033,-18.364,-9.768,8.596,-19.536,-5.861,-17.582,16.801,40.635
'[18:53:30.805 08/07/2079]',-7.424,-7.424,-5.079,-10.549,-12.894,8.205,-5.079,-19.536,8.596,-2.735,-2.344,-3.126,1.563,-28.913,14.847,10.940,-23.053,0.781,5.861,-24.615,0.000,-16.801,14.847,42.589
'[18:53:30.809 08/07/2079]',-7.814,0.781,-15.238,-15.238,-14.847,3.516,-3.907,-21.880,9.768,3.126,-10.940,-8.205,5.079,-16.801,-3.907,8.205,-14.847,0.391,16.020,-23.443,-2.344,-7.424,-3.907,41.026
'[18:53:30.813 08/07/2079]',-14.066,8.205,-16.801,-16.020,-18.364,-0.781,-2.344,-15.629,8.987,5.470,-4.689,-7.814,2.344,-12.503,17.973,-7.033,-5.470,10.549,17.582,-23.053,-8.596,-4.298,17.973,43.370
'[18:53:30.816 08/07/2079]',-9.768,5.079,-21.880,-11.722,-17.973,-2.344,1.563,-19.145,3.516,7.033,-4.689,-1.563,-2.735,3.126,1.563,1.954,-4.298,19.145,22.662,-31.648,-9.768,14.066,1.563,45.714
'[18:53:30.820 08/07/2079]',-7.424,7.424,-34.383,-11.722,-16.410,-14.847,15.238,-28.523,1.563,16.020,-12.894,-2.344,-2.344,-3.516,1.172,4.689,-5.079,11.722,35.165,-35.556,-2.735,1.954,1.172,53.529
'[18:53:30.824 08/07/2079]',-2.344,12.112,-21.099,-14.066,-16.410,-18.364,23.834,-13.284,5.079,25.006,-14.066,1.563,-2.344,-6.252,16.020,10.940,-2.344,16.020,21.880,-33.602,-11.331,-7.814,16.020,58.999
'[18:53:30.828 08/07/2079]',-3.126,-6.252,-3.126,-7.424,-16.410,0.391,4.689,-8.596,1.563,24.225,-19.927,11.722,-4.298,-12.894,14.457,21.490,-0.781,19.145,3.907,-18.755,-13.284,-6.252,14.457,63.687
'[18:53:30.832 08/07/2079]',-5.470,-8.596,-3.907,-11.722,-16.020,-3.907,6.642,-16.410,3.907,20.317,-22.271,5.470,-1.954,1.954,-7.814,15.238,0.391,15.238,4.689,-12.503,-5.079,3.907,-7.814,65.641
'[18:53:30.836 08/07/2079]',-1.172,-10.549,0.391,-19.927,-17.192,0.000,5.861,-19.927,0.781,18.364,-17.582,-2.344,-3.907,-0.391,3.126,0.391,-2.735,10.940,0.391,-9.768,-14.066,7.424,3.126,66.813
'[18:53:30.840 08/07/2079]',1.563,-6.642,-4.298,-19.927,-17.582,5.861,-2.344,-16.410,-0.781,8.205,-10.940,-1.563,-4.689,4.298,0.391,-5.470,-10.159,12.112,5.079,-19.145,-8.987,14.066,0.391,68.767
'[18:53:30.844 08/07/2079]',-6.252,0.391,-15.238,-19.927,-21.099,3.516,0.000,-23.443,-1.563,9.768,-10.159,0.391,-6.252,12.503,-2.735,-6.252,-21.490,15.629,16.020,-35.556,-1.172,30.085,-2.735,70.330
'[18:53:30.848 08/07/2079]',-12.894,14.847,-25.006,-23.834,-23.834,0.391,3.516,-26.178,-1.954,9.768,-10.159,-4.689,-4.298,3.907,6.252,-14.066,-34.774,13.675,25.788,-41.807,7.033,14.457,6.252,71.893
'[18:53:30.852 08/07/2079]',-8.596,12.894,-19.536,-16.801,-22.662,5.861,1.954,-17.192,4.689,12.894,-11.331,-2.735,-0.391,10.940,3.516,-10.940,-35.165,20.317,20.317,-36.337,8.596,14.457,3.516,73.846
'[18:53:30.855 08/07/2079]',-10.549,-1.563,-23.443,-2.344,-21.490,2.735,-4.298,-14.457,4.298,16.020,-19.536,-2.344,2.344,19.145,-12.112,-11.331,-16.410,19.536,24.225,-27.741,22.271,18.755,-12.112,83.223
'[18:53:30.859 08/07/2079]',-9.377,-1.954,-31.258,-3.516,-16.410,-15.238,7.033,-21.490,7.424,19.145,-25.788,-7.814,7.424,11.722,-6.252,-20.317,-7.814,8.596,32.039,-19.536,22.662,10.549,-6.252,101.587
'[18:53:30.863 08/07/2079]',-7.033,0.391,-20.708,-13.284,-14.457,-22.271,13.284,-17.973,8.205,18.755,-28.913,-1.954,6.642,1.563,-6.252,-5.079,-5.861,-3.126,21.490,-13.284,19.536,-6.252,-6.252,128.156
'[18:53:30.867 08/07/2079]',-6.252,-13.284,-28.132,-6.252,-13.675,-28.132,5.079,-17.973,4.689,16.410,-30.867,-3.907,7.033,15.238,-25.788,-10.549,-7.424,0.391,28.913,-13.284,20.708,19.536,-25.788,160.195
'[18:53:30.871 08/07/2079]',-13.675,-12.112,-25.397,-1.954,-15.238,-38.681,19.145,-18.364,1.563,13.284,-28.523,-1.563,0.000,2.735,-10.940,-5.861,-17.973,4.298,26.178,-25.397,21.490,18.755,-10.940,181.294
'[18:53:30.875 08/07/2079]',-22.662,11.331,-32.039,-9.377,-18.364,-40.244,18.755,-12.112,0.781,15.629,-37.118,-3.516,-4.298,-0.781,-25.397,6.642,-20.708,1.954,32.821,-39.463,28.913,5.861,-25.397,181.294
'[18:53:30.879 08/07/2079]',-30.085,12.112,-39.853,-3.907,-20.708,-27.350,-5.861,-6.252,3.126,18.755,-34.774,-15.629,1.954,-2.344,-8.987,-18.364,-8.205,8.205,40.635,-38.291,37.118,7.033,-8.987,165.275
'[18:53:30.883 08/07/2079]',-19.145,13.284,-45.324,-6.252,-14.457,-29.304,0.000,-12.503,1.954,16.801,-30.476,-20.708,2.735,-18.755,3.907,-19.927,0.391,12.503,46.105,-44.933,41.807,-10.940,3.907,144.957
'[18:53:30.887 08/07/2079]',-13.284,33.211,-61.734,-21.099,-9.377,-19.536,-2.344,-31.258,3.126,17.973,-24.615,-26.178,6.252,-21.099,10.549,-25.006,5.079,1.563,62.515,-61.734,42.589,-20.708,10.549,134.017
'[18:53:30.891 08/07/2079]',-7.814,47.668,-74.237,-28.132,-7.424,-13.284,-16.020,-24.615,1.954,16.020,-21.490,-24.225,5.470,-7.814,10.159,-35.946,10.549,-6.252,75.018,-65.250,28.913,-5.861,10.159,129.719
'[18:53:30.895 08/07/2079]',-8.596,49.621,-62.125,-25.006,-8.205,-17.582,-14.066,-5.079,-2.344,13.284,-21.880,-10.159,-0.391,10.940,-10.159,-21.880,14.066,1.563,62.906,-70.720,19.536,18.755,-10.159,126.593
'[18:53:30.898 08/07/2079]',-7.424,41.416,-46.886,-18.364,-8.596,-22.662,-4.298,4.298,0.391,16.410,-23.443,-9.377,-1.172,33.211,-28.132,-19.536,16.801,11.331,47.668,-68.767,20.708,38.291,-28.132,117.607
'[18:53:30.902 08/07/2079]',-10.549,20.708,-31.258,-9.768,-10.940,-23.834,-7.814,13.284,0.000,16.020,-31.258,-6.252,0.391,38.291,-46.105,-14.457,19.927,10.159,32.039,-44.542,26.569,39.463,-46.105,99.634
'[18:53:30.906 08/07/2079]',-3.516,-10.159,-3.126,-1.172,-10.159,-26.178,-6.252,26.178,1.954,16.020,-33.993,0.391,5.079,2.735,-23.443,0.391,22.662,19.145,3.907,-21.880,30.085,6.252,-23.443,75.018
'[18:53:30.910 08/07/2079]',8.596,-18.755,-15.629,-7.814,-7.424,-34.774,7.814,0.781,5.861,8.987,-26.569,-9.377,10.549,-14.066,-11.722,-4.298,19.145,19.145,16.410,-20.708,23.834,-9.377,-11.722,51.966
'[18:53:30.914 08/07/2079]',3.516,-10.549,-7.814,-16.410,-9.768,-10.549,2.735,-12.112,3.516,9.377,-25.397,-1.954,7.814,-25.788,0.391,2.344,14.457,3.907,8.596,-16.801,20.317,-23.443,0.391,34.383
'[18:53:30.918 08/07/2079]',11.722,-16.801,-1.172,-19.927,-7.814,-6.642,2.735,-14.066,1.954,2.344,-15.238,2.735,7.424,-30.085,11.722,3.516,13.284,-0.781,1.954,-3.126,10.940,-32.821,11.722,22.662
'[18:53:30.922 08/07/2079]',18.364,-38.681,21.490,-20.708,-6.642,0.781,5.861,-20.317,-0.391,-5.861,-2.344,0.781,2.735,-8.987,2.344,-4.689,10.940,14.457,-20.708,7.814,13.284,-15.629,2.344,14.457
'[18:53:30.926 08/07/2079]',2.735,-22.662,19.536,-23.053,-10.549,5.861,6.642,-24.615,-7.033,-12.503,1.172,0.391,-4.298,5.079,-5.079,-13.675,5.470,8.596,-18.755,-1.563,28.132,-8.596,-5.079,8.987
'[18:53:30.930 08/07/2079]',1.563,-16.020,8.205,-21.490,-13.284,-1.563,7.033,-18.755,-2.735,-14.066,-0.391,1.172,0.391,3.126,-6.642,-13.675,6.642,-15.629,-7.424,-0.781,29.304,-15.238,-6.642,6.252
'[18:53:30.934 08/07/2079]',6.252,2.344,-22.271,-16.801,-14.457,-3.907,8.987,-20.708,-7.033,-17.192,-1.172,0.391,-1.563,-16.020,-2.735,-4.298,3.126,-33.602,23.053,-29.695,23.053,-26.960,-2.735,4.689
'[18:53:30.938 08/07/2079]',4.689,31.648,-53.138,-21.880,-18.755,-10.549,23.053,-31.258,-3.907,-13.675,-5.861,-0.781,-3.907,-16.020,-8.205,2.344,0.000,-46.105,53.919,-64.078,1.172,-10.940,-8.205,7.033
'[18:53:30.941 08/07/2079]',0.000,31.648,-53.529,-20.708,-24.615,-20.708,30.476,-26.960,-1.172,-5.861,-17.973,-0.391,1.563,-12.112,-7.033,-8.596,0.391,-49.621,54.310,-52.357,3.126,-7.033,-7.033,9.768
'[18:53:30.945 08/07/2079]',0.391,-0.391,-27.741,-14.847,-28.913,-15.629,23.443,-21.099,0.000,-19.536,-6.642,-1.954,1.954,-14.457,-9.768,-7.033,-0.391,-28.132,28.523,-21.099,7.033,-15.238,-9.768,12.503
'[18:53:30.949 08/07/2079]',3.907,-16.020,-12.503,-19.145,-23.834,-21.099,32.430,-31.648,7.033,-19.145,-5.079,-0.391,4.298,22.271,-33.993,-10.940,-3.126,-4.689,13.284,-12.112,9.377,26.178,-33.993,14.847
'[18:53:30.953 08/07/2079]',8.987,-35.556,8.205,-17.973,-19.927,-14.847,31.258,-32.430,7.814,-22.662,0.000,-4.689,3.516,31.258,-30.085,-24.225,-2.735,-2.344,-7.424,7.424,12.112,28.913,-30.085,16.801
'[18:53:30.957 08/07/2079]',12.503,-53.529,20.708,-11.331,-15.629,-8.205,14.066,-20.708,2.344,-21.880,0.781,4.298,-1.172,11.331,-23.443,0.391,-3.516,-1.172,-19.927,18.755,18.755,6.642,-23.443,23.443
'[18:53:30.961 08/07/2079]',12.894,-49.231,7.033,-10.159,-11.722,-21.490,14.066,-19.927,0.781,-11.722,-5.470,3.907,-5.470,-3.126,-5.470,2.344,-7.033,-0.781,-6.252,12.894,7.424,-0.781,-5.470,30.476
'[18:53:30.965 08/07/2079]',3.516,-46.496,25.788,-22.662,-13.284,-30.476,25.788,-20.708,-5.079,6.642,-15.629,0.000,-10.549,-14.066,18.364,-7.033,-8.987,6.252,-25.006,21.099,9.377,-18.755,18.364,29.304
'[18:53:30.969 08/07/2079]',3.907,-49.621,33.211,-14.457,-7.424,-5.861,0.781,-13.284,-4.298,18.364,-19.536,-6.252,-4.298,-8.205,9.377,-8.205,-3.907,5.470,-32.430,31.258,16.801,-16.801,9.377,12.894
'[18:53:30.973 08/07/2079]',7.033,-39.072,19.927,-4.689,4.689,-14.066,-2.735,-3.126,-0.391,17.582,-22.271,0.000,-0.781,-7.033,1.172,0.391,-3.126,8.205,-19.145,29.304,2.735,-8.596,1.172,-8.987
'[18:53:30.977 08/07/2079]',5.079,-24.615,26.960,-34.774,5.861,-10.940,-3.126,-17.582,-1.954,20.708,-21.880,-21.099,-1.172,3.516,-9.768,-15.629,-1.172,15.238,-26.178,15.238,-5.861,10.159,-9.768,4.298
'[18:53:30.980 08/07/2079]',6.252,-23.053,22.662,-23.834,12.112,6.252,-21.490,-13.284,-1.563,14.847,-13.675,-7.814,-3.907,9.377,-13.675,0.391,4.298,14.457,-21.880,13.675,-17.582,22.271,-13.675,98.462
'[18:53:30.984 08/07/2079]',3.907,-19.145,13.675,-20.317,9.377,0.391,-16.410,-13.675,1.172,10.940,-7.033,-6.642,-1.563,-14.066,15.629,-1.172,7.814,17.582,-12.894,6.252,-17.582,0.000,15.629,268.034
'[18:53:30.988 08/07/2079]',-0.781,-34.383,10.549,-10.159,0.781,-3.907,-11.331,-19.145,3.516,0.391,5.079,-11.331,0.391,-6.642,19.927,-14.847,6.252,22.271,-9.768,8.596,-8.205,1.954,19.927,447.375
'[18:53:30.992 08/07/2079]',-16.410,-30.476,18.364,-14.847,-10.159,1.954,-8.596,-25.788,5.079,10.940,-8.596,-7.424,0.391,-8.987,28.132,-18.755,7.814,21.099,-17.582,14.066,1.172,-3.907,28.132,548.181
'[18:53:30.996 08/07/2079]',-26.178,-22.271,10.549,-14.066,-18.755,4.689,-14.066,-22.271,10.159,26.178,-32.430,-10.159,9.377,1.954,1.954,-19.927,9.768,25.006,-9.768,23.443,7.814,1.563,1.954,506.374
'[18:53:31.000 08/07/2079]',-24.225,-32.039,-0.781,-7.424,-23.834,-1.172,-18.755,-20.317,3.907,9.377,-28.523,-13.284,4.689,-12.503,-3.516,-16.020,7.033,35.946,1.563,23.443,11.722,-14.847,-3.516,372.357
'[18:53:31.004 08/07/2079]',-14.066,-42.589,8.205,-12.894,-25.397,-10.549,-3.907,-19.927,-4.298,-33.211,14.847,-19.145,-3.126,-15.238,-6.642,-16.410,7.033,53.919,-7.424,19.536,5.861,-12.112,-6.642,220.757
'[18:53:31.008 08/07/2079]',-4.298,-33.993,5.861,0.000,-22.271,1.172,-8.205,-2.344,-2.344,-82.833,69.158,-11.722,-1.954,3.907,-22.662,-6.642,12.112,49.231,-5.079,23.443,-2.344,-1.563,-22.662,132.454
'[18:53:31.012 08/07/2079]',-17.582,-14.066,-6.642,7.814,-30.476,-0.391,-3.907,5.470,-8.205,-128.547,118.779,-10.549,-11.331,6.642,-17.973,-5.861,11.331,45.324,7.424,17.192,-19.536,0.391,-17.973,106.667
'[18:53:31.016 08/07/2079]',-24.225,-0.391,2.735,1.954,-29.695,0.781,8.987,0.781,-9.377,-148.474,145.739,-12.112,-15.238,13.284,-17.973,-4.298,16.410,41.026,-1.954,12.894,-32.039,13.284,-17.973,112.137
'[18:53:31.020 08/07/2079]',-17.973,4.689,8.987,-12.112,-24.225,24.225,-1.172,-13.675,-3.907,-27.741,35.165,-10.549,-14.066,6.642,-3.907,3.126,19.145,39.463,-8.205,10.159,-38.291,8.987,-3.907,121.123
'[18:53:31.023 08/07/2079]',-27.741,17.582,-1.563,-19.927,-21.099,36.337,-24.225,-21.490,-8.205,26.178,-22.271,-7.033,-18.755,-17.973,17.582,6.252,19.145,28.523,2.344,4.689,-36.337,-12.894,17.582,115.263
'[18:53:31.027 08/07/2079]',-6.642,11.331,-8.205,-24.615,-8.596,19.145,-15.629,-21.490,-12.503,39.072,-37.509,-7.424,-23.834,-32.821,30.476,5.861,16.020,24.225,8.987,-15.238,-25.397,-26.569,30.476,91.819
'[18:53:31.031 08/07/2079]',35.946,-10.549,6.252,-32.821,10.940,26.178,-13.284,-23.443,-8.987,43.761,-31.258,-4.689,-16.801,-10.549,15.629,8.205,19.145,10.549,-5.470,-7.424,-21.490,-14.066,15.629,46.496
'[18:53:31.035 08/07/2079]',19.145,49.231,-11.722,-23.834,26.569,39.463,-24.615,-7.424,-8.596,-1.563,13.675,3.516,-14.847,-4.689,8.205,17.582,14.847,-18.755,12.503,-26.960,-24.225,-16.410,8.205,-19.145
'[18:53:31.039 08/07/2079]',9.377,30.476,4.689,-5.470,17.192,-5.470,13.675,14.847,-14.457,-14.457,25.397,-2.735,-19.927,10.159,-9.768,12.894,17.582,-10.159,-3.907,-17.192,-14.847,-8.205,-9.768,-98.462
'[18:53:31.043 08/07/2079]',8.987,30.085,16.410,-16.410,16.801,-4.298,22.662,4.689,-3.907,1.954,19.536,-9.377,-12.894,5.861,7.814,7.033,24.225,-2.344,-15.629,-20.708,-12.503,-10.159,7.814,-144.567
'[18:53:31.047 08/07/2079]',-19.536,31.648,19.145,-17.582,0.391,0.000,7.033,7.033,0.391,14.847,0.000,-7.814,-8.987,-17.192,26.960,7.033,23.443,-2.344,-18.364,-7.033,-6.642,-33.211,26.960,-143.004
'[18:53:31.051 08/07/2079]',-20.317,21.490,8.205,-14.457,-10.549,-20.317,17.582,8.987,-0.781,19.927,-10.940,-8.205,-11.722,-18.755,26.178,3.516,19.927,3.516,-7.424,-15.238,1.563,-30.476,26.178,-94.554
'[18:53:31.055 08/07/2079]',-14.066,5.861,5.470,-14.847,-13.284,-4.298,2.735,-0.781,-0.391,10.549,-8.987,-0.781,-13.284,-16.020,21.490,7.814,16.020,3.516,-4.689,-15.629,-6.642,-11.331,21.490,-34.383
'[18:53:31.059 08/07/2079]',-26.178,35.556,-8.596,-7.424,-11.722,3.126,-7.033,9.768,5.079,7.033,-12.112,8.205,-6.642,-6.252,3.126,19.145,15.629,-9.377,9.377,-25.006,-4.298,0.391,3.126,11.722
'[18:53:31.063 08/07/2079]',-26.178,59.780,-19.927,-3.126,-15.238,-3.907,8.205,21.099,4.689,8.205,-16.410,13.675,-5.079,-8.987,-0.781,27.350,17.192,-11.331,20.708,-40.635,-5.861,-3.126,-0.781,40.244
'[18:53:31.066 08/07/2079]',-14.847,45.714,-18.755,2.344,-11.722,-14.066,23.053,18.364,6.642,19.927,-23.443,10.549,-5.079,-7.814,7.033,21.490,16.801,-8.205,19.536,-46.105,-2.344,-2.735,7.033,53.919
'[18:53:31.070 08/07/2079]',-7.424,40.244,-16.020,-3.907,-11.331,-10.549,24.615,10.549,11.331,20.317,-18.755,4.689,0.391,0.391,1.954,14.847,14.066,-4.298,16.801,-47.668,7.814,-2.344,1.954,69.939
'[18:53:31.074 08/07/2079]',-2.344,22.662,-17.582,-2.344,-17.582,-22.271,23.834,17.192,5.861,21.490,-21.099,13.284,-3.516,-4.689,15.238,13.675,10.549,-3.516,18.364,-36.728,3.516,-8.596,15.238,89.475
'[18:53:31.078 08/07/2079]',-1.172,5.861,-17.192,0.391,-20.317,-33.211,20.708,20.317,-1.172,21.099,-23.443,13.284,-8.987,5.079,0.781,11.722,5.470,-0.391,17.973,-27.350,3.516,1.172,0.781,103.541
'[18:53:31.082 08/07/2079]',-1.954,-6.642,-5.861,-6.252,-17.582,-34.383,17.582,12.112,-3.126,20.708,-22.271,9.377,-11.331,12.112,-6.252,10.940,4.298,3.126,6.642,-9.768,-3.516,10.940,-6.252,114.481
'[18:53:31.086 08/07/2079]',11.331,-18.755,-8.205,-10.159,-9.377,-31.648,9.768,5.079,2.735,20.708,-22.662,7.814,-1.563,6.642,-5.470,10.940,10.549,-3.516,8.987,2.735,-2.735,5.470,-5.470,115.263
'[18:53:31.090 08/07/2079]',9.377,-8.596,-8.205,-19.927,-8.596,-31.258,14.847,-2.735,2.735,21.099,-21.490,8.205,-1.172,-5.079,4.298,13.675,13.284,-5.470,8.987,-6.252,2.735,-10.940,4.298,117.216
'[18:53:31.094 08/07/2079]',14.066,-19.927,-1.563,-36.337,-7.814,-19.927,4.689,-19.536,8.987,21.490,-21.490,-3.126,6.252,4.298,-3.516,0.000,12.894,-8.596,2.344,-3.126,9.768,-0.781,-3.516,113.700
'[18:53:31.098 08/07/2079]',10.549,-15.238,6.252,-44.151,-17.192,-7.033,3.907,-19.927,5.470,23.053,-19.536,7.814,3.126,7.424,-0.781,7.424,12.503,-5.470,-5.470,-5.470,-0.391,9.377,-0.781,117.998
'[18:53:31.102 08/07/2079]',16.410,-26.178,21.880,-31.258,-21.099,-1.563,12.894,-8.205,3.126,32.430,-26.178,14.847,6.642,14.457,-8.987,12.503,11.331,-1.563,-21.099,6.252,0.391,10.549,-8.987,129.719
'[18:53:31.105 08/07/2079]',26.569,-46.105,31.258,-14.457,-18.364,-7.814,17.582,7.033,1.172,37.900,-32.430,16.410,8.205,21.490,-19.927,13.284,8.596,3.516,-30.476,21.099,-4.298,19.536,-19.927,146.520
'[18:53:31.109 08/07/2079]',25.397,-51.575,39.072,-13.284,-19.927,-8.205,23.443,5.470,1.954,40.635,-32.430,10.940,9.377,24.225,-16.020,4.298,8.205,8.987,-38.291,33.993,-5.079,19.145,-16.020,160.586
'[18:53:31.113 08/07/2079]',17.973,-41.807,28.913,-7.814,-21.099,-7.814,16.020,10.159,2.735,43.761,-40.635,15.629,14.457,-1.954,1.563,8.596,5.861,1.954,-28.132,32.821,11.331,-15.629,1.563,170.354
'[18:53:31.117 08/07/2079]',13.675,-49.231,16.801,-2.344,-19.145,-4.298,3.516,0.391,5.470,36.728,-37.118,14.066,17.192,-4.298,3.516,3.907,5.861,-0.391,-16.020,38.291,14.847,-15.629,3.516,177.387
'[18:53:31.121 08/07/2079]',18.364,-43.370,32.821,-5.861,-13.675,6.252,8.205,2.344,7.424,30.476,-27.350,11.331,17.582,6.252,-6.642,5.470,6.642,1.172,-32.039,24.225,14.847,-1.563,-6.642,176.996
'[18:53:31.125 08/07/2079]',18.364,-51.575,40.244,-12.894,-18.755,10.549,1.172,1.954,8.205,26.178,-23.834,16.020,17.582,14.847,-14.847,8.987,5.861,-1.172,-39.463,36.728,1.563,6.252,-14.847,173.480
'[18:53:31.129 08/07/2079]',24.225,-72.283,45.714,-13.284,-24.615,4.298,1.172,3.907,4.298,19.145,-17.973,15.629,17.582,19.536,-26.178,9.768,5.470,-4.298,-44.933,57.045,-10.159,10.940,-26.178,163.712
'[18:53:31.133 08/07/2079]',39.072,-66.422,24.615,-11.331,-19.927,-10.940,15.238,2.735,1.172,8.987,-9.768,12.112,18.755,20.317,-33.993,8.205,2.344,-8.205,-23.834,36.337,-14.457,13.675,-33.993,153.162
'[18:53:31.137 08/07/2079]',51.575,-62.515,8.205,-26.178,-13.675,-15.238,18.755,-17.973,7.033,16.801,-12.503,2.735,24.225,2.735,-4.689,-6.642,1.954,-11.331,-7.424,23.053,-12.112,-2.344,-4.689,141.050
'[18:53:31.141 08/07/2079]',36.337,-37.509,-11.331,-23.053,-10.159,-11.722,4.689,-17.582,9.768,12.894,-16.801,3.126,29.304,-5.470,-6.642,-5.470,4.689,-29.304,12.112,4.689,12.503,-13.675,-6.642,134.408
'[18:53:31.145 08/07/2079]',32.039,-13.675,-13.675,-11.331,7.424,-18.364,14.066,-9.377,24.225,9.377,-17.582,5.470,44.542,-5.861,-11.722,-3.126,7.814,-25.397,14.457,-11.722,42.589,-14.066,-11.722,135.580
'[18:53:31.148 08/07/2079]',29.695,-7.814,-2.344,-15.629,17.582,2.735,-1.954,-14.066,32.821,11.331,-22.271,1.172,54.701,1.954,-27.741,-3.516,6.642,-21.099,3.126,-10.549,54.310,-9.768,-27.741,143.394
'[18:53:31.152 08/07/2079]',17.973,-18.364,6.642,-9.768,6.642,0.391,0.781,-10.940,25.397,12.503,-25.006,4.298,53.919,-5.861,-27.350,-0.391,0.391,-17.582,-5.861,4.298,60.171,-16.020,-27.350,156.288
'[18:53:31.156 08/07/2079]',20.708,-7.814,5.470,-10.940,14.457,-1.563,5.470,-8.987,27.350,7.814,-18.755,9.377,62.515,-3.126,-39.463,7.033,-2.344,-5.861,-4.689,-3.516,68.376,-10.940,-39.463,172.308
'[18:53:31.160 08/07/2079]',13.675,1.563,6.252,-25.006,12.112,-3.126,9.377,-20.317,25.006,7.424,-18.364,-2.344,66.422,-12.112,-33.993,-7.033,-5.861,0.000,-5.470,-17.192,82.833,-22.271,-33.993,185.592
'[18:53:31.164 08/07/2079]',9.377,10.549,1.563,-30.476,11.331,-3.907,12.503,-28.132,31.648,13.284,-25.006,-1.954,75.800,-25.788,-17.973,-13.284,-4.298,-1.954,-0.781,-17.192,91.038,-35.165,-17.973,202.393
'[18:53:31.168 08/07/2079]',-5.079,22.271,1.954,-29.304,9.377,-2.344,8.596,-24.615,29.304,3.516,-20.708,-6.252,82.051,-33.211,-28.132,-12.894,-5.861,-0.391,-1.172,-28.523,118.779,-42.979,-28.132,217.241
'[18:53:31.172 08/07/2079]',-7.424,35.946,7.424,-21.099,23.053,1.563,10.159,-19.536,37.509,8.987,-23.834,-4.298,91.429,-30.476,-29.695,-10.549,-2.344,6.252,-6.642,-44.542,132.063,-34.774,-29.695,230.134
'[18:53:31.176 08/07/2079]',-20.317,37.900,2.735,-19.536,10.940,-6.642,12.112,-15.238,25.788,8.987,-31.648,-4.298,83.614,-58.608,-17.582,-7.814,-8.987,0.391,-1.954,-44.933,130.110,-56.654,-17.582,237.949
'[18:53:31.180 08/07/2079]',-26.569,44.151,10.159,-16.801,11.331,-11.331,17.973,-6.642,26.960,13.675,-25.397,-1.563,84.786,-32.821,-33.602,-3.126,-6.642,5.861,-9.377,-35.165,118.779,-30.867,-33.602,245.372
'[18:53:31.184 08/07/2079]',-14.066,45.714,3.126,-15.629,21.880,-22.271,28.523,-8.596,30.867,15.238,-26.960,4.298,94.554,-52.357,-26.178,8.987,-5.861,10.940,-2.344,-44.151,126.984,-53.138,-26.178,258.266
'[18:53:31.188 08/07/2079]',-17.973,35.165,-6.252,-28.132,8.987,-32.039,33.993,-28.913,21.490,15.629,-35.946,-8.205,87.521,-64.469,-18.755,-9.768,-14.457,1.954,7.033,-42.198,132.454,-67.595,-18.755,277.021
'[18:53:31.191 08/07/2079]',-26.569,39.853,-10.159,-23.443,4.298,-35.165,30.476,-20.708,24.225,14.847,-33.993,-5.079,85.958,-40.635,-25.788,-17.192,-14.066,0.391,10.940,-38.681,135.189,-47.277,-25.788,296.947
'[18:53:31.195 08/07/2079]',-29.304,41.807,-3.907,-36.337,4.689,-29.304,23.834,-26.569,21.099,9.377,-36.337,-5.470,84.005,-46.886,-32.821,-13.284,-17.192,0.391,4.689,-46.886,141.050,-47.668,-32.821,306.716
'[18:53:31.199 08/07/2079]',-33.993,43.761,-0.391,-24.615,-1.563,-9.768,13.675,-17.582,19.145,9.768,-33.993,-10.940,75.800,-45.324,-15.629,-28.913,-18.364,-4.298,1.172,-57.827,141.441,-42.589,-15.629,304.371
'[18:53:31.203 08/07/2079]',-32.430,42.589,-1.563,-14.847,-2.344,-0.781,9.768,-12.112,21.490,9.768,-30.867,-10.159,75.018,-32.039,-21.490,-29.304,-17.973,-3.126,2.344,-54.310,140.269,-35.165,-21.490,294.994
'[18:53:31.207 08/07/2079]',-29.695,34.774,1.954,-6.252,-5.470,6.252,0.781,0.000,21.490,1.954,-28.132,-1.954,78.535,-70.720,0.781,-13.675,-15.238,-0.391,-1.172,-47.668,132.845,-66.032,0.781,291.868
'[18:53:31.211 08/07/2079]',-26.960,30.476,-7.424,-8.205,-13.284,3.516,6.642,-8.987,18.364,-1.172,-25.397,-9.768,71.111,-77.753,5.079,-16.020,-12.894,0.781,8.205,-45.324,123.077,-73.065,5.079,292.650
'[18:53:31.215 08/07/2079]',-33.211,41.416,-25.397,-11.722,-15.629,6.642,-0.391,-19.145,14.457,-5.861,-23.053,-7.814,59.389,-59.389,-6.642,-14.847,-9.377,-1.172,26.178,-53.138,120.342,-62.515,-6.642,289.915
'[18:53:31.219 08/07/2079]',-36.337,21.880,10.159,-4.689,-17.192,12.894,3.126,-6.642,9.768,-8.987,-16.801,-2.735,51.966,-40.244,-23.053,-7.033,-4.298,1.563,-9.377,-26.960,102.369,-31.648,-23.053,265.690
'[18:53:31.223 08/07/2079]',-33.602,10.159,7.033,0.781,-14.847,10.159,0.391,-9.768,9.377,-11.331,-14.847,-11.722,44.542,-34.383,-21.490,-16.020,-4.689,-0.781,-6.252,-33.211,102.369,-21.880,-21.490,214.505
'[18:53:31.227 08/07/2079]',-44.542,10.940,12.503,-0.391,-12.503,1.954,1.563,-10.940,13.675,-7.424,-16.410,-15.629,42.979,-17.973,-18.755,-31.648,-7.424,-1.954,-11.722,-35.946,112.918,-10.940,-18.755,144.176
'[18:53:31.230 08/07/2079]',-43.370,5.470,28.523,-3.516,-8.205,0.000,9.377,-12.112,17.582,-7.424,-15.238,-21.099,48.059,-41.807,0.000,-31.648,-5.861,-4.298,-27.741,-22.662,114.090,-35.556,0.000,84.396
'[18:53:31.234 08/07/2079]',-39.072,2.735,9.377,-10.159,-11.331,-0.391,3.907,-28.523,17.192,-5.470,-12.112,-33.602,48.059,-50.403,8.596,-40.244,-6.642,-4.298,-8.596,-25.397,113.309,-47.668,8.596,53.919
'[18:53:31.238 08/07/2079]',-41.026,1.954,13.675,-11.722,-10.549,-6.252,12.112,-30.867,12.894,-2.735,-12.503,-23.053,41.026,-44.151,3.126,-25.788,-4.689,1.954,-12.894,-32.039,123.468,-45.714,3.126,42.198
'[18:53:31.242 08/07/2079]',-44.933,6.252,17.192,-14.066,-12.112,-1.954,12.112,-32.821,11.722,-0.391,-8.596,-26.960,36.337,-16.801,-12.112,-32.430,-0.391,3.126,-16.410,-28.132,117.607,-17.582,-12.112,28.132
'[18:53:31.246 08/07/2079]',-45.714,13.675,12.894,-11.722,-13.675,3.907,0.781,-20.317,10.159,-0.391,-8.987,-20.317,35.946,-19.536,-19.145,-15.629,-0.781,4.689,-12.112,-27.741,102.759,-14.066,-19.145,-4.298
'[18:53:31.250 08/07/2079]',-44.933,8.205,11.722,-1.563,-13.284,-6.642,8.987,-14.066,10.940,2.344,-11.331,-18.364,33.211,-41.807,0.391,-7.424,-1.563,11.331,-10.940,-32.430,99.634,-28.523,0.391,-66.032
'[18:53:31.254 08/07/2079]',-41.416,3.126,18.364,4.298,-11.722,-11.722,19.536,-10.159,9.768,1.563,-9.768,-17.582,28.523,-48.449,5.861,-1.954,-6.252,12.894,-17.582,-34.383,90.647,-30.476,5.861,-130.501
'[18:53:31.258 08/07/2079]',-39.463,13.284,10.159,-5.861,-12.112,-12.112,16.801,-12.503,9.768,2.344,-7.814,-22.271,32.430,-60.952,20.317,-9.377,-9.768,10.159,-9.377,-34.383,89.084,-48.059,20.317,-189.109
'[18:53:31.262 08/07/2079]',-44.542,10.549,12.112,-5.861,-18.364,-22.271,25.788,-10.940,8.205,2.735,-7.033,-17.973,30.867,-54.701,14.847,-5.079,-8.596,16.020,-11.331,-25.397,86.349,-46.105,14.847,-221.148
'[18:53:31.266 08/07/2079]',-46.886,14.457,12.503,-5.079,-18.364,-25.006,38.681,-19.145,3.907,2.735,-2.344,-17.582,23.053,-35.556,7.424,-7.814,-10.549,22.662,-11.722,-33.602,83.614,-23.834,7.424,-232.479
'[18:53:31.270 08/07/2079]',-42.589,14.847,8.596,-4.298,-13.675,-20.317,39.072,-26.569,4.689,3.516,-0.781,-22.271,26.178,-26.178,-1.563,-11.331,-12.112,18.364,-7.814,-26.569,86.740,-21.880,-1.563,-223.101
'[18:53:31.273 08/07/2079]',-38.681,11.722,5.079,0.391,-14.457,-14.066,31.648,-21.490,3.126,0.781,0.781,-19.536,23.053,-19.927,-11.331,-4.298,-9.377,18.755,-4.298,-23.443,75.018,-14.847,-11.331,-205.128
'[18:53:31.277 08/07/2079]',-40.244,9.768,1.172,14.066,-16.410,-18.755,33.602,-12.112,-0.391,-4.689,3.126,-16.410,20.317,-30.476,-5.861,-0.391,-8.205,15.629,-0.391,-32.430,81.661,-23.834,-5.861,-184.420
'[18:53:31.281 08/07/2079]',-34.774,20.317,-3.516,9.377,-13.284,-21.490,37.118,-9.768,-1.954,-4.298,4.689,-16.020,20.317,-33.602,-1.563,-1.954,-10.940,8.205,4.298,-40.635,83.614,-32.821,-1.563,-175.433
'[18:53:31.285 08/07/2079]',-25.788,17.192,-4.298,8.987,-10.549,-23.834,35.165,-2.735,-5.079,-3.907,3.907,-12.503,20.317,-34.383,-3.907,-0.391,-12.503,3.516,5.079,-34.774,72.283,-31.648,-3.907,-170.354
'[18:53:31.289 08/07/2079]',-34.774,21.099,-10.549,13.284,-17.192,-39.853,42.589,3.907,-13.675,-4.298,-1.954,-3.126,13.284,-34.774,-6.252,2.735,-19.536,3.516,11.331,-42.979,75.800,-28.913,-6.252,-180.513
'[18:53:31.293 08/07/2079]',-31.258,15.629,-5.079,0.000,-14.066,-52.357,60.171,-14.066,-12.503,-4.298,-3.907,-8.205,15.629,-21.099,-20.708,-3.907,-29.304,6.642,5.861,-37.118,77.753,-13.284,-20.708,-191.844
'[18:53:31.297 08/07/2079]',-33.211,-2.735,6.252,-7.814,-18.364,-30.085,35.165,-23.443,-13.284,-6.642,-7.033,-8.596,17.973,-14.066,-28.913,-11.331,-40.244,1.563,-5.470,-12.503,76.581,-7.814,-28.913,-199.267
'[18:53:31.301 08/07/2079]',-35.556,-1.172,-4.689,-4.689,-23.834,-21.880,23.443,-23.443,-11.722,-7.424,-8.987,-5.861,16.801,-19.145,-26.960,-5.079,-39.463,-0.391,5.470,-6.252,64.469,-16.020,-26.960,-201.612
'[18:53:31.305 08/07/2079]',-31.648,3.907,-5.861,7.424,-18.755,-15.238,25.397,-16.410,-9.377,-3.516,-7.424,-6.252,14.457,-19.536,-19.145,-2.344,-35.946,-1.563,6.642,-15.629,64.078,-18.755,-19.145,-194.579
'[18:53:31.309 08/07/2079]',-44.933,23.443,-7.424,8.205,-21.099,-13.675,22.271,-6.252,-16.410,0.391,-10.159,1.172,5.470,-20.708,-10.159,0.391,-35.556,-11.331,8.205,-22.662,58.999,-21.099,-10.159,-184.029
'[18:53:31.313 08/07/2079]',-56.654,58.608,-22.271,15.629,-23.443,-24.615,28.523,15.238,-19.927,10.159,-25.788,4.689,3.126,-29.304,-12.503,8.205,-29.695,-14.457,23.053,-40.635,51.184,-27.350,-12.503,-167.228
'[18:53:31.316 08/07/2079]',-58.608,59.780,-31.648,25.397,-22.271,-35.946,36.337,17.582,-32.821,16.410,-33.602,10.549,-5.861,-34.774,-17.192,18.755,-32.430,-9.377,32.430,-52.747,61.343,-33.602,-17.192,-150.427
'[18:53:31.320 08/07/2079]',-47.668,42.979,-17.973,3.907,-25.397,-27.741,42.589,-7.424,-38.681,21.880,-36.337,2.344,-7.814,-11.331,-35.556,4.689,-38.291,-1.563,18.755,-39.072,50.012,-1.954,-35.556,-136.361
'[18:53:31.324 08/07/2079]',-43.761,56.264,-30.867,-4.298,-19.536,-0.781,10.940,-13.284,-42.198,32.430,-46.496,-5.861,-9.377,-22.662,-26.960,-1.172,-38.681,0.391,31.648,-45.324,37.900,-4.689,-26.960,-127.375
'[18:53:31.328 08/07/2079]',-49.621,60.171,-41.807,6.642,-19.927,0.781,5.079,-9.768,-50.794,52.747,-59.389,0.000,-20.708,-28.523,-15.238,7.424,-38.291,12.112,42.589,-40.635,29.695,-14.066,-15.238,-120.733
'[18:53:31.332 08/07/2079]',-54.701,55.482,-22.271,10.940,-22.271,-2.735,28.913,-12.503,-64.469,61.343,-67.985,0.391,-35.556,-33.602,8.596,-8.596,-39.853,21.099,23.053,-29.695,25.397,-22.271,8.596,-114.090
'[18:53:31.336 08/07/2079]',-61.343,62.125,-35.165,33.211,-22.662,-2.344,33.602,-8.987,-69.158,50.012,-65.250,8.987,-36.728,-34.774,4.298,-7.424,-38.681,26.178,35.946,-37.118,30.476,-16.410,4.298,-104.322
'[18:53:31.340 08/07/2079]',-58.217,53.529,-45.714,46.105,-26.178,-25.788,42.198,7.033,-67.204,53.529,-74.237,10.549,-32.821,-37.509,2.344,-7.814,-39.072,31.258,46.496,-35.946,36.728,-27.350,2.344,-92.210
'[18:53:31.344 08/07/2079]',-37.900,21.099,-35.165,37.900,-28.523,-43.761,53.138,6.252,-70.330,40.635,-67.985,11.722,-35.165,-37.900,-4.689,-6.252,-39.072,35.946,35.946,-30.085,44.542,-26.960,-4.689,-84.786
'[18:53:31.348 08/07/2079]',-22.271,3.907,-31.258,16.410,-25.788,-26.569,26.960,-6.252,-70.330,46.496,-67.204,2.735,-35.556,-23.443,-15.238,-11.331,-32.430,35.556,32.039,-28.523,52.357,-14.847,-15.238,-76.972
'[18:53:31.352 08/07/2079]',-12.894,11.331,-48.059,9.768,-18.755,-30.476,9.377,1.954,-85.568,68.767,-80.098,-6.252,-51.184,-32.039,-10.940,-7.033,-25.397,28.132,48.840,-35.556,47.668,-26.569,-10.940,-67.985
'[18:53:31.355 08/07/2079]',-25.788,16.801,-50.012,2.735,-20.708,-33.602,0.000,0.000,-101.978,68.767,-85.568,-3.126,-69.939,-25.788,-24.225,-0.391,-19.927,14.066,50.794,-37.509,50.403,-24.225,-24.225,-52.747
'[18:53:31.359 08/07/2079]',-46.886,42.979,-53.138,-1.954,-26.960,-12.112,-5.861,-12.112,-98.071,52.747,-59.780,-8.987,-70.720,-9.377,-13.675,-18.364,-12.503,1.563,53.919,-43.370,39.072,-3.516,-13.675,-37.118
'[18:53:31.363 08/07/2079]',-46.105,53.919,-65.641,-1.172,-35.556,10.159,-23.053,-9.377,-76.581,37.118,-44.933,-3.907,-49.231,-7.814,-15.629,-14.847,-15.238,-12.112,66.422,-42.979,16.801,4.298,-15.629,-22.662
'[18:53:31.367 08/07/2079]',-17.192,23.834,-58.608,-13.284,-40.244,55.092,-55.092,-24.615,-48.449,30.476,-39.072,2.735,-20.708,-8.987,-17.973,-4.689,-20.708,-14.066,59.389,-34.383,19.536,-5.470,-17.973,-7.424
'[18:53:31.371 08/07/2079]',33.211,-33.211,-37.118,-16.020,-42.589,87.131,-69.939,-26.178,-20.708,10.940,-10.159,-6.642,3.907,-15.629,0.781,-14.457,-20.708,1.954,37.900,-21.880,14.066,-11.331,0.781,-1.172
'[18:53:31.375 08/07/2079]',70.720,-73.846,-34.774,-6.642,-34.383,74.237,-73.455,-10.940,-1.954,-35.946,41.807,-9.377,22.271,-13.284,-3.516,-10.940,-20.317,8.205,35.556,-10.940,15.238,-12.503,-3.516,5.861
'[18:53:31.379 08/07/2079]',75.800,-82.442,-40.244,6.642,-36.728,54.310,-68.376,10.940,12.112,-40.244,45.324,-10.940,41.026,-8.987,-20.317,-4.298,-17.973,6.642,41.026,-16.410,28.913,-15.238,-20.317,4.689
'[18:53:31.383 08/07/2079]',60.562,-78.144,-20.708,30.476,-33.993,-16.801,0.391,43.370,23.053,4.689,3.126,-13.284,50.403,-1.563,-31.648,0.781,-8.987,10.159,21.490,-10.549,23.053,-7.033,-31.648,11.331
'[18:53:31.387 08/07/2079]',34.774,-34.383,-35.946,46.496,-28.913,-45.714,28.913,57.436,26.960,73.065,-55.092,-10.940,48.449,-4.298,-15.629,4.298,-5.079,-11.722,36.728,-34.774,5.079,-3.907,-15.629,8.596
'[18:53:31.391 08/07/2079]',-5.079,-11.722,-14.457,52.357,-27.741,-37.900,17.192,69.158,30.867,233.260,-223.492,8.205,55.873,-17.582,-8.596,19.927,-1.563,-28.523,15.238,-19.145,13.284,-22.662,-8.596,5.861
'[18:53:31.395 08/07/2079]',-3.907,-2.735,-16.020,37.900,-11.331,-25.006,-0.781,53.919,25.397,297.729,-291.868,3.516,42.589,-25.788,3.907,14.457,-1.563,-21.490,16.801,-14.457,2.344,-33.993,3.907,-3.516
'[18:53:31.398 08/07/2079]',12.503,-10.549,-15.238,24.225,21.880,-5.079,-36.337,32.430,20.708,209.035,-197.314,10.549,35.946,-17.582,8.987,16.801,-0.391,-21.490,16.020,-18.755,7.424,-21.490,8.987,-10.549
'[18:53:31.402 08/07/2079]',25.006,-28.132,-18.364,24.615,36.337,-7.814,-53.919,28.913,12.503,113.309,-110.965,18.364,30.476,-21.099,7.033,16.801,0.391,-9.768,19.145,-11.722,17.192,-26.960,7.033,-20.317
'[18:53:31.406 08/07/2079]',34.774,-32.821,1.563,3.907,48.840,-21.880,-39.853,22.271,7.814,30.085,-31.258,18.364,22.271,-8.205,-8.205,20.317,5.079,5.861,-0.781,-12.894,27.350,-19.927,-8.205,-16.410
'[18:53:31.410 08/07/2079]',36.337,-38.291,8.205,7.814,48.449,-33.602,-26.960,28.913,-0.391,-21.880,20.317,20.708,8.987,-17.582,4.298,22.271,10.549,8.596,-7.424,-10.940,13.284,-19.927,4.298,-11.722
'[18:53:31.414 08/07/2079]',25.788,-41.807,15.238,8.205,34.774,-26.569,-24.225,25.397,-5.470,-11.331,6.252,19.536,5.079,-5.470,-9.377,18.364,14.847,4.298,-14.457,4.298,19.145,-12.894,-9.377,-0.391
'[18:53:31.418 08/07/2079]',24.615,-49.231,24.615,4.298,23.443,-14.847,-26.569,23.443,-5.470,12.894,-16.020,13.675,2.735,-4.689,-4.689,11.331,18.755,3.126,-23.834,19.927,14.066,-12.503,-4.689,1.954
'[18:53:31.422 08/07/2079]',28.523,-52.357,16.410,2.735,19.536,-8.987,-27.350,14.066,-9.377,1.954,-4.689,9.377,-1.954,-8.596,-1.172,10.940,17.973,2.735,-15.629,17.192,3.516,-7.814,-1.172,-0.391
'[18:53:31.426 08/07/2079]',20.317,-39.072,18.364,-7.033,19.145,-5.079,-25.006,4.298,-2.735,-17.582,18.755,7.424,4.298,0.391,-6.642,7.424,18.364,1.563,-17.582,12.112,15.629,-1.172,-6.642,-3.907
'[18:53:31.430 08/07/2079]',17.582,-28.523,26.178,-22.271,17.192,-4.689,-21.880,1.954,2.344,-26.960,25.397,5.861,9.377,2.735,-9.377,5.470,17.973,0.781,-25.397,14.457,12.894,-0.391,-9.377,-14.847
'[18:53:31.434 08/07/2079]',14.847,-11.331,27.350,-26.569,18.364,-2.344,-9.768,-0.391,1.172,-24.615,33.602,-0.781,1.954,15.238,-7.424,-0.391,19.536,4.689,-26.569,4.689,6.252,7.033,-7.424,-21.490
'[18:53:31.438 08/07/2079]',10.940,-29.304,33.211,-18.364,17.582,14.457,-26.178,-8.596,3.516,-28.913,31.648,0.000,7.424,15.238,-16.801,0.391,16.410,1.172,-32.430,12.503,24.615,7.424,-16.801,-29.304
'[18:53:31.441 08/07/2079]',4.298,-24.225,23.053,-20.708,8.205,12.112,-29.695,-7.814,3.126,-33.993,33.602,-1.172,7.424,7.814,-3.516,-10.159,14.847,-3.907,-22.271,19.927,22.271,-0.391,-3.516,-35.556
'[18:53:31.445 08/07/2079]',1.172,-12.112,10.549,-16.020,3.126,9.768,-27.350,0.000,2.344,-36.337,37.118,-3.907,9.768,3.126,1.954,-15.629,14.847,-4.298,-9.768,17.192,22.271,-7.424,1.954,-38.681
'[18:53:31.449 08/07/2079]',0.391,-17.192,9.377,-19.536,-1.954,3.126,-19.536,-7.424,0.000,-40.635,39.463,2.344,8.987,-5.861,3.516,-5.861,12.112,-3.126,-8.596,11.722,25.788,-11.331,3.516,-39.853
'[18:53:31.453 08/07/2079]',-0.391,-3.126,-8.987,-25.788,-4.298,-2.735,-15.629,-16.410,-1.172,-46.496,41.807,2.735,11.331,-1.563,-4.689,-6.642,10.159,-4.689,9.768,3.516,26.569,-10.549,-4.689,-39.853
'[18:53:31.457 08/07/2079]',2.344,-9.768,-14.457,-23.053,-10.159,-7.814,-17.973,-7.814,-3.907,-48.059,41.026,2.735,4.689,0.391,-4.298,-8.987,10.159,-6.252,15.238,12.112,2.735,-3.126,-4.298,-41.026
'[18:53:31.461 08/07/2079]',-7.033,-30.476,-1.563,-21.099,-18.364,-5.079,-23.053,-12.503,-7.814,-48.059,43.370,8.596,0.391,9.377,-1.563,-10.940,10.159,-5.079,2.344,19.927,18.364,-1.172,-1.563,-46.886
'[18:53:31.465 08/07/2079]',-9.377,-30.085,-7.033,-17.973,-18.364,-3.516,-26.569,-16.410,-7.814,-51.184,42.589,17.582,0.391,-3.516,6.642,-1.172,8.205,-8.205,7.814,25.006,17.973,-17.582,6.642,-48.840
'[18:53:31.469 08/07/2079]',0.781,-22.271,10.159,-18.364,-8.596,7.033,-20.708,-5.470,-5.079,-50.012,44.151,12.503,3.907,-13.675,11.331,0.391,11.722,-8.596,-9.377,28.132,9.377,-28.913,11.331,-49.231
'[18:53:31.473 08/07/2079]',4.298,-31.648,33.993,-3.516,-6.252,14.457,-19.536,15.629,-2.735,-50.012,42.979,12.503,5.470,-17.192,7.033,7.033,14.066,-5.861,-33.211,32.039,16.020,-37.509,7.033,-43.761
'[18:53:31.477 08/07/2079]',-1.563,-16.801,20.317,-16.020,-10.159,8.205,-22.662,10.940,-12.112,-58.608,36.337,15.629,0.391,-13.284,-25.788,21.099,6.252,-8.596,-19.536,18.755,6.252,-24.615,-25.788,-40.244
'[18:53:31.480 08/07/2079]',9.768,-9.768,14.066,-28.913,-7.814,3.516,-15.238,5.861,-7.814,-54.310,33.602,-1.172,4.298,-3.126,-35.946,4.298,3.907,-9.377,-13.284,20.708,-12.503,-10.549,-35.946,-39.072
'[18:53:31.484 08/07/2079]',5.861,-21.490,8.596,-25.006,-21.099,3.126,-17.192,4.689,-7.033,-53.138,34.774,-5.861,8.596,4.689,-33.602,-12.112,1.172,-7.424,-7.814,21.490,1.954,-4.689,-33.602,-38.291
'[18:53:31.488 08/07/2079]',-7.814,-13.675,-1.172,-25.788,-26.960,-4.298,-5.470,-10.549,-8.987,-44.151,35.556,1.172,7.814,10.159,-20.317,-13.284,-2.735,-3.516,1.954,1.172,30.867,-3.126,-20.317,-38.291
'[18:53:31.492 08/07/2079]',-8.205,11.331,3.516,-36.728,-11.331,-7.814,15.238,-23.834,5.861,-36.337,34.383,-10.549,24.615,-0.391,-6.252,-24.225,0.781,-2.344,-2.735,-0.391,44.151,-16.801,-6.252,-37.509
'[18:53:31.496 08/07/2079]',-17.192,-3.516,10.549,-25.397,-14.847,17.192,-17.192,-18.364,4.689,-42.198,25.006,-6.642,23.443,-16.020,-7.033,-18.755,1.954,-9.377,-9.768,14.847,58.608,-33.993,-7.033,-39.853
'[18:53:31.500 08/07/2079]',-18.755,9.377,20.317,-31.258,-7.424,22.271,-16.801,-17.192,6.642,-39.463,25.006,-1.563,21.099,-20.708,-2.344,-5.861,3.907,-6.252,-19.536,5.079,54.701,-42.589,-2.344,-49.231
'[18:53:31.504 08/07/2079]',-7.814,7.033,18.364,-27.741,-5.861,19.145,-12.503,-9.768,-0.781,-46.886,24.615,4.298,8.205,-22.271,-11.722,8.205,0.391,-3.907,-17.582,-1.954,21.880,-23.443,-11.722,-58.217
'[18:53:31.508 08/07/2079]',-9.377,3.907,24.225,-23.443,-10.940,21.099,-14.847,0.391,0.391,-46.496,30.085,14.847,8.205,-8.596,-8.205,8.596,0.781,-1.954,-23.443,-2.344,20.708,-7.424,-8.205,-66.032
'[18:53:31.512 08/07/2079]',-7.033,11.331,20.708,-19.927,-9.768,16.801,-8.205,6.642,2.344,-41.807,31.648,21.490,15.629,-4.298,-9.377,13.284,2.344,0.781,-19.927,-10.549,35.556,-9.377,-9.377,-60.952
'[18:53:31.516 08/07/2079]',-7.033,-1.954,27.350,-16.801,-9.377,16.410,-4.298,0.391,-3.126,-44.933,33.211,26.569,8.205,5.470,-27.741,25.397,-0.781,3.126,-26.569,-0.781,24.615,11.722,-27.741,-41.807
'[18:53:31.520 08/07/2079]',0.000,-3.126,20.708,-8.205,-5.079,17.973,-1.954,0.000,4.298,-44.933,30.867,28.132,22.662,-7.424,-22.271,27.350,-0.391,1.954,-19.927,4.689,29.695,-4.689,-22.271,-18.755
'[18:53:31.523 08/07/2079]',0.391,2.344,11.331,-21.880,-6.642,21.099,-10.159,-9.377,5.079,-35.165,22.662,12.112,21.099,-18.755,-17.973,21.880,0.781,-2.344,-10.549,6.252,25.788,-28.523,-17.973,-1.954
'[18:53:31.527 08/07/2079]',-8.205,7.814,28.913,-23.443,-12.503,22.662,-3.907,-0.781,3.516,-35.165,27.350,6.252,16.020,-21.490,-11.722,21.099,2.735,0.391,-28.132,3.126,9.768,-20.708,-11.722,-2.735
'[18:53:31.531 08/07/2079]',-13.284,29.695,-0.391,-19.536,-17.192,12.894,1.954,-1.172,1.563,-28.523,26.960,8.596,10.159,-16.020,0.391,14.847,2.344,-3.126,1.172,-22.271,7.814,-13.675,0.391,-14.457
'[18:53:31.535 08/07/2079]',-10.940,13.284,16.410,-32.430,-15.629,19.145,-5.079,-11.331,6.252,-23.053,19.927,-5.470,21.880,-23.834,8.596,-8.596,5.470,-11.331,-15.629,-8.205,31.258,-28.913,8.596,-32.039
'[18:53:31.539 08/07/2079]',-14.457,1.954,15.629,-11.722,-15.629,19.927,-14.457,2.735,0.781,-26.960,17.192,-1.563,21.099,-23.834,2.344,-10.159,5.861,-12.503,-14.847,-5.470,44.151,-23.443,2.344,-43.761
'[18:53:31.543 08/07/2079]',-14.066,-0.781,9.377,-12.503,-11.722,9.768,-8.596,-7.033,-0.781,-26.960,14.847,-7.033,19.927,-19.145,3.907,-24.225,6.642,-13.284,-8.596,-1.172,41.026,-14.066,3.907,-51.184
'[18:53:31.547 08/07/2079]',-6.642,-6.252,14.457,-13.675,-5.470,14.066,-10.549,-8.987,8.205,-23.443,10.940,-10.159,27.350,-7.814,-5.861,-26.569,12.112,-11.331,-13.675,17.582,39.072,-16.801,-5.861,-47.668
'[18:53:31.551 08/07/2079]',-6.252,-14.066,24.615,-10.940,-5.861,14.066,-1.954,-11.722,8.987,-19.145,17.192,-25.006,25.006,11.722,-19.145,-35.556,15.629,-3.516,-23.834,29.695,34.383,0.000,-19.145,-29.695
'[18:53:31.555 08/07/2079]',-6.252,-0.781,23.053,-10.159,-0.781,11.331,13.675,-18.755,10.549,-17.192,26.569,-10.940,20.708,11.722,-8.205,-14.847,18.364,4.298,-22.271,7.424,35.946,2.735,-8.205,0.781
'[18:53:31.559 08/07/2079]',-16.410,8.987,24.225,-12.503,-8.596,3.907,21.490,-12.503,7.424,-22.271,24.615,-7.033,13.675,11.331,-14.066,-7.424,13.284,1.954,-23.443,-6.252,41.807,2.344,-14.066,38.291
'[18:53:31.563 08/07/2079]',-25.397,25.788,10.940,-17.582,-17.582,0.391,21.880,-10.549,1.954,-26.960,25.397,-8.987,10.549,0.000,-9.377,-8.987,7.814,-0.781,-10.159,-19.536,45.714,-9.377,-9.377,67.985
'[18:53:31.566 08/07/2079]',-20.317,21.880,-0.781,-19.536,-16.020,0.000,19.145,-20.317,0.391,-26.960,23.834,-12.503,10.549,-10.940,-1.563,-12.112,4.689,0.391,1.563,-29.304,51.575,-17.973,-1.563,78.926
'[18:53:31.570 08/07/2079]',-17.973,-8.987,-5.079,-1.954,-16.410,-0.391,0.781,-16.801,-3.907,-31.258,16.410,1.954,1.172,-15.238,-3.126,1.563,1.954,-4.298,5.861,-5.470,33.602,-13.284,-3.126,70.330
'[18:53:31.574 08/07/2079]',-15.629,-14.066,-3.126,-14.066,-14.457,8.205,-12.503,-26.569,0.391,-26.178,15.238,-4.298,4.689,-6.252,-2.735,-9.768,5.079,-7.033,3.907,8.205,36.337,-14.847,-2.735,51.184
'[18:53:31.578 08/07/2079]',-3.516,-26.178,0.391,-17.192,-3.126,10.159,-21.099,-31.648,4.298,-26.178,17.192,-2.344,9.768,-8.987,0.391,-7.424,7.424,-5.861,0.391,19.536,36.728,-16.801,0.391,34.774
'[18:53:31.582 08/07/2079]',4.298,-25.397,23.443,-15.238,4.689,7.424,-5.079,-18.755,1.954,-29.695,21.880,1.954,4.689,-3.516,-10.940,6.642,7.033,-3.516,-22.662,14.066,31.648,-8.205,-10.940,30.867
'[18:53:31.586 08/07/2079]',7.424,-3.516,24.615,-13.675,7.424,5.861,5.470,-4.689,2.735,-31.648,28.523,-3.516,5.470,12.112,-18.364,-2.344,6.642,-3.907,-23.834,1.172,31.258,-2.735,-18.364,38.291
'[18:53:31.590 08/07/2079]',18.364,-4.689,21.880,-9.768,13.675,2.344,8.987,0.391,2.344,-33.602,29.695,-11.331,6.642,-3.516,-14.066,-0.781,8.205,-3.516,-21.099,2.344,21.490,-12.112,-14.066,41.807
'[18:53:31.594 08/07/2079]',16.801,2.735,10.940,-4.298,16.020,2.735,8.987,-1.563,0.781,-32.430,29.695,-9.768,0.781,-0.781,-13.675,2.735,8.596,-1.954,-10.159,-7.424,8.205,-0.781,-13.675,26.569
'[18:53:31.598 08/07/2079]',11.331,5.861,0.781,-5.470,13.675,-0.781,6.642,-6.642,0.391,-31.258,27.350,-8.987,-3.907,-15.238,0.781,7.033,8.205,-5.861,0.000,-0.391,-1.172,-20.317,0.781,-3.516
'[18:53:31.602 08/07/2079]',26.569,-11.722,5.079,-14.066,21.880,13.284,-1.954,-27.741,5.079,-27.741,28.913,-16.020,-1.563,-15.629,2.735,5.079,11.331,-6.642,-4.298,10.549,-6.252,-16.801,2.735,-44.151
'[18:53:31.605 08/07/2079]',22.271,-12.503,18.364,-9.377,18.755,19.536,-2.735,-16.020,3.516,-26.178,30.085,-8.987,-7.424,-7.424,4.298,8.987,13.284,-3.516,-17.582,-0.781,-2.735,-6.252,4.298,-73.455
'[18:53:31.609 08/07/2079]',14.066,-2.735,25.006,-16.801,16.410,12.894,5.470,-15.629,5.861,-29.695,29.695,-11.331,-1.172,-2.735,-6.252,5.861,12.503,-2.735,-24.225,-8.987,5.470,-1.563,-6.252,-89.866
'[18:53:31.613 08/07/2079]',15.238,-4.298,19.536,-15.238,14.847,11.331,4.298,-15.238,5.861,-25.788,26.569,-12.503,-2.344,0.781,-5.470,1.172,14.066,-6.642,-18.755,-0.391,-3.126,3.907,-5.470,-85.958
'[18:53:31.617 08/07/2079]',21.880,-6.642,13.675,-12.503,16.020,10.940,3.516,-14.457,5.079,-23.443,23.053,-5.861,-0.781,-1.954,-9.377,12.112,14.457,-1.172,-12.894,0.391,-2.735,-5.470,-9.377,-78.926
'[18:53:31.621 08/07/2079]',33.993,2.735,2.735,-21.099,26.178,12.503,6.642,-27.350,2.735,-17.192,18.755,-16.410,-0.391,-14.847,-4.689,9.377,14.457,0.391,-1.954,-1.172,-18.364,-16.801,-4.689,-75.018
'[18:53:31.625 08/07/2079]',21.099,-0.391,13.284,-16.020,20.317,9.768,2.344,-14.847,1.954,-18.364,23.443,-3.516,-10.159,-5.079,-2.735,22.271,16.020,-10.549,-12.503,18.364,-35.165,-9.768,-2.735,-78.535
'[18:53:31.629 08/07/2079]',19.145,8.205,25.397,-26.569,20.708,15.629,2.344,-12.894,8.596,-19.145,33.211,-12.503,1.954,3.126,-16.410,21.099,19.927,-5.470,-24.615,19.536,-21.099,-7.033,-16.410,-88.303
'[18:53:31.633 08/07/2079]',8.987,13.284,31.648,-25.397,19.927,15.629,10.159,-17.192,7.424,-18.364,35.556,-19.536,0.391,6.252,-7.033,5.079,21.099,9.377,-30.867,3.126,-2.735,1.172,-7.033,-96.899
'[18:53:31.637 08/07/2079]',-8.987,8.987,31.648,-18.364,11.331,11.331,4.689,-14.847,7.814,-26.960,37.509,-21.490,3.907,14.066,-18.364,-2.735,19.536,2.344,-30.867,5.861,14.847,12.503,-18.364,-108.230
'[18:53:31.641 08/07/2079]',8.205,4.298,29.695,-28.523,14.457,10.940,1.563,-13.675,9.377,-19.145,30.476,-27.741,4.298,4.689,-3.126,-13.284,18.364,-14.066,-28.913,1.172,21.099,-5.861,-3.126,-113.309
'[18:53:31.645 08/07/2079]',8.205,-1.172,28.523,-25.006,14.066,9.377,-5.470,-7.033,5.079,-18.364,18.755,-26.178,0.391,-7.814,7.424,-19.145,16.020,-26.960,-27.741,8.205,16.801,-17.582,7.424,-116.044
'[18:53:31.648 08/07/2079]',5.079,-2.735,-2.344,-13.284,11.331,6.642,-26.960,-4.689,1.563,-22.271,11.722,-21.490,-5.861,-3.516,-0.391,-18.364,8.987,-59.780,3.126,15.629,1.563,-10.159,-0.391,-109.402
'[18:53:31.652 08/07/2079]',12.503,-5.470,2.735,-25.006,6.642,9.377,-21.490,-9.377,6.642,-19.536,10.549,-4.298,1.563,12.503,-8.596,-11.722,7.814,-94.554,-1.954,24.615,-10.549,10.549,-8.596,-94.945
'[18:53:31.656 08/07/2079]',13.675,-2.735,-4.689,-19.145,4.689,-0.391,-9.768,-7.424,5.470,-23.053,13.284,-2.735,6.252,20.708,-19.927,-13.284,7.424,-41.807,5.470,20.708,-1.954,17.192,-19.927,-82.833
'[18:53:31.660 08/07/2079]',15.629,-6.252,-35.946,3.126,5.079,7.424,-18.755,-17.192,3.516,-26.569,8.596,2.735,9.377,39.072,-49.621,-9.377,5.470,-24.615,36.728,4.298,10.549,45.714,-49.621,-83.614
'[18:53:31.664 08/07/2079]',25.788,-16.020,-0.781,-7.424,0.391,10.159,5.470,-15.238,5.079,-24.225,14.066,4.689,14.066,36.337,-44.542,-5.470,7.814,-4.298,1.563,11.722,17.973,31.648,-44.542,-80.488
'[18:53:31.668 08/07/2079]',27.741,-12.112,4.689,-17.192,8.596,11.331,8.596,-26.178,1.563,-22.662,16.801,-4.298,10.159,4.298,-12.503,-9.768,9.377,14.066,-3.907,17.192,6.252,-0.781,-12.503,-31.648
'[18:53:31.672 08/07/2079]',30.085,-22.271,-4.298,7.424,7.814,10.159,8.987,-16.410,-1.563,-19.536,14.066,-4.689,0.391,0.391,-6.642,-5.861,7.424,13.675,5.079,13.284,9.377,-8.987,-6.642,95.726
'[18:53:31.676 08/07/2079]',20.317,-21.490,-10.940,-19.145,2.344,1.563,9.377,-46.105,-0.781,-16.801,14.066,-10.159,1.563,-1.563,3.126,-17.192,3.126,3.126,11.722,23.053,5.861,-11.331,3.126,273.504
'[18:53:31.680 08/07/2079]',12.112,-14.847,8.205,-33.211,-4.298,1.563,17.973,-42.198,-1.172,-20.317,17.582,-7.424,5.861,-10.549,-0.781,-5.470,2.344,7.033,-7.424,14.457,8.987,-17.192,-0.781,429.402
'[18:53:31.684 08/07/2079]',16.020,-22.271,7.424,6.252,-3.907,5.079,18.364,-10.940,-0.391,-15.629,13.284,-3.126,8.205,-7.033,-13.284,5.470,4.298,17.582,-6.642,15.238,17.582,-18.364,-13.284,479.414
'[18:53:31.688 08/07/2079]',18.364,-23.834,7.033,6.252,0.391,11.722,10.940,-14.457,-1.563,-17.582,7.814,-8.987,10.159,-10.159,-26.569,5.470,1.954,12.894,-6.252,3.516,27.741,-14.066,-26.569,376.264
'[18:53:31.691 08/07/2079]',8.596,-14.066,11.722,-7.814,-7.424,7.424,10.159,-10.549,-8.205,-20.317,3.907,-12.112,1.954,-18.364,-14.066,-5.079,0.391,5.861,-10.940,11.722,17.973,-27.350,-14.066,187.937
'[18:53:31.695 08/07/2079]',11.722,-15.629,-10.159,-8.987,-9.377,0.000,5.079,-17.582,-6.642,-18.364,-3.126,-20.708,-2.735,-14.457,-17.192,-14.457,-1.563,1.563,10.940,26.960,-1.563,-28.132,-17.192,3.126
'[18:53:31.699 08/07/2079]',5.470,-23.443,-17.192,-22.271,-10.159,-5.470,2.735,-44.933,-12.112,-19.536,-4.689,-30.476,-9.768,-12.112,-20.708,-23.443,-5.861,0.000,17.973,22.271,8.205,-23.053,-20.708,-96.117
'[18:53:31.703 08/07/2079]',6.642,-25.397,-13.284,-31.648,-14.066,-5.470,14.457,-58.217,-13.675,-17.973,3.516,-22.271,-14.457,-5.470,-10.159,-18.755,-7.424,4.689,14.066,17.973,-3.126,-10.549,-10.159,-108.230
'[18:53:31.707 08/07/2079]',15.238,-19.927,-5.079,-24.615,-10.549,-6.642,25.006,-42.198,-2.735,-15.629,5.470,-10.549,-7.033,3.516,-21.490,0.781,-1.954,10.940,5.861,18.364,-13.675,0.000,-21.490,-77.363
'[18:53:31.711 08/07/2079]',14.066,-14.457,-4.298,-6.642,1.172,15.629,3.126,-32.039,0.391,-13.284,9.768,-5.470,-5.079,1.563,-11.722,7.424,4.689,12.112,5.079,1.954,-0.781,6.252,-11.722,-51.575
'[18:53:31.715 08/07/2079]',16.020,-7.424,-6.642,-8.205,1.172,13.284,6.252,-27.350,0.391,-14.066,10.940,3.907,-13.675,-12.503,11.722,15.629,4.298,9.768,7.424,-3.516,-19.536,-2.344,11.722,-63.297
'[18:53:31.719 08/07/2079]',23.443,-4.298,5.470,-8.987,3.516,16.020,13.284,-17.582,9.768,-12.503,9.768,-0.781,-1.563,-7.033,2.735,10.940,9.377,7.814,-4.689,11.331,-21.490,-3.907,2.735,-110.574
'[18:53:31.723 08/07/2079]',10.549,-15.629,-11.331,8.205,3.516,21.490,-15.238,-17.192,3.516,-17.973,4.689,1.172,-8.205,-13.284,3.126,11.722,7.033,-1.563,12.112,11.331,-17.973,0.781,3.126,-173.871
'[18:53:31.727 08/07/2079]',4.689,-9.377,24.615,-9.768,2.344,16.801,5.470,-14.066,0.391,-21.099,14.457,-2.344,-11.331,-4.689,5.079,3.126,5.079,3.907,-23.834,5.079,-1.954,-1.954,5.079,-209.426
'[18:53:31.730 08/07/2079]',5.079,-4.298,21.099,0.781,1.172,17.973,7.033,-4.689,3.516,-19.145,16.020,3.516,0.391,18.755,-19.927,5.470,6.642,8.205,-20.317,16.410,-0.781,15.238,-19.927,-209.426
'[18:53:31.734 08/07/2079]',7.814,-7.033,26.569,-1.172,3.907,22.662,-2.344,1.563,-1.563,-16.801,20.317,12.112,-5.861,12.894,-4.298,12.894,5.861,8.987,-25.788,11.331,-3.126,10.159,-4.298,-163.712
'[18:53:31.738 08/07/2079]',11.722,-5.861,34.774,-12.894,4.298,19.927,8.205,-5.079,-4.298,-11.722,26.569,7.424,-4.689,17.192,3.126,1.563,3.907,19.145,-33.993,8.205,3.126,9.377,3.126,-109.792
'[18:53:31.742 08/07/2079]',12.112,-1.954,13.675,-9.768,0.000,9.377,7.033,-3.516,-7.814,-3.516,18.364,14.847,-10.940,6.252,25.006,1.563,0.781,14.847,-12.894,11.722,-12.503,1.172,25.006,-65.641
'[18:53:31.746 08/07/2079]',7.424,-4.689,26.569,-33.602,-4.298,2.735,6.642,-9.377,-8.205,-3.126,12.503,12.894,-5.861,-1.563,21.880,1.172,-3.516,8.987,-25.788,13.284,-1.172,-12.503,21.880,-35.946
'[18:53:31.750 08/07/2079]',5.861,-16.410,27.741,-15.629,-5.079,-4.689,9.768,1.563,-10.159,-1.563,8.205,10.159,-11.722,7.814,13.284,-2.735,-6.252,11.722,-26.960,10.549,2.344,5.470,13.284,-15.629
'[18:53:31.754 08/07/2079]',8.987,-19.927,25.397,-7.033,-3.126,-5.079,9.377,5.470,-14.066,-4.298,6.252,15.238,-14.066,8.987,3.516,3.516,-8.987,10.159,-24.615,6.642,5.861,4.689,3.516,7.033
'[18:53:31.758 08/07/2079]',8.596,-16.801,39.463,-1.563,-5.079,-2.344,8.596,27.350,-13.284,-8.205,3.907,14.847,-12.112,-4.689,1.563,13.284,-7.424,8.205,-38.681,8.987,4.298,-10.940,1.563,31.648
'[18:53:31.762 08/07/2079]',7.814,-20.317,28.913,-6.252,-9.768,-6.642,3.126,23.443,-18.364,-8.205,2.735,19.536,-19.536,0.781,7.033,6.642,-7.814,7.424,-28.132,15.629,-7.424,0.391,7.033,54.701
'[18:53:31.766 08/07/2079]',3.907,-19.927,18.364,-2.735,-14.847,-8.987,7.424,15.238,-22.271,-6.642,-0.781,23.053,-20.708,-4.298,8.596,8.205,-9.768,6.252,-17.582,17.582,-5.079,-6.252,8.596,66.813
'[18:53:31.770 08/07/2079]',17.973,-16.801,8.987,-16.020,-10.549,1.172,5.079,-1.954,-15.238,3.516,-4.298,17.192,-16.801,1.954,19.927,-3.516,-9.377,5.470,-8.205,3.907,-3.126,-7.424,19.927,67.985
'[18:53:31.773 08/07/2079]',13.675,-12.894,-7.814,-19.927,-8.205,-6.642,-2.344,-8.205,-14.847,6.642,-12.503,22.662,-17.192,16.801,-1.954,4.689,-11.722,2.735,8.596,1.563,-7.033,9.377,-1.954,69.939
'[18:53:31.777 08/07/2079]',13.675,-3.516,17.192,-11.331,-7.814,6.642,9.768,6.642,-12.894,7.424,-2.344,19.145,-17.582,17.582,0.000,11.331,-10.549,14.847,-16.410,-4.298,-8.987,8.596,0.000,67.204
'[18:53:31.781 08/07/2079]',14.066,5.079,27.350,3.907,1.563,23.053,0.000,25.788,-6.252,6.642,0.391,12.503,-16.801,14.457,2.735,12.894,-9.377,15.238,-26.569,-14.457,-6.252,1.954,2.735,73.455
'[18:53:31.785 08/07/2079]',9.768,6.252,26.960,2.344,0.391,21.099,1.954,21.490,-6.642,1.954,4.689,6.642,-16.801,0.000,5.079,18.755,-9.377,13.675,-26.178,-10.159,-10.940,-6.252,5.079,82.442
'[18:53:31.789 08/07/2079]',10.549,-24.615,44.151,7.814,0.781,13.675,2.344,19.536,-7.033,-3.907,0.391,8.987,-17.582,-10.159,3.907,21.490,-7.424,10.940,-43.370,12.503,-10.940,-6.252,3.907,95.726
'[18:53:31.793 08/07/2079]',12.503,-35.165,35.946,5.079,1.172,9.768,0.781,5.861,-9.768,0.000,-3.126,1.563,-23.053,-10.159,12.503,7.814,-6.252,7.814,-35.165,9.377,-8.596,-2.735,12.503,100.806
'[18:53:31.797 08/07/2079]',15.238,-37.509,28.132,-1.954,-0.391,3.516,3.516,-3.907,-3.907,3.907,-12.503,4.298,-19.536,-16.801,14.847,14.066,-3.516,6.642,-27.350,22.271,-21.880,-8.987,14.847,102.369
'[18:53:31.801 08/07/2079]',26.569,-37.509,35.165,-17.192,1.172,6.252,11.722,-12.894,0.000,7.424,-11.722,12.894,-20.708,-8.596,16.020,21.490,2.735,12.894,-34.383,29.304,-31.648,-13.284,16.020,102.759
'[18:53:31.805 08/07/2079]',31.258,-18.364,47.277,-8.596,8.987,19.145,22.271,0.391,6.642,19.145,-9.377,10.549,-14.847,3.126,22.271,16.410,11.331,20.317,-46.496,0.391,-21.099,0.781,22.271,105.495
'[18:53:31.809 08/07/2079]',18.364,10.549,33.993,-3.907,15.238,20.708,22.271,0.000,12.894,23.053,-7.033,5.470,-5.470,19.145,14.847,5.861,16.801,21.099,-33.211,-21.880,7.814,10.159,14.847,101.587
'[18:53:31.813 08/07/2079]',8.987,7.424,42.589,-3.907,15.238,26.960,15.238,-3.907,14.847,22.271,-5.079,3.907,1.954,9.377,16.801,7.424,21.490,19.536,-41.807,-16.020,38.291,-7.033,16.801,96.508
'[18:53:31.816 08/07/2079]',9.768,7.424,33.602,1.172,19.536,29.304,9.768,-7.424,10.940,17.582,-7.424,-0.781,6.642,-5.079,7.033,11.331,21.490,18.364,-32.821,-25.006,40.244,-1.172,7.033,89.084
'[18:53:31.820 08/07/2079]',4.689,-14.066,39.853,3.907,8.205,19.145,15.238,-8.987,0.391,11.331,-0.781,-7.424,-5.470,-12.503,15.629,7.033,16.410,22.662,-39.072,-9.377,32.430,-5.470,15.629,91.819
'[18:53:31.824 08/07/2079]',0.391,-5.079,42.198,-10.159,4.298,16.020,16.801,-10.940,5.079,12.112,-3.516,2.735,-1.954,-8.205,4.298,23.053,19.927,19.536,-41.416,0.781,14.066,-0.391,4.298,104.713
'[18:53:31.828 08/07/2079]',3.907,-1.954,38.291,-14.847,5.470,12.894,16.020,-10.159,7.814,12.112,-5.079,5.861,-0.781,-8.987,3.907,27.741,18.755,14.457,-37.509,1.954,1.954,-3.907,3.907,127.375
'[18:53:31.832 08/07/2079]',12.112,-15.629,28.913,-1.954,3.907,1.172,21.099,-2.735,4.298,16.410,-7.033,10.549,-3.516,9.768,2.344,15.629,14.847,20.708,-28.132,-3.907,14.066,9.768,2.344,150.427
'[18:53:31.836 08/07/2079]',10.940,-7.424,17.192,-3.126,11.722,7.033,11.331,-13.675,11.331,16.801,-6.642,3.126,7.814,15.238,-1.954,3.126,12.894,18.364,-16.410,-12.112,41.416,6.642,-1.954,165.275
'[18:53:31.840 08/07/2079]',11.331,-11.722,11.331,-7.814,11.722,5.079,6.252,-20.317,7.814,12.894,-8.987,2.344,8.205,3.907,3.126,-1.172,9.768,18.755,-10.549,-7.814,52.747,-6.252,3.126,170.354
'[18:53:31.844 08/07/2079]',5.079,-8.987,26.178,-12.112,8.205,6.252,10.549,-15.629,4.298,7.424,-5.470,-0.781,8.205,-2.344,9.768,-10.159,7.424,27.741,-25.397,-12.112,56.264,-2.735,9.768,175.043
'[18:53:31.848 08/07/2079]',-0.781,5.470,28.523,-26.178,8.596,13.284,7.424,-23.443,5.861,8.596,-2.735,-0.781,11.722,1.563,8.987,-11.331,4.689,22.662,-27.741,-9.768,49.231,1.954,8.987,179.731
'[18:53:31.852 08/07/2079]',-0.391,8.205,36.337,-21.099,6.252,15.238,12.894,-13.284,7.814,7.814,-1.563,10.549,11.331,5.079,3.516,4.689,4.298,14.457,-35.556,0.391,28.523,5.079,3.516,191.062
'[18:53:31.855 08/07/2079]',11.331,6.642,36.728,2.344,10.549,15.238,15.238,13.675,11.722,6.252,3.907,15.629,10.549,13.284,4.689,8.987,6.642,14.847,-35.946,-3.126,10.549,15.629,4.689,200.049
'[18:53:31.859 08/07/2079]',12.112,2.735,24.225,0.391,7.033,7.033,17.192,6.252,13.284,5.861,4.689,4.689,15.629,17.582,1.172,-4.298,3.126,10.940,-23.443,-4.298,17.973,19.145,1.172,209.817
'[18:53:31.863 08/07/2079]',6.252,8.596,11.722,-7.424,3.126,-8.205,26.178,-3.126,11.722,1.563,0.781,0.391,9.768,5.861,3.907,-4.298,0.391,6.642,-10.940,5.861,15.238,-2.735,3.907,221.148
'[18:53:31.867 08/07/2079]',9.377,7.814,-5.861,-11.722,5.079,-0.781,17.973,-24.225,12.112,5.079,1.954,-14.847,8.596,-1.954,21.880,-23.053,1.172,8.987,6.642,-5.470,13.675,0.000,21.880,234.432
'[18:53:31.871 08/07/2079]',7.814,0.391,7.424,-33.211,9.377,13.675,10.549,-52.747,16.020,6.252,0.000,-26.960,23.443,2.344,3.907,-34.383,-0.391,14.066,-6.642,-8.987,42.979,5.470,3.907,244.591
'[18:53:31.875 08/07/2079]',-3.907,13.284,12.894,-26.569,8.596,19.145,4.298,-38.291,14.847,8.205,-7.033,-7.033,17.973,0.391,1.563,-11.331,-1.172,9.768,-12.112,-12.112,41.416,0.391,1.563,253.968
'[18:53:31.879 08/07/2079]',5.470,17.582,20.708,-8.596,11.331,24.615,10.940,-12.894,22.662,11.722,-3.126,-3.516,26.960,10.549,-4.689,-4.298,3.126,11.722,-19.927,-14.457,26.178,15.238,-4.689,259.829
'[18:53:31.883 08/07/2079]',19.145,3.907,33.211,12.503,18.755,24.225,14.847,10.549,24.225,6.252,-2.344,13.284,32.821,19.145,-26.178,16.410,4.689,13.284,-32.430,-24.225,41.026,21.099,-26.178,269.206
'[18:53:31.887 08/07/2079]',23.443,10.549,18.364,7.424,14.066,14.457,31.648,-0.781,28.132,11.722,-4.689,0.391,31.648,-7.033,8.987,3.126,3.126,12.112,-17.582,-23.053,38.681,-16.020,8.987,277.802
'[18:53:31.891 08/07/2079]',15.238,22.662,-4.298,5.861,13.284,4.689,23.443,-3.126,24.225,6.642,-14.066,3.516,23.053,-8.205,2.344,3.907,0.391,4.298,5.079,-40.635,33.211,-3.126,2.344,286.789
'[18:53:31.895 08/07/2079]',7.814,11.331,-8.205,0.391,12.503,16.801,0.391,-19.927,19.536,3.907,-16.801,-6.642,22.271,-12.503,1.172,-10.549,0.391,1.563,8.987,-26.178,43.370,-6.642,1.172,288.352
'[18:53:31.898 08/07/2079]',-1.954,9.768,-6.252,-10.549,8.205,18.755,-3.516,-33.993,17.192,3.126,-21.880,-7.814,18.364,-14.847,4.689,-16.801,-0.781,-0.781,7.033,-24.615,46.886,-6.252,4.689,284.444
'[18:53:31.902 08/07/2079]',-1.563,2.735,0.781,-3.126,8.205,22.662,-5.079,-27.741,17.582,5.470,-22.271,-10.159,21.490,-16.020,-4.689,-9.377,-0.391,-4.689,0.000,-12.112,38.291,-5.470,-4.689,274.676
'[18:53:31.906 08/07/2079]',6.252,-4.298,10.940,12.894,11.722,26.178,-4.298,-7.033,22.271,6.642,-17.973,-1.954,26.178,-14.847,-8.205,6.642,4.689,-1.563,-10.159,-3.516,33.993,-11.722,-8.205,260.611
'[18:53:31.910 08/07/2079]',5.470,-7.424,5.079,12.894,8.596,14.066,3.126,-10.159,23.053,2.735,-16.410,-4.298,21.880,-7.033,-17.973,9.768,2.735,-1.563,-4.298,-6.642,27.350,-3.907,-17.973,243.028
'[18:53:31.914 08/07/2079]',10.940,-1.172,20.708,3.126,8.987,9.377,21.099,-6.642,24.225,1.954,-7.424,-2.344,24.225,-10.159,-15.629,18.364,2.344,0.391,-19.927,-1.954,18.755,-15.238,-15.629,221.929
'[18:53:31.918 08/07/2079]',11.722,4.689,12.503,-3.907,7.424,8.205,14.457,-5.861,18.755,-3.126,-3.516,0.391,18.364,-10.940,-13.675,19.927,2.344,-1.563,-11.722,-3.516,7.814,-14.066,-13.675,196.923
'[18:53:31.922 08/07/2079]',1.172,7.033,8.987,-14.847,4.298,7.424,7.033,-17.582,15.238,-8.596,-5.079,-3.516,19.145,-6.642,-13.675,-0.781,-1.172,-2.735,-8.205,-9.377,15.629,-0.391,-13.675,162.930
'[18:53:31.926 08/07/2079]',-10.549,26.178,10.159,-26.569,4.298,7.814,7.424,-21.099,16.410,-2.344,-10.159,-1.563,19.536,-16.410,5.470,-7.033,-1.563,-6.252,-9.377,-21.490,21.490,-9.377,5.470,113.309
'[18:53:31.930 08/07/2079]',4.689,22.662,-14.066,-21.880,0.000,3.516,1.563,-14.457,13.284,-2.344,-8.987,1.563,21.099,-17.192,12.503,-13.284,-1.563,-9.377,14.847,-27.350,7.814,-2.344,12.503,49.621
'[18:53:31.934 08/07/2079]',-0.781,13.284,-7.033,-10.159,0.391,16.410,-12.112,-10.549,17.192,0.391,-15.629,10.940,25.006,-1.172,-8.596,-0.391,1.563,-6.642,7.814,-15.629,5.861,18.755,-8.596,-17.192
'[18:53:31.938 08/07/2079]',7.424,-11.722,-3.516,10.940,-7.424,3.126,-0.391,5.861,10.549,-0.781,-21.880,28.132,16.020,3.516,-19.536,14.847,0.391,-5.079,4.298,-14.066,8.596,20.317,-19.536,-74.237
'[18:53:31.941 08/07/2079]',23.053,-28.913,-1.172,-2.735,-18.364,1.954,9.377,-4.298,11.331,-5.861,-13.675,13.284,27.741,-3.126,-18.364,-0.391,0.391,-5.470,1.954,5.470,10.940,3.516,-18.364,-121.123
'[18:53:31.945 08/07/2079]',-3.907,-9.377,8.987,-5.470,-10.159,16.020,-10.159,-5.470,17.582,2.735,-25.397,11.722,26.178,-5.079,-12.894,0.391,3.907,-8.205,-8.205,13.675,16.020,-4.298,-12.894,-156.679
'[18:53:31.949 08/07/2079]',-0.391,-9.768,12.894,-3.516,-6.252,15.238,-1.563,-8.596,15.238,1.172,-25.788,14.457,19.145,-5.861,-6.642,0.391,4.689,-4.689,-12.112,1.563,25.006,-7.424,-6.642,-187.155
'[18:53:31.953 08/07/2079]',2.344,1.172,8.596,-10.549,5.079,18.755,0.391,-21.490,16.801,6.252,-19.145,1.954,21.880,-3.126,2.344,-13.675,5.079,-3.126,-7.814,-10.549,28.913,-1.954,2.344,-210.598
'[18:53:31.957 08/07/2079]',10.940,7.033,-2.344,-7.814,11.722,26.569,-16.801,-14.847,20.317,9.768,-15.629,5.079,24.225,5.861,7.814,-16.801,7.814,-1.954,3.126,-8.987,13.675,10.159,7.814,-227.399
'[18:53:31.961 08/07/2079]',12.503,3.516,-10.159,-6.252,10.940,16.410,-12.894,-17.192,15.629,5.470,-13.675,8.987,21.099,7.814,2.735,-14.847,4.298,2.344,10.940,-9.768,9.768,16.801,2.735,-239.121
'[18:53:31.965 08/07/2079]',16.801,3.907,-15.238,-17.582,7.814,7.424,1.172,-30.085,16.801,10.159,-12.112,-3.516,30.085,3.126,11.331,-33.993,0.391,3.126,16.020,-3.907,19.145,-0.391,11.331,-241.074
'[18:53:31.969 08/07/2079]',25.397,0.781,-14.847,-19.927,8.987,10.940,0.000,-30.085,17.582,12.112,-12.112,-4.689,33.993,7.033,5.079,-32.821,-0.391,1.172,15.629,1.563,10.159,2.344,5.079,-242.247
'[18:53:31.973 08/07/2079]',22.662,0.000,1.172,-17.973,12.894,14.066,2.735,-25.006,16.020,10.549,-12.894,-1.563,30.085,1.954,8.987,-28.523,-1.954,6.252,-0.391,-5.079,26.178,-2.344,8.987,-241.465
'[18:53:31.977 08/07/2079]',23.834,0.000,13.675,-15.238,8.596,12.112,10.549,-9.768,11.722,12.112,-12.112,3.126,25.788,14.066,0.000,-23.053,-0.391,12.894,-12.894,-18.364,34.383,7.033,0.000,-240.293
'[18:53:31.980 08/07/2079]',11.722,3.907,16.410,-3.126,3.516,13.675,3.516,7.424,7.033,7.033,-5.861,12.112,24.615,11.722,-3.516,-10.549,-1.172,10.940,-15.629,-22.662,40.244,9.768,-3.516,-232.088
'[18:53:31.984 08/07/2079]',8.596,8.596,2.344,-1.563,1.172,19.145,-10.549,7.424,5.470,3.516,-3.907,16.801,25.006,7.033,-3.907,-3.516,-0.781,10.940,-1.563,-21.099,35.165,5.079,-3.907,-216.850
'[18:53:31.988 08/07/2079]',12.894,-1.954,1.954,-9.377,0.391,16.020,-6.252,-7.033,5.079,1.172,0.391,11.331,23.443,10.940,-6.642,-7.814,0.000,11.722,-1.172,-8.596,17.973,12.503,-6.642,-203.565
'[18:53:31.992 08/07/2079]',10.549,7.814,1.954,-3.907,-2.344,9.377,8.205,1.172,9.377,7.033,0.000,8.205,29.695,6.642,0.000,-10.549,0.781,9.768,-1.172,-8.205,13.675,10.549,0.000,-192.625
'[18:53:31.996 08/07/2079]',14.457,1.563,-2.344,-7.814,-2.735,26.960,-15.238,-2.735,8.987,3.907,-0.391,0.391,30.867,5.861,-4.689,-16.801,0.781,3.516,3.126,11.331,10.549,-3.907,-4.689,-186.374
'[18:53:32.000 08/07/2079]',22.271,3.907,9.377,-12.503,-1.563,25.788,-3.516,2.344,8.596,3.126,0.000,-6.252,33.993,-1.954,-5.470,-19.927,5.079,9.377,-8.596,5.470,12.894,-10.549,-5.470,-178.559
'[18:53:32.004 08/07/2079]',24.225,-9.768,4.689,5.470,-12.894,17.192,-1.954,21.490,-1.563,5.861,-2.735,4.298,20.317,-1.172,-7.814,-4.298,1.563,11.331,-3.907,-3.126,19.927,-12.503,-7.814,-165.665
'[18:53:32.008 08/07/2079]',-0.781,-6.642,14.066,-4.689,-8.596,18.364,-23.834,14.066,-3.907,0.000,-8.205,5.079,12.894,-5.470,-15.629,1.172,0.391,2.344,-13.284,12.503,11.722,-13.284,-15.629,-150.427
'[18:53:32.012 08/07/2079]',0.391,-1.563,17.973,1.563,-13.675,14.847,-14.457,31.648,-1.954,1.563,-4.298,25.006,14.457,-5.470,-1.954,12.112,4.298,8.987,-17.192,11.722,1.563,-6.642,-1.954,-131.282
'[18:53:32.016 08/07/2079]',7.424,-6.252,0.391,-1.954,-12.503,0.391,-3.907,14.066,-3.516,3.516,-1.563,17.582,8.205,11.722,-7.814,3.516,0.000,10.159,0.391,4.689,-3.126,7.814,-7.814,-118.388
'[18:53:32.020 08/07/2079]',13.675,-2.344,5.079,-14.457,-7.424,13.675,-5.470,1.563,1.563,4.689,1.563,8.205,19.927,-11.722,16.410,-7.424,-1.172,8.205,-4.298,0.391,-2.344,-13.284,16.410,-103.150
'[18:53:32.023 08/07/2079]',14.847,-2.735,5.861,-2.344,-7.814,19.536,-13.675,16.801,2.344,4.298,-0.391,16.020,29.304,-22.271,20.317,-3.907,0.391,8.205,-5.079,3.126,18.364,-37.900,20.317,-94.164
'[18:53:32.027 08/07/2079]',13.675,9.377,-1.954,-14.847,-14.457,3.907,4.689,10.940,-3.516,6.252,3.516,2.735,23.834,-8.596,5.470,-10.549,-1.563,9.377,2.735,-10.159,16.801,-30.085,5.470,-82.051
'[18:53:32.031 08/07/2079]',24.225,-5.079,11.331,-11.722,-7.424,-2.344,12.112,15.629,7.033,12.112,0.391,7.033,29.304,-11.722,12.112,-1.954,1.563,8.596,-10.549,-1.563,3.907,-23.443,12.112,-76.190
'[18:53:32.035 08/07/2079]',21.099,-7.424,8.987,14.847,-3.907,5.861,-6.252,41.807,5.861,10.549,-3.907,33.993,24.615,-1.954,0.391,24.225,6.252,1.954,-8.205,8.205,-6.252,-11.722,0.391,-70.720
'[18:53:32.039 08/07/2079]',28.132,13.675,-11.331,-3.907,-10.940,-9.377,18.364,26.960,4.689,13.675,5.861,18.364,17.192,8.987,8.205,8.205,5.079,4.689,12.112,-13.284,-20.317,0.781,8.205,-67.985
'[18:53:32.043 08/07/2079]',16.410,14.066,-16.801,-5.861,-0.391,-14.066,5.861,15.629,5.470,9.768,-0.781,21.099,11.331,-2.344,10.549,17.192,7.033,-0.391,17.582,-15.238,-32.430,8.205,10.549,-63.297
'[18:53:32.047 08/07/2079]',4.298,-10.940,6.642,-14.457,-1.172,18.364,-32.430,0.781,1.563,6.642,-1.172,15.629,8.596,-11.722,10.159,15.629,8.205,-8.205,-5.861,6.642,-15.238,-6.252,10.159,-55.873
'[18:53:32.051 08/07/2079]',-7.424,16.020,0.781,-18.364,3.907,24.225,-29.304,-9.377,8.987,14.847,-1.954,3.907,20.317,-7.033,15.238,-0.781,13.284,-3.126,0.000,-12.112,13.284,-11.331,15.238,-44.151
'[18:53:32.055 08/07/2079]',-1.563,-14.847,15.238,1.563,-0.391,21.880,-25.788,5.079,6.642,7.033,-0.391,14.066,17.582,0.391,0.391,10.549,15.238,-0.391,-14.457,-5.079,14.457,6.252,0.391,-34.383
'[18:53:32.059 08/07/2079]',2.735,-1.172,15.629,2.344,2.735,21.880,-14.066,8.596,11.722,8.596,11.722,11.331,29.695,8.596,3.907,1.954,19.536,3.126,-14.847,-11.331,38.291,-3.907,3.907,-26.960
'[18:53:32.063 08/07/2079]',10.159,20.708,4.689,-3.907,-1.954,11.722,5.079,15.629,14.066,9.768,16.410,10.940,33.602,7.814,15.629,-3.907,21.490,8.205,-3.907,-16.020,23.834,-10.159,15.629,-25.788
'[18:53:32.066 08/07/2079]',3.907,28.913,0.391,-3.126,-11.331,6.642,17.192,16.410,3.907,0.781,25.006,16.801,22.662,9.768,5.861,7.424,19.145,13.284,0.391,-24.225,15.629,1.172,5.861,-25.788
'[18:53:32.070 08/07/2079]',17.973,21.099,5.079,-20.708,5.079,0.391,16.410,0.391,3.126,3.907,32.430,1.954,16.020,7.814,13.675,3.126,15.238,12.503,-4.298,-14.457,6.252,-20.708,13.675,-27.350
'[18:53:32.074 08/07/2079]',8.987,23.443,13.284,-28.523,10.940,19.145,-11.331,-1.172,20.317,15.629,6.252,1.172,25.397,0.000,23.053,-3.516,22.271,5.861,-12.503,-7.033,-10.159,-7.033,23.053,-30.085
'[18:53:32.078 08/07/2079]',-1.954,44.542,1.954,-26.960,5.861,12.894,-3.126,0.391,17.973,13.675,11.722,-1.954,20.708,1.563,25.006,-5.470,23.443,3.126,-1.172,-30.476,2.344,-7.424,25.006,-36.337
'[18:53:32.082 08/07/2079]',1.172,7.424,7.814,8.596,5.470,1.563,-13.284,31.648,9.768,3.126,3.516,32.821,11.722,-9.768,16.410,31.648,23.053,1.563,-7.033,-14.457,-7.033,-8.205,16.410,-38.291
'[18:53:32.086 08/07/2079]',7.033,7.424,15.629,-8.205,6.252,-0.391,3.516,11.331,22.271,7.814,5.079,8.987,27.350,-0.781,20.317,-1.172,33.602,1.563,-14.847,1.172,-16.410,5.861,20.317,-35.946
'[18:53:32.090 08/07/2079]',5.470,6.642,-5.470,3.516,-3.907,-24.615,19.145,18.755,9.768,2.735,10.940,19.536,17.582,3.907,20.708,1.954,33.211,3.516,6.252,-0.391,-16.801,3.516,20.708,-29.695
'[18:53:32.094 08/07/2079]',-1.954,-8.987,7.424,2.735,2.735,0.000,-19.927,15.238,9.768,3.126,7.424,18.755,19.145,5.861,14.847,-0.391,37.509,1.172,-6.642,23.053,-12.503,4.689,14.847,-25.006
'[18:53:32.098 08/07/2079]',-8.596,-6.252,12.894,-16.020,3.907,-12.503,-14.066,3.907,16.410,7.814,3.907,1.954,25.788,25.006,1.172,-21.099,34.383,1.954,-12.112,26.960,-3.907,21.099,1.172,-19.927
'[18:53:32.102 08/07/2079]',8.987,17.973,10.940,-40.635,11.331,10.159,-7.814,-16.801,27.741,16.020,22.271,-26.178,43.370,21.099,22.662,-46.886,39.463,11.331,-10.159,7.033,14.066,2.735,22.662,-21.880
'[18:53:32.105 08/07/2079]',-4.298,-7.424,30.085,-12.503,-4.689,28.523,-41.807,22.662,19.536,1.172,12.112,10.940,30.476,12.894,1.172,-1.172,37.509,12.503,-29.304,28.523,-4.298,14.066,1.172,-25.397
'[18:53:32.109 08/07/2079]',-9.768,2.344,45.324,-28.523,3.126,21.099,-32.039,16.020,29.304,1.172,18.755,-7.424,31.648,17.582,8.596,-16.410,32.039,22.271,-44.542,18.755,-12.503,28.523,8.596,-35.165
'[18:53:32.113 08/07/2079]',-13.675,31.258,10.940,-17.582,-12.112,13.675,-16.020,24.225,29.695,0.781,25.788,-10.159,37.118,29.304,11.722,-32.430,18.755,19.927,-10.159,-0.781,-1.172,17.582,11.722,-40.635
'[18:53:32.117 08/07/2079]',-8.987,8.205,-9.768,1.563,-28.132,10.940,-32.821,39.463,20.708,-5.861,8.987,16.020,26.178,17.582,0.391,-4.298,0.391,10.159,10.549,1.954,-8.987,13.284,0.391,-44.933
'[18:53:32.121 08/07/2079]',-4.298,-23.053,12.112,8.205,-2.735,0.391,-41.807,37.118,21.099,-4.298,12.503,7.424,27.741,14.457,9.377,-15.238,-19.145,10.159,-11.331,3.126,22.662,10.549,9.377,-44.933
'[18:53:32.125 08/07/2079]',5.861,-1.563,5.079,-7.424,-3.516,-8.987,-15.629,30.476,31.648,-6.252,19.927,-11.331,46.105,35.556,-3.907,-44.542,-14.457,12.894,-4.298,-7.424,42.589,19.536,-3.907,-44.933
'[18:53:32.129 08/07/2079]',21.490,-58.217,36.337,-0.391,-14.847,28.132,-50.403,35.556,32.430,-12.112,21.490,4.689,49.621,10.940,5.470,-19.927,-6.642,7.424,-35.556,42.979,14.457,12.503,5.470,-43.370
'[18:53:32.133 08/07/2079]',1.563,-39.463,57.827,0.781,7.424,25.397,-44.542,30.867,44.933,-7.033,19.927,-5.861,55.873,11.722,12.503,-28.132,6.642,8.205,-57.045,47.668,3.516,25.006,12.503,-43.370
'[18:53:32.137 08/07/2079]',-10.159,-2.344,24.615,-4.689,-1.954,35.165,-40.244,13.284,51.575,-12.112,28.913,-23.834,67.595,35.165,-2.344,-55.482,7.033,16.410,-23.834,10.159,21.880,44.933,-2.344,-43.370
'[18:53:32.141 08/07/2079]',-8.596,30.085,-17.582,-5.861,-8.987,47.277,-58.608,17.192,60.952,-18.755,31.258,-19.536,79.707,23.443,2.344,-51.184,5.079,10.940,18.364,-2.735,7.033,26.960,2.344,-48.449
'[18:53:32.145 08/07/2079]',-23.834,7.814,-3.907,12.894,-22.662,21.880,-44.542,37.118,51.575,-22.271,21.880,0.391,66.422,10.549,1.954,-27.741,-3.126,19.145,4.689,16.410,13.675,14.847,1.954,-51.184
'[18:53:32.148 08/07/2079]',2.344,-5.079,-5.861,0.391,-21.490,21.880,-28.913,19.536,46.105,-28.523,34.774,-8.596,60.952,28.523,-8.596,-37.900,3.126,33.211,6.642,0.781,37.900,17.973,-8.596,-54.310
'[18:53:32.152 08/07/2079]',22.271,-15.629,-2.344,-7.814,-18.364,45.714,-55.092,23.053,40.244,-47.668,46.496,2.735,58.608,13.284,-17.973,-11.722,10.940,25.397,3.126,7.424,21.490,5.861,-17.973,-50.012
'[18:53:32.156 08/07/2079]',13.284,-35.165,16.801,-1.563,-27.741,54.310,-72.674,38.681,23.834,-26.960,24.615,8.987,39.072,5.861,-14.066,0.391,13.675,-4.689,-16.020,39.463,4.298,-0.781,-14.066,-49.231
'[18:53:32.160 08/07/2079]',14.066,-8.205,8.205,-15.629,-14.457,82.051,-95.726,25.006,11.331,-14.847,19.927,0.391,25.788,4.298,-9.377,-3.516,9.768,-18.755,-7.424,-8.596,16.020,0.000,-9.377,-46.105
'[18:53:32.164 08/07/2079]',9.768,10.549,28.523,-51.575,-9.377,122.295,-131.673,15.629,12.894,-26.178,39.853,-12.503,32.039,-5.470,0.391,-12.112,9.768,-1.954,-27.741,-9.377,5.470,-5.861,0.391,-46.886
'[18:53:32.168 08/07/2079]',-12.894,-16.020,42.979,-25.788,-29.304,110.183,-141.441,47.277,3.907,-18.755,16.020,6.642,5.079,-7.033,3.907,7.033,0.391,-3.516,-42.198,28.523,-17.582,-2.344,3.907,-47.277
'[18:53:32.172 08/07/2079]',0.000,-7.424,49.621,-38.681,-25.006,60.562,-57.045,23.053,7.033,-25.397,32.430,-11.331,5.079,13.675,-4.298,-11.722,-2.735,32.821,-48.840,17.192,0.391,1.954,-4.298,-46.105
'[18:53:32.176 08/07/2079]',15.238,-38.291,70.330,-47.668,-3.907,63.297,-65.250,4.298,17.192,-70.330,65.250,-25.788,12.894,29.695,-31.648,-24.615,8.205,44.933,-69.548,41.416,12.503,14.847,-31.648,-47.668
'[18:53:32.180 08/07/2079]',13.675,-38.291,40.244,-4.298,4.689,29.695,-67.985,43.761,8.596,-60.171,41.807,-4.298,-3.907,14.847,-29.695,5.470,2.344,-10.940,-39.463,44.933,-14.457,5.861,-29.695,-53.529
'[18:53:32.184 08/07/2079]',33.993,-42.979,56.264,-6.642,28.132,56.264,-60.952,15.629,15.238,-60.171,47.668,-8.205,7.424,5.861,-28.913,9.377,8.987,-34.774,-55.482,67.985,-26.960,-3.516,-28.913,-60.562
'[18:53:32.188 08/07/2079]',50.403,-87.131,78.535,-2.735,30.476,58.999,-55.092,4.298,15.238,-51.966,42.198,-4.689,2.344,-26.569,7.424,16.020,11.722,-53.138,-77.753,68.767,-29.695,-18.755,7.424,-70.330
'[18:53:32.191 08/07/2079]',26.960,-73.065,74.628,-0.391,13.675,61.343,-66.422,17.192,11.331,-17.192,5.861,6.252,-13.675,-22.662,12.112,30.867,4.298,-79.316,-73.846,62.906,-40.244,-17.973,12.112,-72.674
'[18:53:32.195 08/07/2079]',8.987,-40.635,91.038,-28.132,12.503,56.264,-39.463,0.000,21.490,13.675,-3.126,-14.847,-7.424,-12.503,32.821,3.516,0.000,-72.674,-90.256,78.144,-46.496,-28.523,32.821,-71.502
'[18:53:32.199 08/07/2079]',-11.331,11.722,66.813,-25.397,12.503,33.602,-14.066,8.205,23.834,40.635,-24.615,-19.536,4.689,1.172,17.973,-4.689,-1.563,-71.502,-66.032,38.291,-9.377,-25.006,17.973,-62.906
'[18:53:32.203 08/07/2079]',-3.907,43.370,30.476,-6.642,25.006,25.788,-18.364,29.695,16.801,62.125,-46.496,-15.238,1.172,5.470,12.112,-2.735,-8.987,-80.879,-29.695,-4.298,9.768,-29.304,12.112,-53.529
'[18:53:32.207 08/07/2079]',20.708,35.556,18.755,17.973,39.463,6.252,-8.596,55.873,7.814,64.469,-49.621,-3.907,8.205,-17.192,15.629,10.549,-12.503,-70.330,-17.973,4.689,-7.424,-37.118,15.629,-44.542
'[18:53:32.211 08/07/2079]',26.178,12.503,28.913,23.053,34.383,-3.907,-3.126,64.860,8.205,48.449,-50.794,12.503,4.298,-11.331,-0.391,26.178,-1.172,-55.482,-28.132,9.768,-7.033,-15.629,-0.391,-38.681
'[18:53:32.215 08/07/2079]',55.092,-42.589,49.231,-1.954,18.364,12.112,-8.596,36.337,15.629,39.463,-48.840,12.112,0.781,3.907,-11.722,26.569,7.033,-24.615,-48.449,32.821,-19.145,0.391,-11.722,-25.397
'[18:53:32.219 08/07/2079]',40.244,-9.377,50.794,-45.714,14.847,16.410,8.987,-6.252,23.443,54.701,-28.132,-24.615,10.159,21.099,10.549,-17.582,10.940,-14.457,-50.012,36.337,-30.867,8.987,10.549,-5.079
'[18:53:32.223 08/07/2079]',14.066,-14.847,57.436,-51.966,17.973,42.589,-28.523,-27.350,25.397,65.250,-35.946,-30.867,10.159,27.350,8.205,-21.490,15.238,-18.755,-56.654,38.681,-16.410,13.284,8.205,32.821
'[18:53:32.227 08/07/2079]',8.596,46.496,1.172,-64.469,1.954,58.608,-30.867,-37.900,30.476,82.833,-53.529,-34.774,22.662,11.331,17.192,-27.350,17.582,-17.192,-0.391,-16.410,-7.033,-0.391,17.192,70.720
'[18:53:32.230 08/07/2079]',-14.066,43.370,13.675,-36.728,13.284,46.105,-38.681,-14.457,15.629,100.415,-60.562,-29.695,18.364,-5.079,30.085,-17.973,6.642,-19.145,-12.894,-36.337,12.503,-1.954,30.085,105.495
'[18:53:32.234 08/07/2079]',4.689,-4.298,24.615,-15.238,10.159,42.589,-57.436,14.066,15.629,112.527,-98.071,1.172,7.033,-18.755,25.397,17.192,11.331,-13.675,-23.834,-19.145,2.735,-13.284,25.397,117.607
'[18:53:32.238 08/07/2079]',0.391,-16.410,39.853,0.000,4.689,31.258,-50.012,37.118,17.582,114.872,-110.183,16.020,7.033,0.000,5.861,25.397,12.112,5.861,-39.072,-10.940,13.284,9.768,5.861,115.653
'[18:53:32.242 08/07/2079]',8.987,-23.053,41.026,-11.331,6.252,12.894,-46.105,40.244,12.112,103.541,-89.475,6.252,3.126,21.490,0.781,6.642,9.377,12.503,-40.244,0.391,7.814,19.927,0.781,97.680
'[18:53:32.246 08/07/2079]',16.410,-26.569,37.509,-23.834,6.252,6.252,-33.993,23.834,18.364,102.369,-90.256,1.954,11.331,3.907,23.053,-5.470,10.549,7.814,-36.728,32.430,12.503,-19.536,23.053,79.707
'[18:53:32.250 08/07/2079]',7.814,-16.410,22.271,0.781,7.814,6.252,-39.072,39.072,10.549,64.078,-61.343,18.755,9.377,6.642,0.000,16.410,9.377,2.344,-21.490,27.741,7.033,-8.596,0.000,64.078
'[18:53:32.254 08/07/2079]',34.774,-16.020,7.424,-5.470,17.192,2.344,-23.443,24.615,6.642,43.370,-33.993,17.192,10.549,-1.563,15.238,8.205,7.424,-5.861,-6.642,-4.298,2.735,-10.159,15.238,57.436
'[18:53:32.258 08/07/2079]',33.211,-1.954,8.205,-0.391,13.675,-5.079,1.563,29.304,9.377,35.556,-23.053,30.476,11.331,-1.172,16.410,25.397,10.159,-8.987,-7.424,-11.331,-7.033,-5.470,16.410,50.794
'[18:53:32.262 08/07/2079]',30.867,0.781,4.298,10.549,13.675,-1.563,-1.563,38.291,6.252,26.960,-18.364,34.383,3.907,3.516,6.252,33.602,10.159,-12.112,-3.516,-22.662,-18.755,11.722,6.252,48.059
'[18:53:32.266 08/07/2079]',26.178,22.662,-10.159,-1.172,20.708,0.391,1.563,13.675,0.391,24.615,-10.549,18.755,0.391,2.344,5.470,22.662,5.470,-3.907,10.940,-52.357,-6.252,12.503,5.470,41.026
'[18:53:32.270 08/07/2079]',32.821,38.291,-37.900,-9.768,22.271,-10.940,19.145,-6.642,5.079,28.913,-9.377,1.563,4.298,7.033,11.331,2.735,2.735,2.735,38.681,-57.827,-1.563,3.907,11.331,33.602
'[18:53:32.273 08/07/2079]',42.979,-14.066,19.145,-12.112,24.225,21.099,-3.516,-6.642,7.814,25.006,-17.192,7.814,3.516,-9.768,8.205,20.708,1.954,9.377,-18.364,-6.252,-5.079,-18.755,8.205,17.192
'[18:53:32.277 08/07/2079]',45.324,0.391,-0.391,-10.549,29.304,13.675,-1.172,-7.814,4.689,19.145,-10.940,1.172,5.470,-19.927,21.880,6.252,0.781,14.066,1.172,-32.821,6.642,-27.350,21.880,-1.172
'[18:53:32.281 08/07/2079]',51.966,-0.391,13.675,-11.331,35.946,11.722,11.331,-5.079,14.066,16.801,-7.033,5.861,16.020,-4.298,17.973,0.391,5.861,17.192,-12.894,-17.192,4.689,-11.331,17.973,-13.675
'[18:53:32.285 08/07/2079]',60.171,-15.238,25.006,-14.457,33.993,19.927,15.238,-14.847,17.192,16.410,0.391,-3.126,17.582,-2.344,21.099,-5.079,9.768,16.410,-24.225,0.391,-8.987,-4.689,21.099,-13.284
'[18:53:32.289 08/07/2079]',41.807,-2.344,-9.377,8.596,26.569,10.549,0.391,-0.391,6.642,5.470,1.563,4.689,9.768,-1.954,7.814,2.735,7.424,11.331,10.159,-22.271,-4.298,5.861,7.814,-3.907
'[18:53:32.293 08/07/2079]',29.304,10.159,-25.006,14.066,21.099,-8.987,12.112,3.907,2.735,3.516,3.126,12.112,2.735,3.907,3.126,10.159,4.689,11.331,25.788,-26.569,-4.689,6.642,3.126,3.907
'[18:53:32.297 08/07/2079]',42.198,-14.066,-18.364,0.391,7.424,-15.629,21.880,-4.689,1.563,3.126,3.516,8.987,1.172,15.238,-10.940,12.503,1.172,12.112,19.145,-14.066,-9.768,7.814,-10.940,1.563
'[18:53:32.301 08/07/2079]',30.085,3.126,-23.443,14.066,6.252,-26.960,26.569,16.801,-6.252,-1.172,9.768,22.271,-3.516,14.457,-6.252,20.317,-1.563,12.503,24.225,-27.350,-2.735,-0.391,-6.252,-6.642
'[18:53:32.305 08/07/2079]',42.198,-3.907,-21.490,-0.391,5.861,-34.774,49.621,-5.079,-0.781,1.563,9.377,10.549,4.298,8.205,9.377,-2.735,-1.172,19.927,22.271,-32.430,19.927,-9.377,9.377,-16.410
'[18:53:32.309 08/07/2079]',30.085,-11.331,-12.112,5.079,6.642,-26.178,27.741,2.344,-3.907,-2.344,-1.954,20.708,6.252,15.629,-2.735,-6.642,-2.344,12.503,12.894,-17.973,18.364,14.457,-2.735,-16.801
'[18:53:32.313 08/07/2079]',27.350,10.940,-5.079,-18.364,7.814,-9.768,31.648,-14.847,-3.516,-3.516,18.364,0.391,8.596,9.768,14.847,-22.662,-1.954,12.894,5.861,-25.006,20.708,-1.954,14.847,-6.252
'[18:53:32.316 08/07/2079]',34.774,-20.708,-23.443,8.205,-0.781,-8.596,9.377,-1.563,-11.331,-7.814,3.516,20.317,2.344,-11.331,5.470,5.470,-7.424,10.549,24.225,-15.629,7.814,-5.861,5.470,13.284
'[18:53:32.320 08/07/2079]',21.490,-14.066,-24.225,17.973,8.205,-14.066,2.735,2.344,-18.364,-4.298,-1.954,21.099,-10.159,11.722,-20.708,14.066,-11.331,5.470,25.006,-22.662,8.205,16.801,-20.708,29.304
'[18:53:32.324 08/07/2079]',32.821,11.722,-30.476,-12.894,0.000,-24.615,41.026,-15.238,-7.814,0.000,22.271,-6.252,1.172,20.708,-5.470,-9.768,-8.205,13.284,31.258,-21.880,-19.536,19.927,-5.470,31.258
'[18:53:32.328 08/07/2079]',14.066,5.861,-36.337,1.563,-6.642,-19.536,18.364,-6.642,-10.940,8.205,0.391,9.768,0.391,12.894,-16.410,8.596,-5.861,8.596,37.118,-13.675,-0.781,6.642,-16.410,20.317
'[18:53:32.332 08/07/2079]',12.894,-3.516,-18.364,-2.344,-0.781,-18.755,29.304,-22.271,0.391,20.708,-7.424,-6.642,0.000,30.476,-9.768,-14.457,-4.298,12.503,19.145,-3.126,-6.252,32.430,-9.768,27.741
'[18:53:32.336 08/07/2079]',1.954,29.304,4.298,-10.549,-2.735,-12.503,53.138,-11.722,5.079,18.364,0.781,-7.424,17.582,2.735,12.503,-16.020,-1.563,18.755,-3.516,-14.066,19.927,-5.861,12.503,92.210
'[18:53:32.340 08/07/2079]',19.145,13.675,0.391,-11.722,14.457,-2.735,32.430,-22.271,7.424,25.397,-3.516,-10.549,11.722,10.940,16.801,-22.271,0.000,18.755,0.391,-30.476,35.946,-1.172,16.801,214.115
'[18:53:32.344 08/07/2079]',12.112,-7.033,0.391,4.689,4.689,-8.596,25.397,-11.722,0.391,15.238,-5.470,-4.689,5.861,13.675,3.516,-19.145,-4.689,17.973,0.391,-28.913,48.059,10.549,3.516,350.085
'[18:53:32.348 08/07/2079]',13.675,8.205,-4.689,-6.252,2.344,-15.238,39.072,-15.238,1.954,11.722,-1.954,-7.424,8.987,17.582,0.391,-23.443,-6.642,19.927,5.470,-32.430,42.589,9.768,0.391,418.071
'[18:53:32.352 08/07/2079]',22.662,5.470,-39.853,-7.814,-4.689,-20.708,35.165,-29.304,-7.033,8.205,5.470,-13.675,-4.298,20.317,1.563,-26.960,-9.377,14.847,40.635,-42.589,22.662,12.894,1.563,359.463
'[18:53:32.355 08/07/2079]',30.085,-52.747,-28.913,5.079,-19.536,-2.344,3.126,-27.350,-15.629,0.391,-3.907,-11.722,-10.159,21.099,-25.397,-16.801,-12.503,10.940,29.695,0.391,11.331,16.020,-25.397,188.718
'[18:53:32.359 08/07/2079]',3.126,-26.960,-25.788,1.172,-14.066,-15.238,9.768,-28.913,-14.847,-0.391,-9.768,-19.536,-8.596,8.987,-25.788,-20.708,-12.503,12.503,26.569,8.596,15.238,-2.344,-25.788,-13.675
'[18:53:32.363 08/07/2079]',3.516,-13.675,-37.900,-3.907,-14.847,-14.457,6.642,-28.523,-20.317,-0.391,-10.940,-18.755,-10.940,11.331,-30.085,-22.271,-12.503,7.814,38.681,2.735,22.271,-11.331,-30.085,-154.725
