'Time and date','FP1-F7','F7-T7','T7-P7','P7-O1','FP1-F3','F3-C3','C3-P3','P3-O1','FP2-F4','F4-C4','C4-P4','P4-O2','FP2-F8','F8-T8','T8-P8','P8-O2','FZ-CZ','CZ-PZ','P7-T7','T7-FT9','FT9-FT10','FT10-T8','T8-P8'
'hh:mm:ss.mmm dd/mm/yyyy','uV','uV','uV','uV','uV','uV','uV','uV','uV','uV','uV','uV','uV','uV','uV','uV','uV','uV','uV','uV','uV','uV','uV'
'[15:29:39.000 24/07/2074]',26.178,5.470,-52.357,-19.536,26.960,-12.503,-84.396,29.695,-26.960,-49.621,-7.424,0.000,-53.529,-71.893,10.159,31.258,-44.151,-71.502,53.138,-18.364,-59.780,-75.800,10.159
'[15:29:39.004 24/07/2074]',0.391,0.391,0.391,0.391,0.391,0.391,0.391,0.391,0.391,0.391,0.391,0.391,0.391,0.391,0.391,0.391,0.391,0.391,0.391,0.391,0.391,0.391,0.391
'[15:29:39.008 24/07/2074]',0.391,0.391,0.391,0.391,0.391,0.391,0.391,0.391,0.391,0.391,0.391,0.391,0.391,0.391,0.391,0.391,0.391,0.391,0.391,0.391,0.391,0.391,0.391
'[15:29:39.012 24/07/2074]',0.391,0.391,0.391,0.391,0.391,0.391,0.391,0.391,0.391,0.391,0.391,0.391,0.391,0.391,0.391,0.391,0.391,0.391,0.391,0.781,0.781,0.000,0.391
'[15:29:39.016 24/07/2074]',0.391,0.391,0.391,0.000,0.391,0.391,0.391,0.000,0.391,0.391,0.391,0.000,0.391,0.391,0.391,0.000,0.391,0.000,0.391,0.781,-0.781,1.172,0.391
'[15:29:39.020 24/07/2074]',0.781,1.563,-1.172,-0.391,0.781,0.391,0.000,-0.391,0.391,0.391,0.391,-0.391,0.391,0.000,0.391,-0.391,-0.391,0.391,1.954,-2.735,-0.781,2.735,0.391
'[15:29:39.023 24/07/2074]',0.781,0.781,-1.172,0.781,1.172,0.391,-0.391,0.781,0.000,0.391,0.391,1.172,0.391,0.000,0.391,1.172,0.000,1.172,1.954,-4.298,2.344,1.172,0.391
'[15:29:39.027 24/07/2074]',0.000,-3.516,3.516,1.563,0.000,0.000,0.000,1.954,0.000,0.391,-0.391,1.954,0.391,0.781,-0.391,1.954,0.391,1.172,-2.735,5.079,1.954,-1.563,-0.391
'[15:29:39.031 24/07/2074]',0.000,-1.563,3.516,-0.781,-0.391,0.391,1.172,-0.391,0.391,0.781,0.781,-0.781,0.781,0.781,0.391,-0.781,0.391,0.000,-2.735,8.987,-1.954,-1.954,0.391
'[15:29:39.035 24/07/2074]',0.781,3.907,-3.126,-1.563,0.781,0.391,0.391,-1.563,0.391,0.781,1.563,-2.344,0.781,0.000,1.954,-1.954,-0.391,0.000,3.907,-3.516,-1.563,1.954,1.954
'[15:29:39.039 24/07/2074]',1.172,4.298,-6.252,0.000,1.954,-0.391,-1.563,-1.172,0.000,0.391,0.391,-1.563,0.000,-0.391,0.391,-0.781,-2.735,1.563,7.033,-15.238,-1.563,12.112,0.391
'[15:29:39.043 24/07/2074]',1.563,2.344,-7.033,-6.642,4.689,-0.391,-5.470,-7.814,-0.391,-1.172,1.563,-9.377,1.563,-3.907,0.391,-8.205,-10.159,0.391,7.814,-18.364,-14.066,26.960,0.391
'[15:29:39.047 24/07/2074]',6.252,2.344,-11.722,-5.861,8.205,-2.344,-9.768,-3.907,-3.516,0.781,1.563,-4.689,1.563,-6.252,1.563,-4.298,-12.112,6.642,12.503,-28.913,1.172,14.847,1.563
'[15:29:39.051 24/07/2074]',3.516,-14.066,-4.298,0.000,6.252,-7.033,-14.457,0.391,-6.252,2.735,-1.172,0.000,-1.563,0.000,-3.516,0.000,-16.020,13.284,5.079,-12.503,-1.954,20.317,-3.516
'[15:29:39.055 24/07/2074]',0.781,-32.039,10.940,-4.298,1.563,-8.987,-10.549,-5.079,-7.033,8.205,0.781,-6.642,2.735,1.172,-2.344,-6.642,-20.317,16.410,-10.159,16.020,-5.470,17.973,-2.344
'[15:29:39.059 24/07/2074]',3.126,-2.344,-14.457,-10.940,3.126,-8.987,-7.814,-9.768,-6.642,15.629,6.642,-10.940,4.689,4.689,6.252,-12.503,-18.364,21.880,15.238,-12.894,4.298,8.596,6.252
'[15:29:39.063 24/07/2074]',2.735,-13.675,-13.675,-0.781,0.000,-12.894,-7.033,-4.298,-10.549,19.927,6.642,-7.814,4.689,4.689,7.814,-9.768,-17.192,28.523,14.457,-3.907,-1.172,17.192,7.814
'[15:29:39.066 24/07/2074]',0.391,4.298,-27.350,-2.735,-2.344,-10.940,-3.126,-7.424,-10.940,25.006,9.377,-9.768,9.377,6.252,10.549,-13.675,-16.801,32.821,28.132,-32.821,10.159,26.569,10.549
'[15:29:39.070 24/07/2074]',3.516,12.894,-35.556,-2.344,-3.516,-8.596,-0.781,-5.470,-12.112,29.695,15.629,-13.284,9.768,8.987,16.410,-17.582,-11.331,33.602,36.337,-24.225,7.424,14.457,16.410
'[15:29:39.074 24/07/2074]',3.907,1.172,-27.741,10.159,-5.861,-7.814,0.781,2.344,-17.192,33.602,17.582,-7.424,7.033,14.457,16.410,-12.894,-6.642,39.853,28.523,3.516,6.252,10.159,16.410
'[15:29:39.078 24/07/2074]',3.516,0.391,-31.258,17.582,-8.987,-6.252,3.907,3.126,-18.755,33.993,18.755,-6.252,6.642,24.225,8.205,-12.894,-9.768,46.886,32.039,-3.907,11.722,28.523,8.205
'[15:29:39.082 24/07/2074]',3.126,9.768,-36.728,14.066,-11.722,-1.954,10.549,-4.298,-19.145,36.337,23.053,-12.112,12.894,33.602,0.781,-19.927,-10.549,50.403,37.509,-5.470,17.582,37.118,0.781
'[15:29:39.086 24/07/2074]',3.516,13.284,-38.681,19.145,-14.847,0.391,15.629,-2.344,-25.006,35.556,27.741,-9.377,14.457,29.695,1.563,-18.755,-5.861,55.873,39.463,6.642,22.662,19.536,1.563
'[15:29:39.090 24/07/2074]',-0.781,-1.954,-31.258,30.085,-22.662,-0.391,18.364,1.172,-30.085,31.648,26.569,-3.907,16.020,28.523,-9.377,-10.940,-5.861,63.297,32.039,10.159,29.695,29.304,-9.377
'[15:29:39.094 24/07/2074]',-1.954,8.205,-39.853,30.476,-26.178,1.954,22.271,-0.391,-32.039,34.383,28.132,-6.642,17.192,29.304,-10.940,-10.940,-4.298,67.204,40.635,-8.987,34.774,33.993,-10.940
'[15:29:39.098 24/07/2074]',0.391,-5.470,-25.006,33.211,-25.788,3.907,26.569,-1.172,-33.993,42.589,31.258,-12.112,12.894,28.523,-2.735,-10.940,4.689,69.548,25.788,20.708,28.132,15.629,-2.735
'[15:29:39.102 24/07/2074]',0.000,-25.788,-9.768,45.324,-26.960,2.735,27.741,5.861,-32.821,50.403,28.913,-8.987,13.284,36.728,-5.861,-6.642,12.503,71.893,10.549,44.542,24.615,20.317,-5.861
'[15:29:39.105 24/07/2074]',-1.172,13.284,-37.900,41.026,-21.099,10.940,27.350,-0.391,-24.225,59.780,26.569,-11.722,18.364,47.277,-4.298,-10.940,19.145,67.985,38.681,-13.284,37.900,40.635,-4.298
'[15:29:39.109 24/07/2074]',-0.781,10.159,-30.476,44.933,-17.973,15.238,28.132,-1.172,-17.973,66.813,24.225,-12.112,22.271,51.575,0.781,-14.457,26.569,61.343,31.258,-2.735,41.416,39.853,0.781
'[15:29:39.113 24/07/2074]',-3.516,9.377,-26.569,56.264,-15.629,20.317,23.834,7.033,-13.284,64.860,18.755,-2.735,25.788,51.184,-1.954,-7.814,33.211,58.217,27.350,4.298,46.496,37.509,-1.954
'[15:29:39.117 24/07/2074]',-1.172,16.410,-32.430,62.515,-13.675,24.225,19.927,14.457,-10.940,60.562,12.112,6.642,26.178,50.012,-3.516,-3.907,34.774,55.092,33.211,-16.410,51.184,48.059,-3.516
'[15:29:39.121 24/07/2074]',0.391,7.814,-20.708,64.469,-14.066,27.741,21.490,17.192,-7.424,57.827,10.940,8.987,32.039,44.151,-1.954,-3.516,35.165,48.449,21.490,2.735,44.151,42.589,-1.954
'[15:29:39.125 24/07/2074]',4.298,-3.907,-5.861,64.078,-13.675,28.913,22.271,21.099,-8.596,54.310,12.112,9.768,33.602,48.840,-6.642,-6.642,40.244,42.589,6.642,29.695,42.979,32.821,-6.642
'[15:29:39.129 24/07/2074]',2.735,0.391,-7.814,65.250,-15.629,28.132,21.880,26.569,-9.768,47.277,9.377,20.317,31.648,36.337,-0.781,0.391,41.026,38.681,8.596,8.987,43.761,33.211,-0.781
'[15:29:39.133 24/07/2074]',0.391,5.079,-10.940,67.595,-15.238,26.569,24.225,26.569,-9.768,40.635,8.596,23.834,26.960,28.523,1.563,5.079,40.244,31.258,11.722,-7.033,45.714,31.648,1.563
'[15:29:39.137 24/07/2074]',4.689,-13.284,5.079,67.985,-13.284,22.271,26.569,29.695,-10.549,34.774,9.768,27.741,25.397,25.788,4.689,4.689,44.933,20.708,-4.298,19.536,42.198,15.238,4.689
'[15:29:39.141 24/07/2074]',1.954,2.344,-3.907,71.111,-10.940,19.927,25.397,37.900,-12.112,28.132,5.079,40.244,18.364,16.801,10.159,14.066,47.668,16.410,4.689,2.344,38.681,5.079,10.159
'[15:29:39.145 24/07/2074]',1.172,-5.079,6.252,73.846,-10.159,17.973,26.960,41.026,-8.987,21.880,2.735,43.370,17.973,16.410,5.470,17.973,43.370,13.284,-5.470,0.391,34.383,19.145,5.470
'[15:29:39.148 24/07/2074]',5.861,-7.424,16.801,64.469,-6.252,18.364,30.867,37.118,-5.079,22.271,5.861,41.807,18.755,20.708,9.377,15.238,42.979,7.424,-16.020,13.284,26.960,10.940,9.377
'[15:29:39.152 24/07/2074]',1.172,-2.735,25.788,61.734,-8.987,20.317,33.602,41.026,-5.079,19.536,5.470,48.449,17.582,14.066,12.503,23.443,42.979,7.424,-25.006,21.099,20.708,0.781,12.503
'[15:29:39.156 24/07/2074]',0.391,-7.033,37.118,57.045,-9.377,21.099,35.165,39.853,-5.079,14.847,5.470,52.357,13.284,3.516,16.410,34.774,37.509,12.112,-36.337,11.722,19.927,-1.172,16.410
'[15:29:39.160 24/07/2074]',1.172,-5.079,42.198,48.449,-9.768,23.443,38.681,33.993,-1.172,17.192,6.642,50.012,12.503,5.079,16.801,36.728,34.774,10.940,-41.416,2.344,12.503,5.470,16.801
'[15:29:39.164 24/07/2074]',-0.781,-1.172,52.357,37.118,-12.894,26.178,42.979,30.476,0.391,18.364,8.205,48.059,13.284,3.516,21.880,35.556,38.681,10.549,-51.575,13.284,3.907,-5.079,21.880
'[15:29:39.168 24/07/2074]',-3.126,-6.642,59.389,36.728,-15.629,23.443,41.416,35.946,2.344,16.020,3.907,50.794,11.331,3.516,17.582,39.853,37.509,13.284,-58.608,9.768,7.424,-4.689,17.582
'[15:29:39.172 24/07/2074]',-1.172,-2.735,62.515,29.304,-8.987,24.615,44.151,27.741,12.503,18.755,2.344,41.416,14.457,11.331,14.457,34.383,34.774,9.377,-61.734,-0.781,7.033,10.159,14.457
'[15:29:39.176 24/07/2074]',0.391,5.079,61.343,23.053,-3.126,23.053,50.403,19.927,19.927,22.271,3.907,32.821,16.410,14.847,17.582,28.913,33.211,6.252,-60.562,0.781,5.861,7.424,17.582
'[15:29:39.180 24/07/2074]',-3.907,1.172,60.952,30.867,-1.172,17.973,46.886,25.397,21.880,21.099,0.391,35.165,16.020,15.629,12.894,33.602,30.476,7.424,-60.171,-0.391,21.099,6.252,12.894
'[15:29:39.184 24/07/2074]',-1.954,-8.205,60.562,30.476,3.516,12.112,42.198,21.880,26.178,22.271,-5.861,32.430,12.503,16.801,10.940,33.993,24.225,5.861,-59.780,-4.298,17.192,22.271,10.940
'[15:29:39.188 24/07/2074]',1.954,1.172,54.310,16.801,7.424,12.894,42.589,11.331,31.648,27.350,-6.642,23.053,17.192,16.410,15.629,24.615,23.834,0.781,-53.529,-5.079,11.331,18.755,15.629
'[15:29:39.191 24/07/2074]',2.735,-7.424,63.687,10.159,7.033,12.503,35.556,12.503,32.039,32.430,-12.894,23.053,16.410,21.880,16.020,18.755,23.053,0.391,-62.906,16.410,7.424,11.722,16.020
'[15:29:39.195 24/07/2074]',1.172,-17.582,71.502,1.172,7.424,8.987,26.569,11.331,31.258,33.993,-21.880,21.880,13.284,19.927,14.847,15.629,14.847,1.563,-70.720,17.582,0.391,23.053,14.847
'[15:29:39.199 24/07/2074]',-0.391,12.112,51.184,-8.205,9.768,14.066,23.443,5.079,38.291,39.853,-25.788,18.755,18.755,29.695,13.284,7.033,8.596,2.735,-50.403,-13.284,0.391,36.728,13.284
'[15:29:39.203 24/07/2074]',3.907,5.079,56.264,-14.066,10.159,18.364,17.192,4.298,37.900,42.589,-28.132,17.973,23.053,35.556,9.377,0.781,8.596,3.907,-55.482,5.079,1.563,29.304,9.377
'[15:29:39.207 24/07/2074]',-1.954,2.344,50.012,-11.331,2.344,17.582,8.205,8.987,32.039,39.463,-34.383,25.788,21.880,37.900,1.172,1.954,7.424,7.424,-49.231,2.344,10.940,28.523,1.172
'[15:29:39.211 24/07/2074]',-5.861,3.126,52.357,-16.801,-1.172,23.443,6.642,2.344,33.211,38.681,-37.900,23.443,26.178,37.509,-5.470,-0.781,7.424,7.424,-51.575,0.000,9.768,37.900,-5.470
'[15:29:39.215 24/07/2074]',-1.563,1.954,59.389,-26.178,-1.563,29.304,7.424,-1.563,31.258,39.853,-36.337,17.582,28.132,40.635,-7.033,-8.596,14.457,3.126,-58.608,11.331,8.987,30.476,-7.033
'[15:29:39.219 24/07/2074]',-7.814,-0.391,58.608,-19.145,-7.424,24.615,6.642,5.079,23.443,36.728,-39.463,25.397,28.132,42.198,-14.457,-8.987,16.801,0.781,-57.827,24.225,14.847,23.834,-14.457
'[15:29:39.223 24/07/2074]',-8.987,-4.298,53.529,-10.940,-8.596,17.192,8.205,10.159,19.536,32.821,-43.761,30.476,25.788,41.026,-22.271,-4.298,13.284,0.391,-52.747,21.490,12.112,35.556,-22.271
'[15:29:39.227 24/07/2074]',-4.298,-7.033,48.449,-7.814,-3.907,10.549,14.066,6.642,19.927,32.821,-42.198,24.225,30.867,42.979,-25.397,-13.284,11.331,-0.781,-47.668,14.066,23.834,42.979,-25.397
'[15:29:39.230 24/07/2074]',-2.344,-19.145,45.714,0.000,-4.298,0.000,16.801,9.377,14.847,28.523,-41.807,28.132,29.304,39.072,-25.397,-12.503,11.722,-1.563,-44.933,35.946,25.788,25.397,-25.397
'[15:29:39.234 24/07/2074]',-10.159,-15.238,34.774,5.470,-7.424,-5.470,20.317,7.033,15.238,23.053,-41.416,25.788,27.350,30.867,-24.615,-9.768,9.768,3.516,-33.993,24.225,30.085,22.662,-24.615
'[15:29:39.238 24/07/2074]',-8.987,-26.178,45.324,5.470,-2.344,-5.470,27.741,-3.126,22.662,24.225,-34.774,12.112,29.695,27.741,-18.364,-12.894,8.205,4.689,-44.542,32.821,23.053,27.741,-18.364
'[15:29:39.242 24/07/2074]',-6.252,-7.814,32.039,5.079,0.781,-1.172,32.821,-9.768,23.443,26.960,-27.741,4.689,23.443,28.523,-10.549,-12.894,14.066,5.470,-31.258,17.192,20.708,21.490,-10.549
'[15:29:39.246 24/07/2074]',-10.549,-4.298,27.350,16.020,0.781,-1.172,33.993,-6.252,24.225,26.569,-22.271,5.079,19.927,29.304,-9.377,-4.298,16.801,12.894,-26.569,11.331,18.755,27.741,-9.377
'[15:29:39.250 24/07/2074]',-9.377,-5.861,24.615,21.880,4.689,-1.172,33.993,-7.424,25.006,28.132,-16.801,3.516,19.145,26.960,-6.642,1.172,15.238,18.755,-23.834,-3.126,25.397,36.337,-6.642
'[15:29:39.254 24/07/2074]',-3.907,-5.079,20.317,22.662,8.596,-1.172,36.337,-10.549,24.615,31.648,-7.814,0.000,21.099,30.867,-1.172,-2.344,18.755,19.145,-19.536,6.252,23.053,33.602,-1.172
'[15:29:39.258 24/07/2074]',-3.516,-4.298,19.927,23.834,8.596,-0.781,37.118,-9.768,23.443,32.039,0.391,4.298,26.178,31.258,5.079,-1.172,21.880,26.569,-19.145,18.755,26.569,25.006,5.079
'[15:29:39.262 24/07/2074]',-4.298,-8.596,24.615,23.053,9.768,0.781,35.946,-12.112,22.271,30.476,7.424,10.159,23.834,26.569,16.020,4.298,19.927,37.118,-23.834,8.205,30.085,30.476,16.020
'[15:29:39.266 24/07/2074]',4.689,-18.755,30.085,23.834,13.675,3.516,39.463,-17.192,23.834,33.993,13.675,9.768,21.490,33.211,24.615,2.735,19.927,39.463,-29.304,12.894,20.317,43.370,24.615
'[15:29:39.270 24/07/2074]',5.079,0.781,19.536,13.675,14.066,8.596,41.416,-24.225,27.741,35.556,21.880,9.768,26.178,40.244,27.350,1.172,25.397,46.105,-18.755,4.298,17.973,39.853,27.350
'[15:29:39.273 24/07/2074]',-1.172,4.298,13.675,17.582,7.814,8.596,36.337,-19.145,25.397,28.523,24.615,18.755,24.225,28.523,30.476,12.894,23.443,54.701,-12.894,-12.112,21.490,34.774,30.476
'[15:29:39.277 24/07/2074]',5.079,-0.391,8.596,16.020,8.596,8.205,34.774,-22.662,25.006,26.960,28.132,15.238,20.708,26.960,33.211,14.457,18.755,56.654,-7.814,-19.927,13.284,41.026,33.211
'[15:29:39.281 24/07/2074]',10.549,2.344,6.642,10.940,10.549,8.596,36.337,-25.397,24.225,26.960,34.383,10.940,24.615,24.225,34.774,12.894,20.708,56.654,-5.861,-10.159,8.596,28.523,34.774
'[15:29:39.285 24/07/2074]',8.596,-8.987,14.457,15.238,9.377,5.470,31.648,-17.582,17.582,22.662,36.337,17.973,19.536,7.814,44.933,22.271,21.490,57.436,-13.675,2.735,7.814,7.424,44.933
'[15:29:39.289 24/07/2074]',15.238,-22.662,23.053,12.503,14.457,4.298,27.741,-17.973,14.457,23.834,33.211,19.536,10.159,3.516,49.231,28.913,18.755,53.919,-22.271,-3.516,-0.781,15.238,49.231
'[15:29:39.293 24/07/2074]',21.099,-14.066,18.364,5.861,24.225,3.907,26.178,-24.225,17.192,25.788,31.258,13.675,13.284,4.689,50.012,21.099,18.755,43.370,-17.582,-7.033,-10.159,21.880,50.012
'[15:29:39.297 24/07/2074]',19.536,2.735,-0.391,3.516,28.523,-0.391,16.020,-17.973,12.894,22.271,25.788,19.145,4.298,4.298,48.840,23.053,19.145,37.118,1.172,-21.099,-12.503,10.549,48.840
'[15:29:39.301 24/07/2074]',25.397,-0.391,-8.596,-2.344,28.913,-4.689,6.252,-17.973,10.549,14.457,17.973,19.927,-2.735,0.391,42.198,24.615,13.675,30.867,9.377,-30.085,-14.066,7.814,42.198
'[15:29:39.305 24/07/2074]',32.039,0.781,-19.145,-12.112,32.039,-8.987,1.563,-23.053,12.503,12.112,11.722,10.159,-0.391,1.172,33.211,13.284,6.252,18.364,19.927,-26.178,-23.834,12.503,33.211
'[15:29:39.309 24/07/2074]',32.039,-3.516,-19.145,-17.582,28.913,-13.675,-0.391,-23.443,16.020,10.940,3.516,5.470,0.391,7.424,24.225,3.907,5.079,9.377,19.927,-7.033,-25.397,8.205,24.225
'[15:29:39.313 24/07/2074]',25.006,-3.516,-27.741,-19.145,16.410,-17.582,-5.861,-19.536,15.629,5.470,-4.689,6.642,-3.516,-3.516,25.006,6.252,1.172,5.470,28.523,-14.847,-27.350,3.516,25.006
'[15:29:39.316 24/07/2074]',20.317,1.172,-32.430,-19.536,11.331,-16.410,-7.424,-17.192,20.317,4.298,-13.675,5.079,-2.735,-9.377,24.225,5.079,-3.907,0.391,33.211,-29.304,-37.118,21.099,24.225
'[15:29:39.320 24/07/2074]',16.410,16.410,-32.039,-22.662,10.549,-12.112,-4.298,-15.629,26.178,8.205,-19.145,2.344,-0.781,-5.470,28.523,-2.344,-1.172,-3.907,32.821,-23.834,-39.072,15.629,28.523
'[15:29:39.324 24/07/2074]',16.020,33.993,-44.151,-26.178,5.470,-7.814,-4.689,-12.503,28.132,9.377,-25.006,2.344,-5.079,-3.516,32.821,-6.642,1.172,-3.516,44.933,-36.337,-37.900,8.205,32.821
'[15:29:39.328 24/07/2074]',16.410,12.894,-26.178,-27.741,2.735,-7.424,-5.079,-13.284,26.569,10.549,-35.165,0.391,-3.907,-8.596,28.913,-11.722,-1.954,-6.252,26.960,-24.615,-39.072,19.536,28.913
'[15:29:39.332 24/07/2074]',21.490,20.708,-23.443,-39.463,8.596,-1.954,-1.563,-24.615,30.867,21.099,-41.026,-11.331,6.252,4.298,20.317,-32.039,0.391,-13.675,24.225,-30.085,-27.741,33.211,20.317
'[15:29:39.336 24/07/2074]',20.317,19.536,-19.145,-42.979,7.424,-0.781,-0.781,-27.350,29.695,25.006,-46.886,-13.284,7.814,11.331,16.801,-42.979,5.861,-17.192,19.927,-16.020,-19.927,24.615,16.801
'[15:29:39.340 24/07/2074]',13.675,3.516,-3.907,-40.244,0.781,-1.954,-0.391,-23.443,23.443,23.443,-52.357,-10.159,7.033,10.940,9.768,-44.151,5.079,-17.582,4.689,-8.205,-16.410,32.821,9.768
'[15:29:39.344 24/07/2074]',14.066,34.383,-16.410,-48.059,5.470,5.079,0.781,-28.132,24.225,24.225,-53.919,-13.675,8.596,20.317,3.516,-51.966,4.298,-19.145,17.192,-45.324,-10.549,50.012,3.516
'[15:29:39.348 24/07/2074]',14.457,40.635,-7.424,-57.436,3.516,9.377,4.689,-28.523,22.271,21.099,-52.747,-10.940,8.596,22.662,2.735,-55.482,6.642,-20.317,8.205,-26.178,-21.490,35.556,2.735
'[15:29:39.352 24/07/2074]',9.377,43.761,-2.735,-55.873,-1.172,10.159,5.861,-19.927,14.847,13.675,-55.873,-1.563,6.252,21.099,-7.033,-48.449,5.861,-21.880,3.516,-12.112,-30.476,27.741,-7.033
'[15:29:39.355 24/07/2074]',16.020,51.575,-5.861,-62.515,3.907,13.675,3.126,-22.271,11.722,9.377,-57.827,-0.391,3.126,21.880,-16.410,-44.151,0.391,-22.662,6.642,-37.509,-32.821,42.979,-16.410
'[15:29:39.359 24/07/2074]',19.145,49.231,3.516,-66.422,5.079,16.410,7.814,-23.834,10.549,8.596,-55.873,-1.563,3.516,16.801,-20.317,-38.291,-1.563,-25.006,-2.735,-26.960,-39.853,32.430,-20.317
'[15:29:39.363 24/07/2074]',13.284,45.714,7.814,-54.310,1.172,14.847,8.205,-12.112,7.033,3.907,-55.092,4.689,0.000,12.112,-23.834,-25.788,-3.907,-20.708,-7.033,-14.847,-49.231,24.225,-23.834
'[15:29:39.367 24/07/2074]',21.880,46.886,0.781,-53.919,3.126,14.847,7.424,-9.768,4.298,0.391,-50.403,4.298,-7.814,15.238,-28.523,-17.582,-8.987,-14.066,0.000,-40.244,-52.357,34.774,-28.523
'[15:29:39.371 24/07/2074]',26.569,52.747,1.563,-59.389,4.689,19.145,9.377,-11.722,3.516,-1.172,-41.026,-0.391,-8.987,12.112,-26.178,-14.847,-11.331,-14.066,-0.781,-37.118,-64.860,26.178,-26.178
'[15:29:39.375 24/07/2074]',30.867,64.860,-8.205,-55.482,4.298,20.317,12.894,-6.252,3.907,-2.735,-32.821,0.391,-8.596,18.364,-25.788,-14.847,-7.814,-12.503,8.987,-39.072,-66.422,16.801,-25.788
'[15:29:39.379 24/07/2074]',25.397,45.324,8.596,-48.059,-1.172,20.708,15.238,-2.344,0.781,-5.861,-27.350,3.126,-14.066,25.788,-29.695,-10.159,-7.033,-8.205,-7.814,-26.178,-69.548,32.039,-29.695
'[15:29:39.383 24/07/2074]',24.225,39.463,20.317,-47.668,-1.954,25.397,19.145,-5.470,4.689,-2.735,-20.317,-1.172,-9.768,30.476,-25.006,-14.847,-5.470,-4.689,-19.536,-27.350,-70.330,47.668,-25.006
'[15:29:39.387 24/07/2074]',21.099,32.039,28.132,-37.509,-5.470,26.178,25.397,-1.954,8.205,0.781,-12.112,-2.344,-5.079,37.509,-19.536,-18.364,-0.391,-0.391,-27.350,-6.252,-65.641,41.026,-19.536
'[15:29:39.391 24/07/2074]',10.940,12.894,41.807,-25.397,-15.629,23.053,29.695,3.907,4.298,1.172,-8.205,-1.954,-3.516,39.072,-19.927,-18.364,3.907,9.377,-41.026,23.053,-65.250,40.635,-19.927
'[15:29:39.395 24/07/2074]',14.066,37.118,12.894,-24.225,-14.457,24.225,29.304,1.954,7.033,4.689,-3.907,-7.424,-2.344,48.840,-25.006,-19.536,2.344,19.927,-12.112,-19.536,-58.999,62.515,-25.006
'[15:29:39.398 24/07/2074]',20.317,45.324,0.781,-23.053,-12.503,20.317,33.993,1.563,9.377,7.814,0.391,-10.549,2.735,44.151,-17.582,-21.490,1.954,25.006,0.000,-24.225,-53.138,50.403,-17.582
'[15:29:39.402 24/07/2074]',16.410,44.151,-1.563,-16.020,-17.973,14.847,37.900,8.205,7.033,7.424,2.344,-6.642,7.033,41.807,-16.020,-21.490,3.126,32.039,2.344,-3.907,-47.277,36.337,-16.020
'[15:29:39.406 24/07/2074]',16.410,41.807,-5.470,-9.377,-19.927,10.159,39.072,13.284,8.596,8.596,3.516,-3.516,10.159,44.542,-14.847,-21.099,-1.563,41.416,6.252,-12.503,-39.072,48.059,-14.847
'[15:29:39.410 24/07/2074]',18.755,39.463,-5.861,-7.424,-21.490,6.642,44.933,13.675,13.675,10.940,10.549,-3.907,14.847,41.807,0.391,-25.006,-4.298,46.886,6.642,-15.238,-37.900,49.231,0.391
'[15:29:39.414 24/07/2074]',12.112,29.304,1.172,-1.954,-30.476,2.735,49.621,18.755,13.675,10.549,16.020,-4.298,20.708,37.900,4.298,-26.960,-3.516,49.621,-0.391,13.675,-32.039,32.821,4.298
'[15:29:39.418 24/07/2074]',13.675,22.271,-1.954,3.126,-33.602,0.391,47.668,24.615,12.112,9.377,18.755,-2.735,18.755,38.291,6.642,-24.615,-1.954,55.482,2.735,12.894,-30.085,33.602,6.642
'[15:29:39.422 24/07/2074]',16.801,28.913,-18.364,7.424,-32.821,-0.781,48.059,22.662,16.801,12.503,19.927,-7.814,17.582,32.039,14.457,-22.662,-3.516,53.138,19.145,-7.814,-32.039,37.900,14.457
'[15:29:39.426 24/07/2074]',18.364,19.145,-8.987,5.861,-30.085,-0.781,48.840,17.582,16.020,18.364,19.536,-14.457,21.880,25.006,16.801,-23.834,0.391,47.668,9.768,12.503,-28.523,26.960,16.801
'[15:29:39.430 24/07/2074]',16.801,16.410,-15.629,15.238,-27.741,-4.298,44.933,21.490,9.377,22.271,14.457,-13.284,17.582,21.490,12.503,-18.364,4.298,47.668,16.410,17.582,-26.178,25.006,12.503
'[15:29:39.434 24/07/2074]',18.364,12.503,-25.788,22.662,-24.225,-8.205,40.244,20.708,10.940,29.695,7.424,-16.020,14.457,19.927,10.940,-12.894,7.424,43.761,26.569,8.596,-26.569,31.648,10.940
'[15:29:39.438 24/07/2074]',20.708,11.331,-25.006,14.847,-18.364,-8.596,39.853,10.159,13.675,38.291,3.907,-27.741,20.317,15.238,11.331,-18.755,12.112,34.774,25.788,18.364,-21.099,23.053,11.331
'[15:29:39.441 24/07/2074]',20.708,13.284,-32.430,14.457,-14.066,-13.675,34.774,9.768,16.801,41.807,-2.735,-29.304,21.880,19.536,4.689,-19.927,18.364,26.960,33.211,28.913,-19.145,14.847,4.689
'[15:29:39.445 24/07/2074]',17.973,10.940,-49.231,17.582,-14.457,-21.099,23.834,10.549,20.317,39.072,-14.066,-28.913,15.238,5.861,6.642,-12.112,16.801,17.192,50.012,7.814,-19.927,14.066,6.642
'[15:29:39.449 24/07/2074]',21.099,2.735,-46.886,12.503,-6.252,-24.615,18.364,2.344,27.350,38.681,-19.927,-38.291,15.238,0.391,8.205,-16.020,16.020,4.689,47.668,8.205,-25.397,20.708,8.205
'[15:29:39.453 24/07/2074]',20.708,21.490,-62.125,7.033,1.172,-24.225,13.675,-2.344,31.258,36.337,-20.317,-38.291,19.145,3.516,5.470,-19.536,21.490,-3.907,62.906,5.470,-21.490,10.940,5.470
'[15:29:39.457 24/07/2074]',20.317,10.549,-67.204,14.847,4.298,-27.741,3.516,0.391,28.132,30.085,-20.708,-35.946,13.675,-5.861,5.470,-11.722,25.006,-7.814,67.985,7.814,-24.615,3.126,5.470
'[15:29:39.461 24/07/2074]',20.317,15.238,-70.720,12.503,12.894,-25.397,0.391,-8.596,32.039,29.304,-19.536,-43.370,17.582,0.391,-3.126,-15.629,28.913,-11.331,71.502,-6.642,-21.880,21.880,-3.126
'[15:29:39.465 24/07/2074]',24.225,11.331,-65.641,7.424,19.536,-24.615,1.172,-17.192,30.085,27.350,-13.675,-49.231,18.755,6.252,-8.205,-21.880,34.383,-17.192,66.422,3.516,-14.847,13.675,-8.205
'[15:29:39.469 24/07/2074]',25.788,9.768,-77.363,12.503,19.536,-29.695,-1.954,-14.066,21.880,20.708,-13.675,-45.714,15.629,0.391,-12.503,-19.536,36.728,-19.145,78.144,8.205,-21.490,3.516,-12.503
'[15:29:39.473 24/07/2074]',22.662,2.735,-73.846,16.410,19.145,-33.602,-2.735,-12.894,14.847,13.284,-15.238,-41.807,8.987,-3.516,-17.192,-16.020,34.383,-20.317,74.628,-2.735,-20.708,14.847,-17.192
'[15:29:39.477 24/07/2074]',27.741,3.126,-76.972,14.457,21.099,-33.993,-0.391,-15.238,7.424,5.861,-9.377,-38.681,9.377,-11.722,-14.066,-16.410,32.039,-21.099,77.753,-7.033,-21.099,8.987,-14.066
'[15:29:39.480 24/07/2074]',23.443,0.781,-75.018,19.536,14.457,-38.291,0.000,-4.298,-1.954,0.000,-3.907,-28.523,6.252,-14.066,-13.675,-13.284,32.430,-17.973,75.800,9.768,-24.615,-6.642,-13.675
'[15:29:39.484 24/07/2074]',18.755,-1.954,-71.893,29.695,12.112,-41.026,-1.172,5.470,-7.424,-7.814,-1.563,-18.364,3.907,-14.066,-20.708,-4.298,30.867,-12.112,72.674,10.549,-20.708,-7.424,-20.708
'[15:29:39.488 24/07/2074]',18.755,-5.470,-69.158,30.476,11.331,-42.979,0.391,5.079,-7.424,-12.503,-0.391,-18.755,5.470,-12.112,-28.132,-5.861,24.225,-12.894,69.939,6.252,-12.894,-3.126,-28.132
'[15:29:39.492 24/07/2074]',18.364,-19.145,-53.529,28.523,9.768,-44.933,3.516,6.252,-8.596,-14.457,-2.344,-19.145,3.516,-6.252,-35.556,-6.252,22.271,-15.629,54.310,36.728,-24.225,-8.205,-35.556
'[15:29:39.496 24/07/2074]',10.159,-5.470,-69.548,37.509,7.424,-47.668,0.391,12.894,-10.549,-19.927,-11.331,-10.549,-0.391,-10.159,-46.105,2.735,18.364,-16.020,70.330,10.549,-13.675,-8.987,-46.105
'[15:29:39.500 24/07/2074]',6.642,-16.410,-62.125,40.635,4.689,-46.496,-0.391,11.722,-10.549,-26.569,-18.755,-7.814,-2.735,-18.364,-51.575,9.377,13.675,-18.364,62.906,5.079,-9.377,-3.126,-51.575
'[15:29:39.504 24/07/2074]',2.735,-16.410,-58.999,42.198,2.735,-44.151,0.781,10.549,-12.112,-26.569,-19.927,-4.298,-4.298,-20.708,-55.092,15.629,14.847,-23.053,59.780,16.410,-13.675,-12.112,-55.092
'[15:29:39.508 24/07/2074]',-2.344,-16.801,-51.966,44.933,1.563,-41.026,0.781,11.331,-13.284,-25.397,-21.099,-4.689,-7.814,-18.364,-55.873,16.801,17.973,-21.099,52.747,30.085,-6.642,-26.569,-55.873
'[15:29:39.512 24/07/2074]',-2.735,-16.410,-50.012,48.449,3.126,-37.900,1.954,10.940,-11.722,-26.178,-20.708,-2.735,-7.814,-18.364,-57.827,21.490,15.238,-15.629,50.794,14.066,0.000,-15.629,-57.827
'[15:29:39.516 24/07/2074]',0.781,-10.159,-51.966,48.840,5.861,-33.602,6.642,7.814,-10.549,-18.755,-16.801,-3.516,-4.689,-13.284,-54.310,21.490,14.457,-12.112,52.747,5.470,-0.781,-9.377,-54.310
'[15:29:39.520 24/07/2074]',2.344,-25.397,-26.569,48.840,7.424,-29.304,13.675,6.252,-10.159,-7.424,-13.284,-4.298,0.391,-4.689,-46.496,14.066,19.927,-6.252,27.350,33.211,7.424,-20.317,-46.496
'[15:29:39.523 24/07/2074]',-0.391,-16.410,-28.913,52.747,5.470,-25.397,14.066,12.112,-14.847,-5.079,-11.722,7.424,2.735,-12.503,-40.635,25.397,19.927,5.079,29.695,14.457,9.768,-19.927,-40.635
'[15:29:39.527 24/07/2074]',6.252,-26.178,-17.192,52.747,7.424,-18.364,19.927,6.252,-15.629,1.954,-6.252,10.549,6.642,-5.861,-34.774,25.397,19.536,14.847,17.973,7.814,10.940,-7.033,-34.774
'[15:29:39.531 24/07/2074]',2.344,-26.569,0.391,51.184,8.205,-9.377,27.741,0.391,-17.192,10.940,2.344,10.159,11.722,0.781,-25.006,18.755,24.615,23.053,0.391,28.523,8.987,-10.940,-25.006
'[15:29:39.535 24/07/2074]',8.987,-22.662,0.000,51.184,12.112,-2.344,29.304,-1.563,-19.145,13.675,6.642,15.238,10.549,3.126,-17.582,19.927,27.350,33.993,0.781,25.006,12.112,-20.708,-17.582
'[15:29:39.539 24/07/2074]',13.675,-24.225,3.126,51.575,16.410,3.907,32.430,-9.377,-17.582,16.020,8.987,16.801,14.457,3.516,-13.675,19.927,28.523,41.416,-2.344,8.987,19.927,-8.596,-13.675
'[15:29:39.543 24/07/2074]',12.503,-12.503,8.987,43.761,21.880,12.894,40.635,-22.662,-13.675,21.490,15.629,8.596,18.364,7.033,-4.298,10.549,32.039,45.324,-8.205,2.735,20.317,-3.516,-4.298
'[15:29:39.547 24/07/2074]',11.722,-11.722,16.801,42.979,25.397,15.238,41.807,-22.662,-14.847,22.662,19.145,13.284,14.066,15.238,-2.344,12.503,37.900,49.621,-16.020,11.722,27.350,-14.847,-2.344
'[15:29:39.551 24/07/2074]',3.907,-9.768,15.629,47.277,23.443,13.284,43.370,-22.271,-14.066,19.536,18.755,16.020,14.847,3.907,0.391,20.708,35.946,55.092,-14.847,-0.781,27.350,-10.549,0.391
'[15:29:39.555 24/07/2074]',-1.172,-4.298,21.490,44.151,26.178,14.457,50.012,-31.648,-5.861,23.053,23.443,8.205,16.020,17.192,1.172,12.894,33.993,54.701,-20.708,-7.033,27.350,6.642,1.172
'[15:29:39.559 24/07/2074]',2.735,-19.536,27.350,46.496,31.648,8.205,53.138,-37.118,-2.735,21.490,27.350,3.516,13.284,18.364,8.596,7.424,32.039,52.747,-26.569,12.894,28.913,-3.907,8.596
'[15:29:39.563 24/07/2074]',-4.298,-14.847,15.238,55.482,33.211,2.735,51.575,-37.900,6.252,15.238,25.006,2.735,13.284,6.252,17.973,10.549,27.741,54.701,-14.457,-5.861,31.258,3.126,17.973
'[15:29:39.566 24/07/2074]',-7.424,-27.350,27.741,58.608,39.463,1.954,53.529,-44.542,19.927,11.331,27.741,-1.954,16.410,3.907,26.569,8.987,22.271,54.310,-26.960,-5.470,34.383,16.020,26.569
'[15:29:39.570 24/07/2074]',-6.642,-18.364,23.834,53.529,47.668,3.516,54.310,-54.310,27.350,10.159,35.946,-10.159,14.847,0.391,41.807,5.470,23.834,53.529,-23.053,-0.391,36.337,-4.298,41.807
'[15:29:39.574 24/07/2074]',-14.066,-14.066,24.225,54.310,46.496,5.861,53.138,-56.264,33.211,5.861,42.979,-12.894,12.112,-7.033,55.482,7.814,25.397,57.827,-23.443,2.344,35.165,-17.973,55.482
'[15:29:39.578 24/07/2074]',-13.284,-21.880,32.430,58.217,49.231,10.159,55.873,-60.562,38.681,5.861,48.059,-17.973,12.503,-5.470,59.780,7.424,22.662,66.813,-31.648,-6.642,36.728,-0.781,59.780
'[15:29:39.582 24/07/2074]',-8.205,-14.847,34.774,50.794,53.529,17.192,64.078,-73.846,40.244,8.596,59.389,-30.476,10.159,-0.391,68.767,-0.391,21.880,74.237,-33.993,-10.549,38.681,0.000,68.767
'[15:29:39.586 24/07/2074]',-7.033,-16.410,42.198,55.092,51.966,23.834,70.330,-73.846,42.198,8.596,67.204,-32.039,10.940,-6.642,81.270,0.391,25.788,81.661,-41.416,5.470,29.304,-8.205,81.270
'[15:29:39.590 24/07/2074]',-6.252,-30.085,62.515,66.813,53.138,28.523,77.753,-67.595,44.933,10.159,70.720,-26.178,11.722,-3.907,85.177,6.642,28.132,94.945,-61.734,15.238,26.178,8.205,85.177
'[15:29:39.594 24/07/2074]',-4.298,-12.894,56.654,66.813,55.092,36.728,86.740,-74.237,49.621,15.629,79.316,-32.430,14.066,0.000,92.601,5.079,31.648,101.978,-55.873,-9.377,35.165,14.457,92.601
'[15:29:39.598 24/07/2074]',-1.563,-3.516,61.734,61.343,53.919,44.151,93.773,-76.190,51.966,20.317,87.131,-35.556,14.066,0.781,101.978,5.470,41.416,107.057,-60.952,-5.861,33.602,0.391,101.978
'[15:29:39.602 24/07/2074]',-3.907,-1.954,64.469,67.985,50.403,46.886,100.024,-72.283,51.966,20.317,92.991,-34.774,13.675,-0.391,108.230,7.814,47.277,115.263,-63.687,-1.563,35.556,-7.424,108.230
'[15:29:39.605 24/07/2074]',-4.689,3.907,62.515,61.734,46.886,49.231,105.104,-78.926,52.747,19.927,96.899,-39.853,12.112,0.781,111.355,3.516,44.933,121.514,-61.734,-26.178,44.933,2.735,111.355
'[15:29:39.609 24/07/2074]',-3.516,12.894,62.906,50.794,43.370,54.701,112.527,-88.303,51.966,21.880,102.369,-48.059,8.987,-0.781,121.123,-1.563,42.198,123.858,-62.125,-27.350,43.370,-8.205,121.123
'[15:29:39.613 24/07/2074]',-8.987,-6.642,76.972,63.687,33.211,52.747,113.700,-75.800,46.886,17.973,102.759,-37.118,2.344,1.172,123.077,2.735,39.072,132.063,-76.190,0.000,36.728,-8.205,123.077
'[15:29:39.617 24/07/2074]',-14.457,-16.410,88.303,62.515,25.788,52.747,115.263,-75.409,41.807,16.801,100.024,-33.993,-1.563,7.424,115.653,3.126,32.039,135.971,-87.521,1.954,36.728,6.252,115.653
'[15:29:39.621 24/07/2074]',-10.549,-0.391,85.568,48.840,25.006,58.999,117.998,-80.879,38.291,21.099,101.978,-37.509,-1.954,16.020,110.574,0.000,28.913,136.752,-84.786,-9.377,32.821,10.940,110.574
'[15:29:39.625 24/07/2074]',-14.457,4.689,90.647,45.714,17.973,63.297,120.342,-75.800,30.476,23.443,103.932,-32.821,-3.516,19.145,106.667,3.126,31.648,137.924,-89.866,2.735,27.741,0.781,106.667
'[15:29:39.629 24/07/2074]',-19.927,-6.642,107.057,43.761,12.503,62.515,118.779,-72.283,19.927,22.662,100.024,-25.788,-6.252,16.801,96.899,10.549,30.085,138.315,-106.276,4.298,30.867,9.377,96.899
'[15:29:39.633 24/07/2074]',-20.708,1.172,103.150,32.430,8.205,65.250,118.779,-76.190,16.020,23.834,96.899,-25.397,-5.470,17.582,87.521,11.722,28.132,134.408,-102.369,-17.973,35.556,19.145,87.521
'[15:29:39.637 24/07/2074]',-22.271,-1.563,103.932,25.788,0.391,65.250,115.263,-75.409,8.987,22.271,94.554,-21.880,-5.861,13.284,83.614,12.894,30.867,125.031,-103.150,-5.079,34.383,3.516,83.614
'[15:29:39.641 24/07/2074]',-26.960,-36.728,126.984,27.741,-7.424,58.608,110.183,-70.720,-1.954,19.145,87.521,-14.457,-10.940,16.020,70.720,13.284,30.085,117.607,-126.203,39.853,31.258,-1.563,70.720
'[15:29:39.645 24/07/2074]',-25.788,-1.172,93.773,14.066,-4.689,58.217,101.587,-74.628,-5.470,17.582,80.879,-11.331,-7.814,16.410,57.436,13.284,25.397,109.792,-92.991,-13.284,33.211,15.629,57.436
'[15:29:39.648 24/07/2074]',-16.801,3.907,87.131,1.954,1.954,55.873,97.289,-79.707,-7.033,17.192,77.363,-12.112,0.391,14.847,48.449,8.987,24.225,98.852,-86.349,-20.708,41.026,9.377,48.449
'[15:29:39.652 24/07/2074]',-14.457,-0.391,95.726,-5.079,5.470,49.621,95.726,-78.144,-11.722,16.410,70.330,-7.033,2.735,13.284,41.026,8.987,24.225,91.429,-94.945,0.391,37.118,-1.954,41.026
'[15:29:39.656 24/07/2074]',-15.629,1.172,96.899,-6.642,7.424,43.761,91.429,-69.548,-14.066,10.159,58.608,6.252,6.642,1.563,28.132,23.053,18.364,89.084,-96.117,-18.364,42.979,3.516,28.132
'[15:29:39.660 24/07/2074]',-10.549,9.377,91.429,-19.536,5.861,42.979,92.991,-73.065,-14.457,8.205,54.701,4.689,11.331,-3.907,25.788,19.536,17.582,84.005,-90.647,-31.648,42.979,2.735,25.788
'[15:29:39.664 24/07/2074]',-14.066,-11.331,110.965,-21.880,-4.298,42.198,93.773,-69.939,-19.145,5.861,49.231,8.987,11.722,-8.205,19.927,21.099,20.317,78.535,-110.183,7.814,42.198,-17.192,19.927
'[15:29:39.668 24/07/2074]',-21.880,-9.377,111.355,-14.847,-12.112,42.979,89.475,-57.045,-21.880,2.344,42.198,21.490,14.847,-10.549,11.722,28.132,21.490,77.753,-110.574,12.894,44.933,-19.536,11.722
'[15:29:39.672 24/07/2074]',-17.192,-1.563,98.071,-18.755,-14.457,45.714,85.177,-58.217,-18.364,4.689,35.946,19.145,22.662,-9.377,2.735,25.397,19.145,71.111,-97.289,-10.159,53.138,-7.033,2.735
'[15:29:39.676 24/07/2074]',-12.112,-7.424,107.839,-26.960,-12.503,48.449,86.740,-63.687,-10.940,8.987,30.867,12.894,32.039,-3.907,-5.861,19.927,21.490,64.469,-107.057,11.331,48.059,-6.252,-5.861
'[15:29:39.680 24/07/2074]',-15.238,-16.410,108.620,-17.582,-19.927,44.933,82.442,-50.403,-10.159,6.642,21.490,22.271,29.695,-5.861,-14.847,32.430,18.364,64.860,-107.839,22.271,47.668,-13.284,-14.847
'[15:29:39.684 24/07/2074]',-12.503,-5.861,96.899,-23.443,-21.490,45.714,80.488,-50.794,-5.470,6.252,16.410,21.099,33.211,-11.331,-18.364,36.337,14.457,64.860,-96.117,2.344,44.542,-6.252,-18.364
'[15:29:39.688 24/07/2074]',-1.563,-6.252,94.554,-29.304,-19.536,47.277,82.442,-54.310,0.391,9.768,16.410,15.629,37.900,-7.033,-18.364,31.648,13.675,61.343,-93.773,8.205,37.900,-8.596,-18.364
'[15:29:39.691 24/07/2074]',-1.172,-15.629,103.932,-25.006,-20.708,44.542,81.661,-45.714,0.391,7.814,16.801,21.490,37.509,-7.033,-16.801,35.165,14.847,60.562,-103.150,26.178,41.026,-21.490,-16.801
'[15:29:39.695 24/07/2074]',-3.126,3.126,84.786,-21.880,-17.582,42.979,79.316,-42.979,3.126,3.907,16.020,25.397,40.244,-8.205,-18.755,38.291,11.722,61.734,-84.005,-7.424,43.370,-3.516,-18.755
'[15:29:39.699 24/07/2074]',0.391,-1.954,85.568,-19.927,-9.768,39.072,77.753,-44.933,8.205,4.689,16.410,20.708,39.463,-4.689,-17.973,35.165,9.377,58.217,-84.786,-7.033,45.324,1.563,-17.973
'[15:29:39.703 24/07/2074]',-5.470,-7.814,87.131,-15.629,-8.987,32.430,76.581,-43.761,8.596,0.391,17.582,19.927,39.463,-1.172,-24.615,35.165,12.503,51.966,-86.349,13.675,53.138,-10.549,-24.615
'[15:29:39.707 24/07/2074]',-14.066,-10.159,77.753,-7.424,-10.549,23.834,72.674,-41.807,5.470,-6.642,17.192,21.490,30.085,-7.424,-24.225,40.635,11.331,51.575,-76.972,18.755,50.403,-16.410,-24.225
'[15:29:39.711 24/07/2074]',-15.238,-9.768,72.674,-7.424,-6.642,20.708,71.893,-46.886,8.987,-7.424,18.364,13.284,28.913,-13.284,-20.708,39.463,8.596,49.621,-71.893,8.596,48.059,-9.377,-20.708
'[15:29:39.715 24/07/2074]',-17.973,-19.536,85.177,-12.894,-7.424,19.536,74.237,-52.747,11.331,-7.033,22.662,4.298,30.085,-7.814,-21.099,31.648,10.549,43.761,-84.396,25.397,50.012,-9.377,-21.099
'[15:29:39.719 24/07/2074]',-23.053,-24.225,86.349,-7.814,-7.814,14.457,71.111,-47.668,8.596,-11.331,24.615,5.861,26.960,-10.549,-19.145,31.648,8.987,43.761,-85.568,35.556,50.012,-15.238,-19.145
'[15:29:39.723 24/07/2074]',-26.178,-21.490,80.488,-5.079,-6.642,11.722,64.469,-43.761,10.940,-14.847,23.053,6.642,28.523,-14.847,-18.364,32.039,4.298,42.589,-79.707,17.582,55.092,-5.861,-18.364
'[15:29:39.727 24/07/2074]',-28.132,-21.880,75.018,-3.516,-7.424,9.377,60.562,-42.979,9.377,-15.629,24.225,4.298,28.913,-8.987,-22.271,25.397,1.954,40.244,-74.237,9.768,70.330,-3.516,-22.271
'[15:29:39.730 24/07/2074]',-28.523,-20.708,65.250,2.735,-8.987,7.033,53.529,-34.774,1.172,-20.317,23.834,11.331,25.788,-12.503,-21.880,26.178,5.079,36.728,-64.469,23.834,68.376,-17.973,-21.880
'[15:29:39.734 24/07/2074]',-23.443,-32.430,69.548,2.344,-7.033,6.252,50.012,-34.383,0.781,-22.662,23.443,11.722,28.132,-16.410,-19.927,21.880,6.642,37.900,-68.767,34.774,66.813,-19.145,-19.927
'[15:29:39.738 24/07/2074]',-20.708,-19.145,62.125,-8.205,-5.079,12.112,48.840,-44.151,0.391,-20.708,25.006,6.252,29.695,-17.582,-17.192,17.192,3.907,37.900,-61.343,12.894,71.893,-15.238,-17.192
'[15:29:39.742 24/07/2074]',-16.020,-24.225,70.720,-12.503,0.000,14.457,47.668,-46.496,2.344,-21.099,26.569,3.126,32.039,-10.549,-20.317,11.331,7.424,33.211,-69.939,29.695,69.548,-16.020,-20.317
'[15:29:39.746 24/07/2074]',-16.020,-27.350,70.720,-14.457,0.781,10.549,44.933,-46.886,4.689,-25.006,25.397,2.344,33.993,-16.801,-14.847,7.033,5.470,36.728,-69.939,30.867,68.376,-19.927,-14.847
'[15:29:39.750 24/07/2074]',-21.490,-13.284,53.529,-10.159,-1.954,9.377,41.807,-42.979,5.079,-23.443,19.536,6.252,28.523,-19.536,-10.549,10.159,1.172,38.681,-52.747,3.126,64.860,-8.987,-10.549
'[15:29:39.754 24/07/2074]',-17.582,-7.424,52.357,-13.675,-2.735,10.940,43.761,-41.026,7.424,-20.317,22.662,5.079,32.821,-20.708,-3.126,7.424,3.907,35.946,-51.575,9.768,58.999,-21.490,-3.126
'[15:29:39.758 24/07/2074]',-9.768,-4.298,46.496,-15.629,-5.861,10.549,47.277,-36.728,7.424,-15.238,24.615,7.033,33.602,-17.192,3.516,4.689,11.331,37.509,-45.714,18.755,48.059,-33.211,3.516
'[15:29:39.762 24/07/2074]',-8.596,-16.020,62.906,-15.238,-8.205,11.722,49.231,-31.258,6.252,-7.814,22.271,11.722,32.039,-11.331,3.126,9.377,12.112,39.853,-62.125,20.317,42.979,-19.145,3.126
'[15:29:39.766 24/07/2074]',2.735,-12.894,72.283,-26.178,-1.172,16.801,52.357,-34.383,12.894,2.344,23.053,7.424,33.993,0.391,6.252,5.470,17.582,33.993,-71.502,12.112,35.556,-7.814,6.252
'[15:29:39.770 24/07/2074]',9.377,-15.629,80.098,-29.695,1.172,15.629,53.529,-28.523,15.629,12.112,18.364,7.424,39.853,11.331,1.563,1.172,26.178,27.350,-79.316,23.834,31.648,-6.642,1.563
'[15:29:39.773 24/07/2074]',4.298,-17.582,84.786,-25.006,3.516,10.940,50.794,-20.708,15.238,17.582,10.549,13.284,37.509,17.582,0.781,1.172,26.569,25.006,-84.005,20.708,38.291,0.391,0.781
'[15:29:39.777 24/07/2074]',3.907,-12.503,78.926,-27.741,5.079,6.642,48.059,-19.927,17.973,20.317,4.298,10.549,34.383,19.927,0.391,0.391,22.662,17.192,-78.144,2.735,35.556,13.284,0.391
'[15:29:39.781 24/07/2074]',3.126,-6.642,74.237,-34.383,4.298,3.126,46.105,-19.927,20.708,19.536,0.391,4.689,35.556,20.708,-1.563,-7.424,23.443,5.861,-73.455,7.424,38.291,4.298,-1.563
'[15:29:39.785 24/07/2074]',-4.689,-5.470,73.455,-34.383,2.344,-0.781,42.589,-16.801,19.927,12.503,-5.470,7.424,33.602,15.629,-5.470,-7.814,20.317,0.000,-72.674,17.973,41.807,-3.907,-5.470
'[15:29:39.789 24/07/2074]',-7.033,-14.066,74.628,-36.337,1.563,-6.642,34.774,-14.457,21.099,3.516,-15.238,6.252,23.834,9.377,-8.987,-7.033,12.503,-9.377,-73.846,12.112,39.463,4.689,-8.987
'[15:29:39.793 24/07/2074]',-5.470,-18.364,78.535,-44.933,3.907,-7.814,34.383,-22.662,27.741,1.563,-20.317,-3.516,25.397,6.642,-8.987,-17.582,8.205,-20.317,-77.753,16.410,39.853,6.252,-8.987
'[15:29:39.797 24/07/2074]',-17.973,-1.563,63.297,-40.635,0.391,-11.722,28.913,-15.629,27.350,-2.344,-26.178,1.172,22.662,5.079,-8.987,-18.364,7.814,-27.350,-62.515,8.205,49.231,-0.781,-8.987
'[15:29:39.801 24/07/2074]',-21.880,-13.284,63.297,-37.509,-1.954,-19.536,23.834,-13.284,24.615,-4.689,-31.648,2.735,11.722,6.642,-8.205,-19.145,4.298,-32.821,-62.515,6.642,50.012,6.252,-8.205
'[15:29:39.805 24/07/2074]',-18.755,-8.205,57.045,-46.105,1.172,-22.271,23.053,-20.317,25.788,-1.563,-32.430,-5.470,10.159,10.549,-10.940,-23.834,1.563,-44.151,-56.264,-3.907,50.794,12.112,-10.940
'[15:29:39.809 24/07/2074]',-21.880,-3.126,55.092,-50.794,2.344,-26.178,21.490,-20.317,23.834,0.391,-33.993,-7.424,7.814,10.940,-9.768,-26.960,4.298,-52.747,-54.310,3.126,44.933,8.596,-9.768
'[15:29:39.813 24/07/2074]',-20.317,-23.834,59.780,-47.277,0.000,-34.774,16.410,-14.457,18.364,0.000,-39.853,-1.954,-1.172,9.768,-10.159,-21.099,0.391,-53.919,-58.999,15.238,33.211,12.894,-10.159
'[15:29:39.816 24/07/2074]',-20.708,-37.900,69.548,-51.184,0.781,-40.635,11.331,-13.675,16.801,1.563,-47.277,-3.907,-3.126,11.331,-16.801,-22.271,-5.079,-58.217,-68.767,12.894,32.430,29.695,-16.801
'[15:29:39.820 24/07/2074]',-19.145,-33.993,65.250,-53.919,1.954,-42.198,8.987,-12.894,16.410,3.907,-48.059,-5.079,-3.907,12.503,-12.112,-27.350,-4.298,-62.515,-64.469,24.225,26.178,18.755,-12.112
'[15:29:39.824 24/07/2074]',-25.006,-37.900,62.515,-49.231,-3.126,-46.886,5.079,-6.642,13.284,0.391,-51.575,1.172,-7.424,3.907,-9.377,-21.490,-3.907,-63.687,-61.734,36.728,22.662,3.907,-9.377
'[15:29:39.828 24/07/2074]',-23.834,-31.648,53.138,-52.357,-1.563,-46.886,1.172,-8.596,13.284,-3.907,-54.701,0.781,-12.894,-2.735,-10.549,-16.020,-8.596,-63.687,-52.357,10.159,26.960,7.814,-10.549
'[15:29:39.832 24/07/2074]',-22.662,-19.927,48.059,-57.045,0.781,-39.853,1.563,-16.020,17.582,-8.205,-51.966,-3.907,-10.940,-7.033,-8.205,-17.973,-7.814,-67.595,-47.277,2.344,26.178,6.252,-8.205
'[15:29:39.836 24/07/2074]',-24.225,-24.615,53.919,-57.436,-1.563,-36.337,1.563,-16.410,18.364,-14.066,-50.403,-1.563,-11.722,-14.457,-5.079,-14.457,-5.470,-68.767,-53.138,23.834,20.708,-14.457,-5.079
'[15:29:39.840 24/07/2074]',-29.695,-19.927,51.184,-54.310,-3.907,-35.556,-2.344,-10.940,13.675,-17.582,-57.827,4.689,-18.364,-17.973,-9.377,-8.596,-7.424,-65.250,-50.403,8.205,21.490,-3.907,-9.377
'[15:29:39.844 24/07/2074]',-30.476,-20.317,66.032,-58.999,-1.954,-30.085,-0.391,-11.331,16.410,-14.066,-60.171,1.563,-16.801,-12.112,-12.112,-12.503,-7.033,-64.469,-65.250,10.549,13.284,12.894,-12.112
'[15:29:39.848 24/07/2074]',-31.258,-27.741,79.707,-63.687,-6.642,-27.350,1.563,-11.331,14.457,-5.861,-61.734,-1.172,-13.675,-12.112,-10.549,-15.238,-2.344,-64.078,-78.926,42.198,7.814,-5.861,-10.549
'[15:29:39.852 24/07/2074]',-37.118,1.563,55.092,-60.562,-12.112,-24.225,-1.172,-2.344,10.549,0.391,-67.595,7.424,-14.066,-15.629,-7.424,-7.814,-1.563,-60.171,-54.310,12.894,2.344,-1.954,-7.424
'[15:29:39.855 24/07/2074]',-31.648,-6.252,55.482,-59.780,-15.238,-22.271,-2.344,-1.954,10.159,3.907,-69.548,9.377,-10.940,-13.284,-10.159,-7.033,-7.033,-55.482,-54.701,4.689,5.861,8.205,-10.159
'[15:29:39.859 24/07/2074]',-27.350,-1.172,49.231,-64.078,-14.847,-17.582,-3.126,-8.205,9.768,3.907,-64.078,10.159,-5.470,-10.940,-8.205,-10.940,-11.722,-54.310,-48.449,2.344,10.159,1.563,-8.205
'[15:29:39.863 24/07/2074]',-30.867,5.079,35.946,-57.045,-16.020,-19.145,-11.331,0.391,5.079,-4.298,-60.952,23.834,-5.079,-15.629,-6.252,-5.079,-17.192,-51.184,-35.165,0.391,13.284,-12.112,-6.252
'[15:29:39.867 24/07/2074]',-26.960,-4.689,39.463,-56.654,-11.331,-22.271,-20.317,4.298,1.563,-15.238,-56.654,31.258,-8.596,-16.410,-10.159,-1.563,-25.006,-47.668,-38.681,-2.735,11.722,-5.470,-10.159
'[15:29:39.871 24/07/2074]',-23.834,-9.768,51.184,-68.376,-3.516,-21.099,-21.490,-4.689,1.172,-21.099,-45.324,24.225,-3.907,-16.020,-8.205,-9.768,-31.258,-49.231,-50.403,7.814,15.238,-12.894,-8.205
'[15:29:39.875 24/07/2074]',-21.099,-14.457,52.357,-67.595,-0.391,-22.662,-25.788,-1.954,-1.563,-25.006,-37.509,26.569,-3.907,-15.629,-7.814,-7.814,-34.774,-50.012,-51.575,23.443,7.814,-20.708,-7.814
'[15:29:39.879 24/07/2074]',-16.801,-8.596,37.118,-65.641,0.391,-21.880,-32.039,-0.781,-5.861,-28.132,-32.821,29.695,-8.596,-17.582,-8.205,-1.172,-40.244,-43.761,-36.337,1.172,4.298,-13.675,-8.205
'[15:29:39.883 24/07/2074]',-15.629,-11.722,37.900,-69.158,0.781,-17.582,-35.946,-6.252,-8.987,-27.350,-26.960,26.178,-8.987,-18.755,-5.079,-2.344,-46.496,-40.635,-37.118,-3.126,0.391,-6.642,-5.079
'[15:29:39.887 24/07/2074]',-10.940,-8.205,33.993,-70.720,1.954,-12.112,-39.463,-6.642,-10.159,-23.053,-21.490,25.397,-6.252,-17.973,0.391,-3.907,-42.979,-41.807,-33.211,4.298,-7.814,-15.629,0.391
'[15:29:39.891 24/07/2074]',-12.503,-8.205,35.556,-69.939,0.391,-7.814,-45.324,-2.735,-16.410,-19.927,-20.317,30.085,-12.112,-23.834,8.205,1.172,-36.728,-38.681,-34.774,11.722,-14.066,-29.304,8.205
'[15:29:39.895 24/07/2074]',-12.894,-13.675,43.761,-69.548,2.344,-2.344,-48.840,-3.907,-15.238,-16.020,-21.099,26.960,-14.847,-16.801,8.205,-1.172,-35.556,-39.463,-42.979,6.252,-18.364,-8.205,8.205
'[15:29:39.898 24/07/2074]',-3.907,-16.020,51.575,-76.581,10.940,2.735,-48.059,-12.112,-10.940,-9.377,-20.317,20.317,-13.284,-5.079,7.814,-8.596,-32.821,-44.542,-50.794,14.066,-16.020,-8.987,7.814
'[15:29:39.902 24/07/2074]',-5.861,-17.582,53.138,-73.846,8.205,3.907,-50.794,-7.814,-12.112,-8.205,-22.662,23.443,-14.847,-5.079,6.642,-5.470,-30.476,-44.933,-52.357,33.602,-25.397,-18.364,6.642
'[15:29:39.906 24/07/2074]',-6.642,1.954,27.741,-71.502,8.205,4.298,-58.999,-2.735,-12.894,-10.159,-28.132,26.569,-17.192,-8.205,3.516,-1.172,-32.821,-44.542,-26.960,-2.735,-20.708,-12.894,3.516
'[15:29:39.910 24/07/2074]',-6.252,2.344,25.006,-73.065,9.377,0.391,-59.780,-2.344,-12.112,-10.159,-31.258,23.834,-13.284,-7.033,-0.781,-7.424,-36.337,-48.059,-24.225,-3.126,-19.536,-6.642,-0.781
'[15:29:39.914 24/07/2074]',-7.033,12.894,14.457,-77.363,5.470,-7.033,-62.515,6.252,-18.755,-13.284,-33.993,25.397,-16.801,-16.020,0.391,-5.861,-34.774,-54.310,-13.675,-2.344,-25.788,-22.662,0.391
'[15:29:39.918 24/07/2074]',-8.987,-0.391,15.238,-69.548,2.735,-16.801,-67.985,18.364,-22.271,-20.317,-39.463,31.648,-19.927,-16.801,-3.907,-7.424,-34.383,-59.389,-14.457,8.205,-21.099,-26.960,-3.907
'[15:29:39.922 24/07/2074]',-5.079,-17.582,25.397,-71.111,7.033,-25.006,-69.939,18.364,-19.145,-26.178,-44.151,30.476,-19.927,-7.033,-16.410,-13.284,-41.807,-69.158,-24.615,12.503,-11.722,-10.940,-16.410
'[15:29:39.926 24/07/2074]',-3.516,-20.708,19.536,-74.628,5.861,-30.476,-73.065,17.192,-16.410,-33.211,-47.668,26.569,-19.536,-10.159,-22.271,-17.192,-47.277,-79.707,-18.755,26.960,-17.582,-21.099,-22.271
'[15:29:39.930 24/07/2074]',-10.159,-25.397,10.159,-67.204,-0.391,-37.118,-80.879,24.615,-17.192,-42.589,-55.873,31.648,-19.145,-20.708,-27.741,-14.457,-50.012,-84.005,-9.377,34.774,-17.192,-29.695,-27.741
'[15:29:39.934 24/07/2074]',-14.847,-16.020,-5.079,-62.125,-5.079,-41.026,-85.568,31.648,-15.238,-43.761,-63.297,34.774,-19.927,-19.145,-33.602,-12.894,-53.919,-86.740,5.861,13.675,-10.159,-22.271,-33.602
'[15:29:39.938 24/07/2074]',-11.722,-14.457,-6.252,-66.032,-4.298,-42.589,-82.833,29.304,-10.549,-37.118,-63.687,25.006,-12.894,-18.755,-30.867,-21.880,-50.012,-94.554,7.033,25.788,-15.629,-26.960,-30.867
'[15:29:39.941 24/07/2074]',-12.112,-21.490,-7.814,-58.217,-8.987,-46.496,-82.442,36.337,-14.847,-28.523,-66.032,25.397,-15.238,-15.629,-25.006,-25.788,-42.979,-99.634,8.596,42.979,-11.331,-40.635,-25.006
'[15:29:39.945 24/07/2074]',-12.503,-30.476,-7.424,-46.886,-7.814,-50.794,-82.833,41.807,-15.629,-25.006,-69.939,28.913,-14.066,-10.940,-29.304,-25.006,-41.807,-101.197,8.205,32.430,-2.344,-19.145,-29.304
'[15:29:39.949 24/07/2074]',-8.987,-27.350,-14.457,-47.668,-1.172,-51.575,-81.661,33.993,-12.894,-23.443,-68.767,21.880,-14.066,-3.907,-33.993,-28.523,-42.198,-106.276,15.238,25.788,1.954,-11.331,-33.993
'[15:29:39.953 24/07/2074]',-14.066,-12.503,-32.821,-45.714,-2.344,-51.966,-84.396,32.039,-16.020,-27.741,-65.641,19.145,-14.066,-17.192,-31.258,-26.178,-40.244,-113.309,33.602,24.225,-0.391,-27.741,-31.258
'[15:29:39.957 24/07/2074]',-18.364,-13.284,-38.291,-35.165,-3.907,-53.919,-88.694,39.853,-19.927,-32.039,-66.813,23.053,-20.708,-21.099,-32.430,-19.145,-39.072,-115.263,39.072,17.192,7.424,-32.430,-32.430
'[15:29:39.961 24/07/2074]',-20.708,-10.549,-44.151,-33.211,-2.735,-53.919,-89.475,35.556,-14.847,-30.867,-64.860,13.284,-23.053,-19.145,-30.476,-21.099,-39.072,-119.170,44.933,3.516,6.642,-21.490,-30.476
'[15:29:39.965 24/07/2074]',-17.582,-23.443,-35.165,-35.946,-2.344,-52.357,-89.084,29.695,-10.940,-27.741,-62.515,3.126,-21.880,-21.490,-26.569,-25.788,-38.681,-126.984,35.946,16.410,6.252,-26.569,-26.569
'[15:29:39.969 24/07/2074]',-17.973,-39.072,-28.913,-26.569,-3.126,-54.310,-91.038,33.993,-13.284,-25.788,-64.860,5.470,-25.788,-13.284,-28.913,-27.741,-38.291,-130.110,29.695,35.556,11.331,-27.741,-28.913
'[15:29:39.973 24/07/2074]',-18.755,-41.807,-32.039,-24.615,-2.344,-55.092,-90.647,28.913,-8.205,-25.397,-67.595,6.642,-26.178,-7.424,-30.476,-27.741,-40.635,-128.938,32.821,23.053,7.424,-3.907,-30.476
'[15:29:39.977 24/07/2074]',-20.317,-29.695,-33.993,-28.523,-1.563,-49.621,-86.349,22.662,-7.424,-25.397,-66.032,5.079,-26.960,-5.470,-32.821,-26.569,-42.198,-128.547,34.774,10.549,7.814,2.344,-32.821
'[15:29:39.980 24/07/2074]',-23.443,-19.927,-34.774,-26.178,-4.689,-44.151,-83.614,26.178,-11.722,-23.053,-63.687,9.377,-28.132,-6.642,-28.913,-23.443,-34.774,-126.593,35.556,21.880,4.298,-14.457,-28.913
'[15:29:39.984 24/07/2074]',-28.132,-21.880,-22.271,-23.834,-9.768,-36.728,-77.753,26.178,-13.284,-19.536,-60.562,10.940,-30.476,-5.861,-21.099,-22.271,-28.913,-117.216,23.053,26.569,0.391,-13.675,-21.099
'[15:29:39.988 24/07/2074]',-25.397,-20.708,-11.331,-25.006,-7.033,-26.569,-72.674,21.490,-9.377,-14.847,-57.045,8.596,-24.615,-5.079,-21.099,-20.317,-27.741,-111.355,12.112,18.364,1.563,-5.470,-21.099
'[15:29:39.992 24/07/2074]',-17.192,-9.768,-8.205,-36.728,-1.563,-13.284,-69.548,10.549,-6.642,-8.596,-51.575,3.907,-17.192,-1.563,-15.629,-27.350,-22.271,-104.322,8.987,23.443,-3.907,-12.503,-15.629
'[15:29:39.996 24/07/2074]',-13.675,-26.178,0.391,-31.258,-2.344,-7.814,-70.330,9.377,-8.987,-8.596,-49.621,12.894,-17.192,0.391,-12.503,-23.053,-19.536,-91.819,0.391,30.085,-1.954,-10.549,-12.503
'[15:29:40.000 24/07/2074]',-8.596,-7.424,-7.814,-38.681,2.735,2.344,-70.720,0.000,-6.642,-8.596,-45.324,14.457,-17.582,5.079,-16.020,-16.020,-15.629,-83.223,8.596,-1.563,-7.033,7.033,-16.020
'[15:29:40.004 24/07/2074]',-5.861,8.205,-11.722,-48.449,7.814,12.503,-69.158,-10.940,-9.768,-5.861,-37.118,11.331,-16.410,5.861,-14.066,-15.629,-5.079,-82.442,12.503,-3.907,-9.768,-1.954,-14.066
'[15:29:40.008 24/07/2074]',-8.987,1.172,-8.205,-43.370,4.689,13.675,-68.767,-11.331,-16.801,-5.079,-32.039,14.066,-17.582,7.033,-16.410,-12.503,7.033,-82.833,8.987,4.689,-1.172,-12.112,-16.410
'[15:29:40.012 24/07/2074]',-12.112,7.033,-11.331,-43.370,6.252,14.457,-68.376,-14.457,-16.801,-3.126,-32.821,12.503,-18.364,6.642,-20.317,-7.033,11.722,-79.316,12.112,-15.238,-1.172,1.563,-20.317
'[15:29:40.016 24/07/2074]',-11.331,9.768,-12.894,-48.840,10.549,13.675,-66.032,-23.443,-14.066,1.172,-34.383,5.079,-13.675,4.689,-22.271,-9.768,11.722,-79.316,13.675,-21.490,-3.516,7.814,-22.271
'[15:29:40.020 24/07/2074]',-8.596,3.907,-8.987,-48.449,12.503,11.722,-62.906,-24.615,-8.596,3.907,-37.509,3.516,-7.424,10.159,-23.834,-15.629,13.284,-75.018,9.768,-6.252,0.391,0.391,-23.834
'[15:29:40.023 24/07/2074]',-8.987,5.079,-4.689,-46.496,13.675,12.503,-62.125,-21.880,-3.907,3.516,-42.198,4.689,-8.205,11.722,-28.523,-10.940,9.377,-62.906,5.470,-7.424,-3.516,7.033,-28.523
'[15:29:40.027 24/07/2074]',-6.642,7.424,-1.172,-49.621,17.192,16.020,-59.389,-25.788,0.391,3.126,-46.105,-1.172,-3.907,5.079,-32.430,-10.549,2.344,-55.482,1.954,-17.582,-7.033,20.708,-32.430
'[15:29:40.031 24/07/2074]',-9.377,4.298,5.861,-44.542,15.629,18.364,-52.747,-27.350,4.298,5.470,-44.542,-6.252,1.954,6.252,-33.602,-14.457,3.126,-51.575,-5.079,0.000,5.861,6.642,-33.602
'[15:29:40.035 24/07/2074]',-9.768,9.377,-0.391,-38.291,13.675,21.099,-50.794,-25.397,5.470,9.377,-44.542,-10.159,1.563,8.987,-32.821,-16.801,2.735,-42.198,1.172,-2.735,11.331,5.861,-32.821
'[15:29:40.039 24/07/2074]',-7.814,5.079,-5.470,-33.993,12.503,21.099,-48.059,-30.085,8.987,14.847,-44.933,-17.582,6.252,2.735,-28.913,-18.755,-0.781,-33.211,6.252,-16.020,16.801,15.238,-28.913
'[15:29:40.043 24/07/2074]',-11.722,3.907,-5.470,-34.774,7.814,23.834,-42.589,-39.853,13.284,25.397,-40.244,-31.258,11.722,7.033,-21.490,-29.304,-1.954,-26.960,6.252,-13.675,19.927,19.145,-21.490
'[15:29:40.047 24/07/2074]',-6.252,1.172,-8.205,-32.039,7.033,23.053,-39.072,-38.681,12.894,31.258,-34.774,-36.728,9.768,14.066,-19.536,-30.867,1.172,-15.238,8.987,-9.768,23.053,14.847,-19.536
'[15:29:40.051 24/07/2074]',-8.987,-1.563,-3.126,-29.695,3.907,21.490,-35.165,-36.728,11.331,32.821,-30.867,-41.026,11.331,7.814,-17.582,-28.132,0.781,-4.298,3.907,-6.252,22.271,16.410,-17.582
'[15:29:40.055 24/07/2074]',-8.205,-6.252,0.391,-28.132,2.735,19.536,-26.960,-40.635,10.159,35.556,-23.053,-50.012,14.066,0.781,-12.503,-27.741,-0.781,-1.172,0.391,-1.954,22.662,16.020,-12.503
'[15:29:40.059 24/07/2074]',-4.689,-4.689,-8.596,-16.410,1.563,14.847,-21.099,-32.821,11.722,37.509,-16.801,-51.184,13.284,7.033,-7.033,-30.867,0.000,2.344,9.377,1.954,28.132,8.596,-7.033
'[15:29:40.063 24/07/2074]',-7.814,-10.159,-8.987,-6.252,0.391,8.596,-19.536,-25.788,12.112,35.946,-13.284,-50.403,14.847,2.735,-1.563,-30.476,-3.516,9.768,9.768,6.642,25.006,17.192,-1.563
'[15:29:40.066 24/07/2074]',-11.331,-5.470,-23.443,0.391,-1.172,3.126,-21.490,-21.880,10.940,31.258,-9.768,-49.621,13.284,-10.159,5.470,-25.006,-10.940,14.457,24.225,-11.722,27.741,18.755,5.470
'[15:29:40.070 24/07/2074]',-11.722,-4.298,-27.350,2.735,-1.563,-0.781,-19.145,-18.755,13.675,28.523,-0.781,-51.966,16.020,-5.470,10.940,-31.258,-14.066,16.801,28.132,-0.781,29.304,11.331,10.940
'[15:29:40.074 24/07/2074]',-9.768,-22.662,-17.192,7.814,-3.126,-8.205,-19.145,-10.940,8.987,22.662,5.079,-47.277,12.112,-5.079,12.503,-28.132,-16.020,22.271,17.973,19.536,33.993,1.954,12.503
'[15:29:40.078 24/07/2074]',-15.238,-28.523,-14.457,11.331,-7.814,-11.331,-17.192,-11.331,6.252,17.192,12.894,-47.668,5.861,-13.675,21.490,-22.271,-19.145,28.523,15.238,19.145,29.695,2.735,21.490
'[15:29:40.082 24/07/2074]',-11.331,-16.020,-30.867,7.424,-11.331,-9.768,-15.238,-14.066,6.252,18.755,20.317,-51.575,3.907,-8.205,23.443,-23.443,-19.145,28.523,31.648,-0.781,28.132,8.987,23.443
'[15:29:40.086 24/07/2074]',-12.503,-14.457,-30.476,6.642,-15.629,-7.814,-15.629,-12.112,3.907,19.536,23.834,-51.575,1.954,-8.205,26.960,-23.443,-13.284,28.913,31.258,12.503,26.960,-4.689,26.960
'[15:29:40.090 24/07/2074]',-16.801,3.516,-44.933,5.079,-18.364,-3.126,-21.099,-10.549,3.126,17.973,25.397,-49.231,1.563,-14.457,29.695,-17.582,-9.377,32.039,45.714,-3.907,19.536,-1.563,29.695
'[15:29:40.094 24/07/2074]',-13.675,12.503,-57.436,2.735,-17.582,0.000,-26.569,-10.549,5.079,22.662,25.397,-52.747,3.907,-5.861,27.741,-23.443,-8.205,30.867,58.217,-22.662,22.662,11.331,27.741
'[15:29:40.098 24/07/2074]',-10.159,-4.689,-43.761,2.344,-14.457,-1.172,-27.741,-11.722,10.549,26.960,27.350,-53.529,11.331,0.391,34.774,-33.602,-4.298,26.569,44.542,9.377,27.350,1.563,34.774
'[15:29:40.102 24/07/2074]',-9.768,-15.629,-42.589,7.033,-10.549,-8.205,-32.039,-8.596,8.987,30.476,28.132,-50.794,10.549,9.377,37.118,-39.463,-1.954,25.788,43.370,27.741,29.695,1.172,37.118
'[15:29:40.105 24/07/2074]',-5.470,-18.364,-53.529,9.377,-4.689,-14.457,-36.728,-10.940,11.331,32.039,26.178,-51.575,10.549,14.847,36.337,-42.589,-7.033,23.053,54.310,9.377,32.821,20.708,36.337
'[15:29:40.109 24/07/2074]',-2.735,-25.788,-45.714,1.563,3.126,-20.708,-34.383,-21.099,15.238,33.211,28.913,-57.045,12.112,18.364,41.026,-50.403,-8.987,17.973,46.496,19.927,30.085,25.397,41.026
'[15:29:40.113 24/07/2074]',-6.252,4.689,-70.720,-3.126,7.033,-24.225,-39.463,-19.536,9.377,28.132,28.523,-53.138,8.205,15.238,36.728,-46.105,-8.596,16.801,71.502,-6.252,34.774,16.801,36.728
'[15:29:40.117 24/07/2074]',-7.033,5.861,-77.753,-2.344,7.424,-26.960,-42.979,-18.364,8.205,20.317,26.960,-48.059,4.689,8.205,29.304,-34.383,-10.549,17.582,78.535,-21.880,39.853,14.066,29.304
'[15:29:40.121 24/07/2074]',-8.205,-1.954,-59.780,-14.066,8.987,-22.271,-41.416,-30.476,9.377,17.582,31.648,-55.482,4.298,5.470,33.602,-40.244,-8.205,10.549,60.562,-8.987,33.993,12.894,33.602
'[15:29:40.125 24/07/2074]',-5.470,1.954,-58.608,-20.317,9.768,-16.020,-42.198,-33.993,5.470,14.457,36.337,-54.701,1.954,6.642,31.648,-37.900,-1.172,5.470,59.389,-2.344,32.039,-1.172,31.648
'[15:29:40.129 24/07/2074]',-0.781,-13.675,-53.919,-15.238,9.768,-12.503,-49.231,-32.821,0.781,7.814,35.556,-48.840,-3.516,3.907,25.006,-28.523,1.563,2.735,54.701,-1.563,26.178,3.907,25.006
'[15:29:40.133 24/07/2074]',-0.391,-10.549,-60.562,-15.238,10.549,-7.033,-51.966,-39.072,0.391,4.689,36.337,-48.449,-6.252,4.298,21.880,-26.960,3.126,-3.126,61.343,-19.145,19.145,22.662,21.880
'[15:29:40.137 24/07/2074]',0.391,6.252,-73.455,-20.317,8.596,-1.954,-51.184,-42.979,-4.298,5.861,37.509,-48.840,-6.642,3.126,21.099,-26.569,10.159,-8.987,74.237,-23.834,18.364,7.033,21.099
'[15:29:40.141 24/07/2074]',-4.298,8.205,-76.190,-15.238,0.781,0.781,-52.357,-37.118,-10.940,3.126,33.602,-40.244,-9.768,-1.563,13.284,-14.847,15.238,-7.033,76.972,-17.973,15.238,-5.079,13.284
'[15:29:40.145 24/07/2074]',-3.126,5.079,-69.939,-18.364,-1.172,5.861,-50.012,-42.198,-12.503,1.954,28.913,-39.853,-15.238,-4.689,8.596,-8.596,16.801,-5.470,70.720,-22.662,5.079,3.516,8.596
'[15:29:40.148 24/07/2074]',-1.954,10.549,-62.515,-30.476,-2.344,12.503,-42.198,-53.138,-11.722,2.735,27.350,-49.231,-13.284,-1.954,-2.735,-10.549,20.317,-7.814,63.297,-18.755,0.391,3.516,-2.735
'[15:29:40.152 24/07/2074]',3.907,8.987,-57.045,-31.648,-2.344,15.629,-37.900,-51.184,-11.331,-1.172,25.006,-43.370,-15.629,-1.954,-12.894,0.781,23.834,-5.079,57.827,-11.331,-4.298,-7.814,-12.894
'[15:29:40.156 24/07/2074]',1.172,2.344,-55.482,-25.006,-5.470,11.331,-35.556,-46.886,-9.768,-9.768,19.927,-37.118,-14.066,-8.205,-27.350,13.284,20.317,-2.344,56.264,-20.317,-3.126,0.000,-27.350
'[15:29:40.160 24/07/2074]',-5.079,15.629,-60.952,-26.178,-7.814,10.159,-30.867,-48.449,-7.033,-11.722,19.927,-39.072,-8.205,-7.814,-37.900,16.410,17.973,-3.516,61.734,-39.463,3.516,5.079,-37.900
'[15:29:40.164 24/07/2074]',-1.563,15.238,-61.734,-25.006,-7.814,4.689,-28.523,-41.416,-7.814,-12.503,19.536,-35.946,-2.735,-8.205,-42.589,18.364,20.317,-5.861,62.515,-30.867,7.033,-10.159,-42.589
'[15:29:40.168 24/07/2074]',-1.563,2.735,-54.310,-18.364,-8.987,-1.563,-30.867,-29.695,-8.205,-16.020,15.629,-25.397,0.000,-9.768,-50.403,26.960,19.536,-4.689,55.092,-11.331,0.000,-13.675,-50.403
'[15:29:40.172 24/07/2074]',8.205,-3.126,-45.714,-28.523,-1.563,-4.298,-30.476,-32.430,-5.861,-17.192,14.847,-26.569,1.954,-8.596,-55.092,26.960,16.020,-7.033,46.496,-17.973,-4.298,-3.516,-55.092
'[15:29:40.176 24/07/2074]',14.457,-9.377,-40.244,-30.085,-0.391,-8.596,-29.304,-26.960,-1.954,-20.317,14.457,-25.788,8.987,-10.940,-60.171,28.523,12.894,-11.331,41.026,-5.861,-12.503,-6.642,-60.171
'[15:29:40.180 24/07/2074]',16.020,-7.424,-46.105,-24.615,-0.391,-14.847,-31.258,-14.847,-3.126,-29.695,14.066,-11.722,7.814,-20.708,-57.827,38.681,7.814,-7.424,46.886,-5.470,-19.927,-15.629,-57.827
'[15:29:40.184 24/07/2074]',12.894,-10.159,-46.105,-18.755,-3.516,-18.364,-33.602,-6.252,-2.735,-35.556,11.722,-5.861,7.814,-24.225,-59.389,42.589,0.391,-5.470,46.886,-10.940,-17.582,-9.768,-59.389
'[15:29:40.188 24/07/2074]',10.549,0.781,-51.575,-19.927,-3.907,-16.801,-33.602,-3.907,-3.126,-34.774,12.112,-7.033,10.549,-24.225,-56.654,36.337,-1.954,-10.940,52.357,-16.020,-9.768,-15.238,-56.654
'[15:29:40.191 24/07/2074]',14.066,10.549,-57.436,-17.973,-0.391,-14.457,-38.291,3.126,-2.344,-32.821,9.377,-1.563,9.377,-19.927,-50.012,32.430,-1.172,-13.675,58.217,-8.987,-15.629,-20.317,-50.012
'[15:29:40.195 24/07/2074]',13.675,2.735,-50.794,-10.940,3.907,-14.066,-43.761,8.987,0.781,-29.695,3.516,1.954,6.252,-8.205,-50.012,29.695,-3.516,-14.457,51.575,-12.112,-6.252,-5.861,-50.012
'[15:29:40.199 24/07/2074]',11.331,-2.344,-45.324,-9.768,4.298,-12.894,-46.105,8.205,3.907,-25.788,1.563,0.000,3.516,-5.079,-43.761,25.397,-7.424,-19.536,46.105,-10.159,-10.159,3.516,-43.761
'[15:29:40.203 24/07/2074]',17.582,-4.689,-46.886,-1.954,8.205,-15.238,-50.012,19.145,8.987,-23.053,0.391,1.954,8.205,-9.768,-31.648,23.053,-3.126,-25.788,47.668,1.954,-14.066,-8.596,-31.648
'[15:29:40.207 24/07/2074]',10.940,-12.503,-48.449,10.940,6.252,-21.099,-52.747,28.132,10.159,-22.662,0.000,6.642,7.424,-10.549,-23.834,21.490,-1.172,-25.788,49.231,10.549,-5.470,-14.457,-23.834
'[15:29:40.211 24/07/2074]',9.377,-17.192,-44.151,8.596,4.298,-24.225,-51.184,27.350,12.503,-19.145,0.781,0.781,5.470,-13.675,-10.159,12.894,-3.126,-27.350,44.933,7.033,-9.377,-8.596,-10.159
'[15:29:40.215 24/07/2074]',12.894,4.298,-62.125,7.814,8.205,-23.834,-50.012,29.304,13.675,-14.457,1.563,-2.344,8.987,-11.331,0.781,0.000,-1.954,-32.430,62.906,-14.457,-12.894,2.344,0.781
'[15:29:40.219 24/07/2074]',13.284,-1.172,-56.264,12.112,9.377,-26.960,-45.324,32.430,14.066,-8.596,1.563,0.000,5.079,0.000,13.675,-12.112,0.000,-31.648,57.045,0.391,-12.894,2.735,13.675
'[15:29:40.223 24/07/2074]',9.768,-10.549,-44.542,16.801,7.033,-28.523,-42.589,35.946,14.457,-5.079,0.391,2.735,-1.172,1.954,30.085,-17.192,-3.907,-29.695,45.324,-2.344,-18.755,18.755,30.085
'[15:29:40.227 24/07/2074]',11.722,0.000,-56.264,23.443,7.424,-28.523,-39.463,39.463,13.284,0.391,3.126,3.126,-6.252,10.159,43.761,-25.788,-6.642,-30.085,57.045,-21.099,-25.397,36.728,43.761
'[15:29:40.230 24/07/2074]',9.768,-1.563,-47.668,30.085,5.470,-26.178,-33.211,44.542,16.020,7.033,7.424,4.298,-5.079,13.675,59.780,-30.476,1.954,-30.867,48.449,-1.954,-20.708,19.927,59.780
'[15:29:40.234 24/07/2074]',6.642,-0.391,-46.496,37.509,0.781,-25.006,-28.913,50.794,14.457,9.377,13.284,7.424,-12.503,17.973,70.720,-28.132,3.907,-25.788,47.277,-2.735,-25.006,19.536,70.720
'[15:29:40.238 24/07/2074]',4.689,10.549,-53.529,42.589,-0.391,-23.053,-20.708,50.403,15.238,14.066,21.099,3.516,-10.159,20.708,76.190,-30.085,1.563,-23.834,54.310,-15.629,-29.304,30.476,76.190
'[15:29:40.242 24/07/2074]',7.033,8.205,-50.403,48.449,-1.172,-23.443,-11.722,51.966,15.629,18.364,25.397,3.516,-8.205,27.741,80.879,-34.774,1.954,-22.662,51.184,-3.907,-28.523,25.397,80.879
'[15:29:40.246 24/07/2074]',7.814,0.000,-48.840,57.045,-3.516,-27.741,-7.814,57.827,10.549,18.755,28.913,6.642,-12.894,34.383,82.442,-36.337,0.781,-16.410,49.621,0.781,-29.304,28.913,82.442
'[15:29:40.250 24/07/2074]',3.126,-4.298,-50.012,67.204,-6.642,-33.211,-6.642,63.687,6.252,17.192,29.304,8.987,-15.238,36.337,78.926,-35.556,-5.470,-12.503,50.794,-5.470,-29.695,40.244,78.926
'[15:29:40.254 24/07/2074]',10.159,-2.344,-51.575,63.687,-3.907,-35.165,-1.172,60.952,7.814,16.801,31.648,5.861,-9.768,37.509,78.926,-41.026,-4.298,-14.066,52.357,-3.126,-32.430,38.291,78.926
'[15:29:40.258 24/07/2074]',8.596,1.954,-48.059,61.343,-3.907,-34.383,4.298,58.608,8.987,14.847,36.728,4.298,-5.861,39.853,77.753,-43.370,0.391,-11.722,48.840,4.689,-29.695,26.569,77.753
'[15:29:40.262 24/07/2074]',5.079,-7.033,-37.509,66.813,-5.861,-36.337,9.768,60.171,10.940,8.987,38.681,8.205,-6.252,39.463,71.502,-34.383,-1.563,-6.642,38.291,3.516,-35.946,41.026,71.502
'[15:29:40.266 24/07/2074]',5.079,1.563,-34.383,65.250,-4.298,-30.085,17.192,55.482,13.284,6.642,42.589,8.987,-1.954,35.946,70.720,-29.695,-1.954,-5.470,35.165,-8.987,-33.993,44.151,70.720
'[15:29:40.270 24/07/2074]',3.907,7.033,-30.476,65.641,-5.470,-23.834,22.662,54.310,14.457,5.079,45.324,9.768,0.781,44.542,62.125,-29.695,2.735,-4.298,31.258,0.781,-30.476,37.118,62.125
'[15:29:40.273 24/07/2074]',-1.172,-14.066,-2.735,67.985,-9.768,-20.708,21.490,60.171,10.159,0.391,43.370,14.457,-2.344,33.602,57.436,-17.192,2.344,0.000,3.516,21.490,-26.960,26.569,57.436
'[15:29:40.277 24/07/2074]',-0.781,17.582,-23.443,64.469,-6.252,-15.629,19.536,60.562,7.033,-0.781,41.416,13.675,-4.298,31.258,45.324,-8.596,-0.391,1.563,24.225,-25.397,-19.927,35.165,45.324
'[15:29:40.281 24/07/2074]',0.391,21.880,-16.801,50.012,-6.252,-11.722,23.443,50.794,8.205,-0.391,42.589,5.470,0.000,28.913,39.853,-10.549,0.391,0.391,17.582,-17.973,-16.801,24.615,39.853
'[15:29:40.285 24/07/2074]',-0.391,20.317,-11.722,46.496,-5.861,-12.503,22.662,50.794,4.298,-3.126,37.509,7.424,0.391,17.973,30.476,-1.172,0.391,0.781,12.503,-8.596,-16.801,11.722,30.476
'[15:29:40.289 24/07/2074]',-0.781,28.132,-25.397,43.761,-8.987,-13.675,21.880,47.668,0.000,-6.642,32.039,12.503,-5.470,13.675,20.317,10.159,-4.298,0.781,26.178,-33.211,-19.145,21.099,20.317
'[15:29:40.293 24/07/2074]',-1.172,27.350,-28.523,33.993,-11.331,-12.894,21.490,35.165,2.344,-6.252,26.960,6.252,-0.391,16.801,8.596,5.470,-8.596,-4.298,29.304,-36.728,-17.973,29.695,8.596
'[15:29:40.297 24/07/2074]',-7.033,18.755,-23.834,31.648,-13.675,-15.629,15.629,33.602,1.954,-10.549,21.099,8.205,3.516,9.377,1.172,8.987,-8.596,-7.033,24.615,-13.284,-21.099,17.973,1.172
'[15:29:40.301 24/07/2074]',-8.987,12.112,-26.569,28.132,-16.410,-19.927,7.424,33.993,0.781,-15.238,13.675,14.066,-0.391,5.079,-5.861,16.410,-12.112,-7.814,27.350,-18.755,-19.927,17.192,-5.861
'[15:29:40.305 24/07/2074]',-8.205,8.987,-26.178,18.755,-14.457,-21.490,3.907,25.788,6.642,-16.801,5.470,10.159,7.814,-3.126,-13.284,16.020,-17.192,-14.457,26.960,-17.973,-21.099,18.755,-13.284
'[15:29:40.309 24/07/2074]',-5.079,4.298,-25.006,12.894,-12.894,-21.490,1.172,20.708,7.033,-18.755,-1.563,7.424,11.722,-9.768,-19.927,13.675,-17.582,-19.145,25.788,-0.391,-15.629,2.344,-19.927
'[15:29:40.313 24/07/2074]',-1.563,5.861,-39.463,10.940,-15.238,-21.880,-6.252,20.708,1.954,-25.397,-12.894,15.629,5.470,-25.397,-23.443,23.443,-19.927,-18.755,40.244,-21.490,-7.424,-5.861,-23.443
'[15:29:40.316 24/07/2074]',1.563,10.940,-51.575,10.549,-14.066,-19.927,-10.549,18.755,1.563,-26.960,-22.662,17.973,5.861,-28.913,-35.165,28.523,-23.834,-19.927,52.357,-33.993,-8.987,3.126,-35.165
'[15:29:40.320 24/07/2074]',3.907,28.132,-59.389,0.391,-10.940,-12.503,-13.284,11.331,0.391,-24.225,-23.443,12.503,6.252,-28.132,-35.556,23.053,-22.271,-22.271,60.171,-34.774,-7.424,-8.596,-35.556
'[15:29:40.324 24/07/2074]',3.907,26.569,-53.919,-2.344,-12.112,-9.768,-17.973,15.238,-1.172,-23.053,-25.006,16.410,6.252,-25.788,-38.681,25.788,-18.364,-20.708,54.701,-23.443,-10.549,-11.722,-38.681
'[15:29:40.328 24/07/2074]',3.907,23.053,-50.403,-3.516,-12.112,-7.033,-21.099,14.847,-1.563,-20.317,-28.132,18.364,5.079,-23.443,-40.635,27.741,-20.708,-18.755,51.184,-24.225,-17.973,0.391,-40.635
'[15:29:40.332 24/07/2074]',7.814,28.913,-53.919,-12.894,-11.331,-1.954,-23.053,7.033,0.391,-11.722,-28.913,9.377,10.940,-19.536,-40.244,17.973,-21.880,-21.099,54.701,-33.211,-11.331,1.954,-40.244
'[15:29:40.336 24/07/2074]',13.284,20.317,-56.654,-11.722,-14.066,-2.344,-26.960,9.768,1.563,-7.814,-35.946,13.284,14.457,-21.490,-38.681,16.801,-19.536,-24.615,57.436,-19.145,-15.629,-5.861,-38.681
'[15:29:40.340 24/07/2074]',14.066,10.159,-62.515,-4.689,-16.020,-5.470,-34.383,13.675,4.298,-7.814,-44.933,16.410,17.192,-26.569,-39.853,18.364,-21.490,-26.960,63.297,-18.364,-10.549,-6.642,-39.853
'[15:29:40.344 24/07/2074]',16.020,13.284,-71.893,-6.252,-10.549,-8.205,-39.072,10.549,11.331,-4.298,-52.747,9.377,21.099,-23.053,-43.370,10.549,-25.788,-34.774,72.674,-29.304,-5.861,3.907,-43.370
'[15:29:40.348 24/07/2074]',10.940,12.503,-66.422,-5.861,-8.205,-10.159,-41.416,12.894,21.099,-1.563,-56.264,2.344,25.788,-14.847,-42.979,-0.391,-24.225,-42.979,67.204,-10.549,-1.172,0.781,-42.979
'[15:29:40.352 24/07/2074]',5.861,10.940,-66.032,-3.126,-6.252,-15.238,-45.324,16.801,28.913,-3.126,-60.562,-0.781,36.337,-14.457,-46.886,-8.987,-24.225,-50.012,66.813,-0.781,10.940,-3.516,-46.886
'[15:29:40.355 24/07/2074]',5.470,10.159,-68.376,0.781,0.391,-19.145,-49.621,19.145,33.211,-1.954,-64.469,-2.735,34.774,-5.079,-47.668,-16.410,-27.741,-52.747,69.158,-16.410,25.006,15.238,-47.668
'[15:29:40.359 24/07/2074]',8.205,14.457,-73.846,-2.344,3.907,-21.490,-50.403,15.629,37.509,1.172,-65.641,-10.159,38.681,4.689,-47.277,-31.648,-27.741,-58.217,74.628,-20.708,27.350,29.695,-47.277
'[15:29:40.363 24/07/2074]',12.503,5.861,-78.144,3.126,1.563,-24.615,-54.310,22.662,36.728,2.344,-66.422,-8.596,41.807,-1.563,-41.807,-33.211,-23.443,-59.389,78.926,-6.252,27.350,16.801,-41.807
'[15:29:40.367 24/07/2074]',16.020,4.298,-87.131,13.675,1.954,-25.006,-58.999,30.867,35.165,6.252,-71.502,-3.516,33.993,0.391,-36.337,-29.304,-21.880,-57.827,87.912,-14.847,25.397,24.225,-36.337
'[15:29:40.371 24/07/2074]',17.973,18.755,-100.806,10.940,0.391,-19.536,-60.952,28.523,39.072,14.066,-70.720,-9.768,39.463,2.735,-30.867,-38.291,-18.364,-60.952,101.587,-26.178,21.490,30.867,-30.867
'[15:29:40.375 24/07/2074]',17.582,18.755,-92.210,7.814,-2.344,-13.675,-58.217,28.523,41.807,18.755,-66.813,-14.066,46.886,3.516,-25.788,-43.370,-11.331,-60.952,92.991,-2.735,17.582,16.801,-25.788
'[15:29:40.379 24/07/2074]',10.940,19.145,-94.554,18.364,-5.470,-13.675,-60.562,36.728,39.463,18.755,-67.204,-6.252,42.198,0.391,-19.145,-37.509,-11.331,-53.919,95.336,-14.066,22.271,19.927,-19.145
'[15:29:40.383 24/07/2074]',8.987,17.192,-89.866,16.020,-6.252,-13.675,-60.562,34.774,36.337,15.629,-64.469,-6.252,40.635,5.079,-19.536,-44.151,-15.629,-51.966,90.647,-23.443,24.615,36.728,-19.536
'[15:29:40.387 24/07/2074]',11.331,9.377,-81.661,12.112,-5.079,-14.847,-57.827,32.039,33.602,8.596,-57.045,-5.079,40.635,3.126,-10.159,-52.747,-15.629,-52.747,82.442,-2.735,23.443,20.708,-10.159
'[15:29:40.391 24/07/2074]',5.861,14.457,-84.396,13.675,-8.987,-17.192,-60.562,39.853,24.225,-3.907,-48.840,6.252,32.430,-6.252,0.781,-48.059,-19.145,-49.231,85.177,-1.954,19.536,5.079,0.781
'[15:29:40.395 24/07/2074]',11.722,8.205,-79.316,11.331,-7.814,-17.973,-61.734,43.370,17.973,-12.503,-39.072,16.801,26.178,0.391,8.596,-52.357,-25.397,-47.277,80.098,-16.020,17.192,21.099,8.596
'[15:29:40.398 24/07/2074]',18.364,2.344,-68.376,6.252,-4.298,-16.410,-57.436,40.244,15.238,-18.755,-24.225,21.880,26.569,3.907,17.582,-54.310,-27.741,-46.886,69.158,2.735,3.126,15.629,17.582
'[15:29:40.402 24/07/2074]',13.675,15.238,-73.065,7.033,-7.814,-16.801,-55.482,47.277,5.079,-23.834,-12.112,35.165,21.880,2.344,25.788,-46.105,-26.569,-43.370,73.846,3.516,-2.735,-0.781,25.788
'[15:29:40.406 24/07/2074]',17.582,9.377,-70.330,11.331,-9.768,-17.973,-52.747,52.357,-8.596,-26.960,-2.735,46.886,10.549,2.344,26.569,-32.430,-28.132,-35.165,71.111,-7.424,-5.861,0.781,26.569
'[15:29:40.410 24/07/2074]',19.536,7.033,-66.422,12.894,-10.159,-17.582,-46.105,50.794,-15.238,-29.304,4.298,47.668,10.549,0.391,23.834,-27.350,-30.085,-30.085,67.204,-5.470,-12.503,0.781,23.834
'[15:29:40.414 24/07/2074]',19.145,21.099,-67.985,5.861,-12.503,-15.238,-39.463,48.840,-26.960,-28.523,11.722,47.277,1.563,-3.907,26.178,-19.536,-25.006,-28.913,68.767,-3.516,-17.973,-21.880,26.178
'[15:29:40.418 24/07/2074]',14.066,7.033,-51.966,9.768,-22.662,-13.675,-36.728,55.873,-36.728,-33.211,15.629,52.357,-8.205,-10.549,21.490,-3.516,-20.708,-24.615,52.747,10.159,-27.741,-30.476,21.490
'[15:29:40.422 24/07/2074]',14.457,3.126,-40.244,3.907,-20.708,-11.331,-34.774,50.794,-35.556,-31.258,14.847,49.621,-12.112,1.563,6.642,0.391,-19.927,-26.960,41.026,3.126,-32.039,-10.549,6.642
'[15:29:40.426 24/07/2074]',15.629,-5.861,-26.178,-2.735,-17.582,-11.722,-30.476,42.589,-37.118,-31.258,14.457,42.589,-17.192,2.344,0.391,3.126,-15.629,-32.430,26.960,21.099,-41.807,-12.112,0.391
'[15:29:40.430 24/07/2074]',10.549,10.940,-48.059,-3.126,-19.927,-14.457,-35.165,42.589,-44.151,-37.118,9.768,43.370,-27.741,-5.861,-10.159,16.020,-15.238,-32.821,48.840,-3.126,-42.589,-22.271,-10.159
'[15:29:40.434 24/07/2074]',11.722,3.126,-50.012,-1.954,-15.629,-21.099,-37.118,39.072,-44.933,-42.589,2.344,40.244,-33.211,-7.814,-27.350,23.834,-19.536,-31.258,50.794,-9.377,-43.761,-13.675,-27.350
'[15:29:40.438 24/07/2074]',19.145,3.126,-53.529,-9.377,-8.205,-24.225,-35.946,30.085,-44.933,-43.761,-2.344,27.350,-36.728,-12.894,-35.556,23.053,-21.099,-35.946,54.310,-1.954,-54.310,-23.053,-35.556
'[15:29:40.441 24/07/2074]',19.927,7.814,-61.343,-10.940,-9.768,-25.006,-33.993,27.741,-44.151,-43.761,-5.861,20.708,-38.291,-19.145,-44.542,30.085,-17.582,-37.900,62.125,2.735,-61.734,-38.291,-44.542
'[15:29:40.445 24/07/2074]',16.410,-3.907,-53.919,-4.689,-13.675,-25.397,-33.211,28.132,-42.589,-43.761,-12.894,18.755,-39.072,-19.536,-57.045,35.556,-16.801,-36.337,54.701,1.954,-58.608,-25.788,-57.045
'[15:29:40.449 24/07/2074]',13.284,-14.066,-40.244,-3.126,-13.675,-23.053,-29.304,24.615,-38.681,-39.072,-18.364,10.159,-36.337,-12.503,-68.767,31.648,-14.847,-39.853,41.026,6.252,-54.701,-6.642,-68.767
'[15:29:40.453 24/07/2074]',10.549,-1.563,-48.449,-5.470,-17.973,-18.755,-25.788,19.536,-36.337,-36.337,-19.536,1.563,-28.913,-17.582,-70.720,26.960,-7.033,-40.635,49.231,2.344,-41.807,-21.880,-70.720
'[15:29:40.457 24/07/2074]',1.172,1.563,-55.482,2.735,-25.788,-18.364,-26.178,23.443,-37.900,-36.337,-22.662,0.781,-26.569,-14.457,-78.535,23.443,-3.516,-37.509,56.264,4.298,-34.774,-18.364,-78.535
'[15:29:40.461 24/07/2074]',0.781,1.172,-53.919,5.079,-23.053,-17.192,-23.834,20.708,-35.556,-30.867,-26.960,-4.689,-24.615,-7.424,-84.786,18.364,-3.907,-33.211,54.701,-2.735,-26.178,-3.907,-84.786
'[15:29:40.465 24/07/2074]',7.424,4.298,-53.919,-0.391,-19.927,-14.066,-16.801,12.112,-29.695,-24.615,-24.615,-16.410,-16.801,-4.689,-83.614,8.596,-2.344,-31.258,54.701,-1.954,-26.178,-1.563,-83.614
'[15:29:40.469 24/07/2074]',5.079,6.642,-59.389,7.814,-23.053,-14.066,-17.973,19.536,-28.913,-19.927,-27.350,-14.066,-12.112,0.391,-87.912,8.205,-1.172,-26.960,60.171,2.735,-19.927,-3.516,-87.912
'[15:29:40.473 24/07/2074]',0.781,-2.344,-47.668,16.801,-19.927,-14.066,-17.973,22.271,-24.615,-12.503,-34.383,-12.112,-5.470,8.987,-94.164,4.298,-3.907,-21.490,48.449,0.391,-8.205,22.271,-94.164
'[15:29:40.477 24/07/2074]',-0.781,-6.642,-39.072,16.410,-18.755,-13.284,-16.801,20.317,-19.927,-3.126,-38.291,-18.364,2.344,13.675,-93.773,-4.298,-7.424,-19.927,39.853,5.861,-0.781,31.258,-93.773
'[15:29:40.480 24/07/2074]',-1.172,3.516,-57.436,21.099,-20.708,-15.238,-20.708,25.397,-17.973,1.563,-42.198,-17.582,12.112,16.410,-93.382,-12.894,-5.470,-21.880,58.217,10.940,4.689,19.145,-93.382
'[15:29:40.484 24/07/2074]',-1.954,-6.642,-55.873,27.741,-22.662,-20.317,-23.443,31.648,-16.020,8.987,-49.621,-15.629,18.364,22.271,-96.899,-17.192,-8.596,-18.755,56.654,19.536,11.722,24.615,-96.899
'[15:29:40.488 24/07/2074]',2.735,-7.424,-53.919,21.099,-20.708,-19.145,-19.927,25.397,-10.549,16.020,-49.621,-23.834,25.788,25.006,-91.819,-28.132,-13.284,-17.973,54.701,18.755,7.424,32.821,-91.819
'[15:29:40.492 24/07/2074]',5.079,5.470,-62.906,22.271,-19.145,-16.410,-15.629,25.006,-3.126,22.662,-48.840,-28.132,35.165,31.648,-88.694,-35.556,-11.722,-18.364,63.687,4.689,16.801,33.602,-88.694
'[15:29:40.496 24/07/2074]',-0.781,1.172,-55.873,31.648,-24.225,-14.847,-15.238,33.211,-1.172,25.397,-49.621,-20.317,37.118,40.244,-87.912,-36.337,-11.331,-11.722,56.654,9.768,25.788,41.416,-87.912
'[15:29:40.500 24/07/2074]',-4.298,-9.768,-44.151,40.635,-26.569,-11.722,-13.284,37.118,-0.391,24.615,-49.231,-16.410,38.681,43.761,-87.131,-37.900,-14.847,-6.252,44.933,14.847,33.993,52.747,-87.131
'[15:29:40.504 24/07/2074]',1.172,-6.252,-50.403,41.807,-27.350,-10.940,-9.768,37.118,-0.391,24.225,-43.370,-16.801,44.542,43.761,-80.098,-46.105,-15.238,-6.642,51.184,21.880,32.821,47.277,-80.098
'[15:29:40.508 24/07/2074]',6.252,-18.364,-47.277,47.277,-32.430,-12.503,-9.768,45.324,-4.689,16.410,-37.118,-9.768,47.668,41.026,-80.098,-44.933,-17.192,-2.735,48.059,44.933,35.946,29.695,-80.098
'[15:29:40.512 24/07/2074]',5.861,-23.053,-45.714,50.794,-35.165,-13.284,-10.549,50.794,-13.284,6.252,-32.039,-3.516,43.370,32.039,-77.753,-42.198,-25.788,2.735,46.496,41.026,35.556,32.821,-77.753
'[15:29:40.516 24/07/2074]',7.033,-12.894,-55.482,48.449,-33.993,-13.284,-8.596,45.714,-10.549,0.391,-24.225,-5.470,51.966,26.960,-74.237,-47.668,-33.211,3.907,56.264,23.053,39.853,38.291,-74.237
'[15:29:40.520 24/07/2074]',0.781,-23.443,-39.072,50.012,-38.291,-12.503,-6.252,47.668,-10.159,-6.642,-15.629,-1.563,51.966,29.304,-69.548,-48.059,-33.602,5.079,39.853,44.151,50.794,22.271,-69.548
'[15:29:40.523 24/07/2074]',-5.470,-32.821,-25.397,56.264,-39.853,-12.503,-7.033,53.529,-13.284,-14.066,-9.377,5.861,47.668,25.397,-64.078,-41.807,-35.946,12.112,26.178,50.794,56.264,18.364,-64.078
'[15:29:40.527 24/07/2074]',-10.549,-43.370,-16.020,60.952,-40.635,-12.894,-5.079,51.575,-10.159,-16.801,-3.516,4.298,51.966,17.973,-58.608,-39.463,-38.681,13.675,16.801,43.370,60.952,27.741,-58.608
'[15:29:40.531 24/07/2074]',-8.987,-41.416,-9.377,59.389,-37.509,-8.987,0.000,47.668,-16.020,-17.973,7.033,0.391,46.496,17.192,-51.184,-39.853,-35.946,14.847,10.159,54.701,62.515,13.284,-51.184
'[15:29:40.535 24/07/2074]',-11.722,-32.039,-7.033,58.608,-35.946,-2.735,0.000,48.449,-24.615,-21.490,16.020,1.563,43.761,10.940,-46.886,-37.118,-32.821,21.490,7.814,44.933,71.502,5.079,-46.886
'[15:29:40.539 24/07/2074]',-15.238,-30.867,-2.344,58.217,-36.337,0.781,1.172,44.933,-31.258,-26.960,21.880,1.954,42.198,2.735,-46.886,-32.430,-35.165,29.695,3.126,25.006,81.661,11.331,-46.886
'[15:29:40.543 24/07/2074]',-14.066,-32.821,13.675,52.357,-30.867,7.424,7.424,35.946,-30.476,-28.523,30.085,-3.907,46.105,5.470,-46.886,-38.681,-35.946,33.211,-12.894,27.741,89.084,15.629,-46.886
'[15:29:40.547 24/07/2074]',-19.145,-34.774,26.569,50.403,-34.774,8.987,9.768,39.463,-38.681,-31.648,34.774,0.391,37.509,6.252,-45.714,-33.993,-33.211,41.807,-25.788,37.900,89.866,3.126,-45.714
'[15:29:40.551 24/07/2074]',-19.927,-40.244,32.430,54.310,-34.383,7.814,10.549,43.761,-39.463,-32.430,36.337,7.033,36.337,3.907,-44.933,-24.615,-33.211,50.794,-31.648,30.867,90.256,4.689,-44.933
'[15:29:40.555 24/07/2074]',-17.973,-42.589,41.807,53.138,-32.039,8.205,19.145,38.681,-35.946,-25.006,40.635,2.735,42.589,15.238,-49.621,-27.350,-32.430,51.966,-41.026,34.774,90.647,16.410,-49.621
'[15:29:40.559 24/07/2074]',-14.457,-25.788,26.569,48.449,-32.821,8.205,22.662,37.509,-41.416,-18.364,42.198,3.126,38.681,17.973,-45.324,-26.960,-30.476,54.701,-25.788,25.397,91.819,0.391,-45.324
'[15:29:40.563 24/07/2074]',-12.894,-20.317,20.708,53.919,-33.602,4.689,24.615,46.105,-43.761,-17.192,39.853,9.768,42.979,11.331,-48.449,-18.364,-32.039,60.562,-19.927,8.205,98.071,0.391,-48.449
'[15:29:40.566 24/07/2074]',-9.768,-17.192,17.973,56.654,-31.648,0.781,27.350,51.966,-41.026,-17.192,37.509,13.675,45.324,13.675,-53.138,-14.066,-38.681,61.343,-17.192,-1.954,94.554,13.284,-53.138
'[15:29:40.570 24/07/2074]',-7.424,-32.039,37.900,50.403,-33.211,-2.344,28.913,56.654,-43.370,-18.755,34.383,15.629,42.979,10.549,-55.092,-11.331,-40.635,55.482,-37.118,36.728,78.144,-0.781,-55.092
'[15:29:40.574 24/07/2074]',-4.689,-35.556,43.370,50.012,-30.867,-7.033,25.788,66.422,-43.761,-23.443,28.523,23.053,37.900,7.814,-57.436,-4.298,-40.244,50.403,-42.589,46.105,69.158,-8.596,-57.436
'[15:29:40.578 24/07/2074]',-5.470,-35.556,48.059,45.714,-25.788,-11.331,24.225,66.422,-38.681,-25.397,19.536,26.178,34.774,10.159,-64.860,0.000,-42.979,44.542,-47.277,36.337,66.422,3.907,-64.860
'[15:29:40.582 24/07/2074]',-4.298,-45.714,61.343,37.509,-23.053,-13.284,26.178,59.389,-36.337,-23.053,10.549,21.880,35.946,7.814,-67.985,-2.735,-41.807,33.211,-60.562,50.794,65.250,1.954,-67.985
'[15:29:40.586 24/07/2074]',-4.689,-1.954,27.350,30.867,-16.410,-12.112,23.053,57.827,-36.337,-20.317,2.344,25.788,34.383,-0.391,-64.469,0.781,-35.165,24.615,-26.569,10.940,73.846,-17.973,-64.469
'[15:29:40.590 24/07/2074]',-11.722,-8.596,33.211,33.602,-19.536,-15.629,19.536,63.687,-36.337,-18.755,-9.768,33.602,30.476,-2.344,-72.674,11.331,-33.993,17.973,-32.430,11.722,77.363,-17.582,-72.674
'[15:29:40.594 24/07/2074]',-11.331,-8.987,42.979,25.006,-17.582,-14.066,19.145,61.343,-33.993,-12.112,-19.536,32.039,28.913,-3.516,-71.893,11.331,-30.476,7.814,-42.198,7.033,71.893,-10.549,-71.893
'[15:29:40.598 24/07/2074]',-14.457,5.079,44.542,17.192,-15.629,-8.987,19.145,60.171,-30.476,-3.516,-23.443,30.476,26.960,3.126,-66.422,6.642,-19.145,-2.735,-43.761,12.503,63.297,-17.192,-66.422
'[15:29:40.602 24/07/2074]',-16.020,-1.563,58.217,16.410,-12.894,-8.205,17.582,61.343,-29.304,0.781,-29.304,32.039,26.178,5.470,-66.813,7.424,-10.549,-11.331,-57.436,30.867,60.562,-20.708,-66.813
'[15:29:40.605 24/07/2074]',-14.457,16.020,56.264,8.205,-1.563,-1.172,17.192,53.138,-23.443,7.033,-30.476,27.350,25.397,10.940,-61.343,3.516,-2.735,-15.629,-55.482,-7.033,68.767,-1.954,-61.343
'[15:29:40.609 24/07/2074]',-15.629,35.556,50.012,5.470,6.252,5.861,18.755,44.933,-18.755,13.284,-28.132,23.834,27.350,15.238,-53.529,0.391,5.470,-21.099,-49.231,-23.443,68.376,5.470,-53.529
'[15:29:40.613 24/07/2074]',-12.894,18.364,66.813,13.284,13.284,7.033,17.192,47.277,-20.317,16.410,-28.913,30.476,21.490,19.145,-51.966,7.424,16.020,-21.490,-66.032,-4.298,76.972,-5.079,-51.966
'[15:29:40.617 24/07/2074]',-10.549,7.033,82.833,12.503,21.099,10.159,15.238,44.151,-16.410,18.755,-32.039,31.258,21.099,14.847,-51.184,14.847,23.834,-19.927,-82.051,-8.596,83.223,0.781,-51.184
'[15:29:40.621 24/07/2074]',-8.596,-2.344,93.773,5.470,24.615,14.457,17.582,30.476,-10.159,26.960,-31.258,19.927,21.490,18.364,-45.324,8.205,33.211,-23.443,-92.991,0.781,82.833,0.391,-45.324
'[15:29:40.625 24/07/2074]',-3.907,4.298,88.303,1.954,32.039,19.536,16.020,22.271,-2.735,33.211,-31.258,11.722,23.443,19.536,-41.416,7.424,46.105,-28.523,-87.521,5.079,80.098,-9.377,-41.416
'[15:29:40.629 24/07/2074]',-3.907,4.298,84.005,-0.781,34.774,23.443,12.112,12.894,0.391,35.946,-32.821,5.861,20.317,11.331,-32.430,8.205,52.747,-26.178,-83.223,-8.205,75.018,-2.344,-32.430
'[15:29:40.633 24/07/2074]',-1.563,31.258,59.780,-12.894,36.337,33.211,10.159,-3.907,7.424,40.244,-30.476,-3.907,20.317,11.722,-22.271,1.563,55.873,-25.006,-58.999,-47.277,69.939,10.159,-22.271
'[15:29:40.637 24/07/2074]',-3.907,33.602,63.297,-14.457,35.165,42.198,10.549,-9.768,9.377,44.151,-28.913,-6.252,20.317,14.847,-16.801,-0.391,64.469,-27.350,-62.515,-31.258,63.687,5.079,-16.801
'[15:29:40.641 24/07/2074]',-3.126,26.178,68.767,-20.708,32.039,49.621,7.814,-18.364,10.159,42.589,-28.132,-7.424,18.755,13.675,-14.457,-1.954,69.939,-24.225,-67.985,-18.755,57.436,2.735,-14.457
'[15:29:40.645 24/07/2074]',-6.642,27.350,67.985,-29.695,26.569,56.654,3.907,-29.304,8.596,41.026,-31.648,-10.549,17.973,11.722,-17.582,-5.079,69.939,-21.099,-67.204,-27.741,58.608,12.503,-17.582
'[15:29:40.648 24/07/2074]',-2.344,22.271,67.985,-39.463,25.397,62.906,4.689,-45.324,8.205,41.026,-31.258,-21.099,20.708,11.722,-20.317,-15.238,70.330,-22.271,-67.204,-20.708,64.469,8.205,-20.317
'[15:29:40.652 24/07/2074]',0.391,38.291,48.449,-47.277,23.834,64.860,1.172,-50.794,4.689,36.728,-29.695,-21.880,16.801,6.252,-19.536,-13.675,72.283,-20.708,-47.668,-27.741,55.482,-0.391,-19.536
'[15:29:40.656 24/07/2074]',-2.735,32.039,32.430,-40.244,15.238,58.217,-2.735,-49.231,-1.172,29.304,-28.913,-18.755,9.377,-4.689,-13.675,-11.722,63.687,-13.284,-31.648,-32.821,48.059,-1.954,-13.675
'[15:29:40.660 24/07/2074]',-2.344,37.509,14.457,-41.416,9.377,54.310,0.391,-55.873,-2.735,26.178,-21.880,-23.053,5.861,-4.689,-8.596,-14.847,55.482,-8.205,-13.675,-45.714,42.589,1.172,-8.596
'[15:29:40.664 24/07/2074]',-5.079,36.728,7.033,-37.900,3.516,48.059,3.907,-54.310,-3.907,22.662,-14.066,-21.880,3.516,-0.391,-6.252,-15.238,53.529,-4.689,-6.252,-31.648,29.695,-3.126,-6.252
'[15:29:40.668 24/07/2074]',-7.814,16.020,9.377,-30.085,-4.298,37.118,4.298,-49.621,-7.814,15.238,-11.722,-16.410,-0.781,-1.172,-5.861,-13.675,45.714,0.781,-8.596,-13.675,26.960,-7.814,-5.861
'[15:29:40.672 24/07/2074]',-5.079,6.252,14.457,-32.039,-3.516,32.039,9.377,-54.310,-5.470,10.549,-8.987,-17.582,-4.689,3.907,-7.424,-14.457,35.946,2.735,-13.675,-14.457,25.397,3.126,-7.424
'[15:29:40.676 24/07/2074]',-2.735,7.033,12.894,-32.430,-1.563,26.569,13.675,-54.310,-3.516,3.126,-6.252,-18.755,-0.391,-3.516,-8.596,-12.503,28.523,0.391,-12.112,-13.284,17.582,4.298,-8.596
'[15:29:40.680 24/07/2074]',-5.079,-3.907,14.066,-23.443,-3.907,13.675,13.675,-42.589,-4.298,-7.424,-6.252,-11.331,-11.331,-5.861,-8.596,-4.298,17.973,2.735,-13.284,0.781,4.689,0.000,-8.596
'[15:29:40.684 24/07/2074]',-7.033,-23.834,19.145,-10.159,-5.861,2.344,12.112,-32.039,-3.907,-19.536,-5.470,-5.861,-17.192,-13.284,-9.768,3.516,3.126,5.470,-18.364,8.205,-0.781,3.516,-9.768
'[15:29:40.688 24/07/2074]',-4.298,1.563,-1.563,-13.284,-0.391,-0.391,13.284,-30.867,-0.391,-25.006,1.172,-10.549,-19.145,-11.722,-7.033,2.344,-7.814,6.252,2.344,-11.722,-6.252,1.172,-7.033
'[15:29:40.691 24/07/2074]',-6.642,-10.159,5.079,-8.987,-2.344,-7.814,11.722,-23.443,-3.126,-31.648,5.861,-11.722,-23.834,-8.987,-8.596,1.172,-16.801,6.642,-4.298,8.596,-5.079,-9.377,-8.596
'[15:29:40.695 24/07/2074]',-6.642,-9.768,-9.768,-3.516,-5.861,-14.066,5.861,-17.582,-8.596,-38.681,8.987,-8.596,-32.430,-10.159,-8.987,3.516,-29.304,8.987,10.549,-6.252,-6.252,-3.907,-8.987
'[15:29:40.699 24/07/2074]',-3.126,-10.159,-12.503,-2.735,-3.516,-14.847,4.689,-16.410,-10.159,-39.072,13.284,-11.331,-34.774,-5.470,-7.424,0.391,-37.118,9.377,13.284,-10.940,-13.675,11.722,-7.424
'[15:29:40.703 24/07/2074]',-3.907,-8.205,-16.801,-3.126,-7.033,-16.801,4.298,-14.066,-14.847,-39.853,21.099,-14.457,-37.118,-1.172,-5.861,-4.298,-38.291,8.596,17.582,-2.344,-14.847,1.954,-5.861
'[15:29:40.707 24/07/2074]',-8.205,-13.675,-18.364,5.861,-13.284,-20.708,2.344,-2.735,-22.271,-41.026,24.225,-7.424,-43.370,-5.079,0.000,1.563,-39.853,12.894,19.145,12.503,-25.788,-5.079,0.000
'[15:29:40.711 24/07/2074]',-6.642,-12.503,-16.801,10.159,-13.284,-18.364,2.344,2.344,-22.271,-36.337,27.350,-6.252,-46.496,0.391,3.516,3.126,-44.151,19.536,17.582,0.781,-28.132,5.861,3.516
'[15:29:40.715 24/07/2074]',-1.563,-8.205,-6.642,0.391,-8.596,-12.894,3.907,0.391,-21.880,-30.085,32.821,-10.549,-41.807,-1.172,13.284,-1.172,-42.979,19.536,7.424,2.344,-28.523,0.391,13.284
'[15:29:40.719 24/07/2074]',1.563,-9.768,-7.814,3.126,-8.596,-12.112,-0.781,8.987,-23.443,-28.913,31.258,-2.735,-36.728,-8.596,15.629,3.907,-41.026,18.364,8.596,17.192,-34.774,-14.457,15.629
'[15:29:40.723 24/07/2074]',15.238,-21.880,-9.768,4.689,-5.861,-12.112,-5.861,12.503,-23.443,-24.615,26.569,1.954,-37.509,-5.861,17.582,5.470,-42.589,19.145,10.549,3.516,-37.118,0.391,17.582
'[15:29:40.727 24/07/2074]',19.536,-16.020,-8.987,1.172,-1.172,-6.642,-7.814,11.722,-23.834,-20.317,25.006,3.907,-39.853,-1.563,17.582,7.814,-39.853,17.973,9.768,-5.861,-38.681,6.642,17.582
'[15:29:40.730 24/07/2074]',25.397,-7.033,-16.020,1.954,0.391,0.391,-7.814,11.331,-22.662,-14.457,26.569,2.735,-38.291,-0.391,22.271,7.814,-29.695,19.536,16.801,3.126,-44.933,-10.940,22.271
'[15:29:40.734 24/07/2074]',19.536,-14.847,-6.642,10.940,-6.642,5.470,-5.470,15.238,-25.788,-8.596,26.960,8.205,-43.761,3.126,26.178,14.066,-20.708,26.569,7.424,12.894,-47.277,-12.503,26.178
'[15:29:40.738 24/07/2074]',14.847,-4.298,2.344,8.596,-6.252,20.317,-1.954,8.596,-25.006,0.391,30.476,3.516,-41.416,10.159,27.350,11.331,-13.675,32.039,-1.563,2.735,-41.416,-1.563,27.350
'[15:29:40.742 24/07/2074]',18.755,-8.205,19.145,4.689,-2.735,33.211,1.172,2.735,-20.317,10.159,32.430,-1.172,-27.741,12.503,31.258,3.907,-3.516,33.993,-18.364,16.020,-33.602,-6.642,31.258
'[15:29:40.746 24/07/2074]',16.020,-16.801,33.602,11.331,-8.205,40.244,1.563,9.768,-19.536,14.847,25.788,7.033,-21.099,11.331,28.913,8.987,1.172,41.416,-32.821,26.960,-29.695,-5.861,28.913
'[15:29:40.750 24/07/2074]',16.410,1.954,21.099,9.768,-7.424,48.059,0.391,9.768,-18.755,17.582,18.755,10.159,-20.708,8.596,26.960,11.722,0.391,46.496,-20.317,-8.987,-20.708,1.954,26.960
'[15:29:40.754 24/07/2074]',20.708,3.126,34.774,3.516,-3.516,54.701,6.252,5.079,-14.066,23.053,16.020,3.907,-14.066,7.033,29.304,6.252,5.079,46.496,-33.993,-3.126,-12.503,-8.596,29.304
'[15:29:40.758 24/07/2074]',14.847,18.364,38.681,5.861,-1.563,59.389,10.159,10.549,-8.205,25.397,11.331,8.987,-10.549,7.814,30.085,8.596,11.331,48.059,-37.900,0.391,-13.284,-13.675,30.085
'[15:29:40.762 24/07/2074]',9.377,28.913,34.383,7.424,-0.391,60.952,10.159,10.940,-6.642,25.006,7.814,10.940,-12.112,6.252,32.039,9.768,10.940,50.794,-33.602,-25.788,-2.735,-4.298,32.039
'[15:29:40.766 24/07/2074]',8.596,15.238,55.092,7.424,5.079,63.297,11.331,6.252,-0.391,29.304,7.033,5.861,-7.424,16.020,29.695,2.735,12.112,47.277,-54.310,-12.894,0.391,12.503,29.695
'[15:29:40.770 24/07/2074]',8.205,11.722,59.780,6.642,8.205,62.125,8.987,7.424,3.126,29.695,3.907,7.814,1.172,21.880,25.397,-3.126,15.629,41.807,-58.999,5.079,6.642,5.861,25.397
'[15:29:40.773 24/07/2074]',0.781,1.954,54.701,11.331,2.344,54.701,2.735,8.987,0.391,27.741,-3.516,12.894,-5.861,17.582,26.569,0.391,13.675,39.853,-53.919,3.907,8.987,3.907,26.569
'[15:29:40.777 24/07/2074]',-0.391,-8.205,57.045,6.642,3.907,49.231,0.391,0.391,0.781,28.132,-8.987,6.642,-10.549,16.410,25.397,-3.907,11.331,32.821,-56.264,-1.172,13.284,12.112,25.397
'[15:29:40.781 24/07/2074]',-1.954,-1.563,60.171,-5.079,10.940,47.277,3.126,-12.112,5.861,33.211,-12.112,-3.907,-9.768,15.629,29.695,-12.112,17.192,25.006,-59.389,-0.391,13.284,7.424,29.695
'[15:29:40.785 24/07/2074]',-10.159,3.126,55.482,-8.596,10.940,42.589,2.735,-18.364,11.331,34.774,-18.364,-5.861,-10.549,10.940,31.648,-10.549,23.053,21.099,-54.701,-3.907,11.722,4.298,31.648
'[15:29:40.789 24/07/2074]',-6.252,0.000,54.701,-12.894,21.490,37.509,0.781,-27.741,15.629,34.774,-23.053,-12.894,-14.457,8.987,28.132,-8.987,24.615,17.582,-53.919,-17.973,14.457,14.847,28.132
'[15:29:40.793 24/07/2074]',-5.470,26.569,35.556,-23.834,31.258,39.072,1.954,-41.026,22.662,39.072,-24.225,-26.960,-10.549,11.722,24.225,-15.629,27.350,12.894,-34.774,-44.151,15.629,23.443,24.225
'[15:29:40.797 24/07/2074]',-10.159,19.536,31.648,-19.145,30.476,34.774,-1.172,-42.198,19.927,33.602,-28.132,-28.523,-16.410,11.331,15.629,-14.066,30.867,8.205,-30.867,-23.053,17.973,8.987,15.629
'[15:29:40.801 24/07/2074]',-12.503,20.708,20.317,-19.145,34.774,30.085,-7.814,-46.886,17.582,27.350,-33.211,-32.430,-21.880,3.126,7.424,-9.768,29.695,5.470,-19.536,-31.648,21.880,5.861,7.424
'[15:29:40.805 24/07/2074]',-10.940,19.536,14.847,-25.006,37.900,28.523,-8.987,-59.389,21.099,25.006,-31.648,-45.714,-23.053,1.563,8.205,-17.582,26.569,1.172,-14.066,-36.337,17.192,10.940,8.205
'[15:29:40.809 24/07/2074]',-10.940,7.424,25.006,-30.085,41.026,26.569,-10.159,-66.813,25.397,22.662,-29.304,-53.138,-17.973,0.391,5.861,-22.662,27.350,-0.781,-24.225,-14.847,13.675,4.689,5.861
'[15:29:40.813 24/07/2074]',-7.033,1.563,23.053,-31.258,44.933,20.317,-14.847,-65.641,24.615,17.973,-29.304,-51.966,-16.410,-1.172,1.172,-21.490,24.615,4.298,-22.271,-24.615,14.066,11.722,1.172
'[15:29:40.816 24/07/2074]',-1.563,-1.954,18.755,-29.304,47.668,13.284,-14.847,-61.343,21.099,14.457,-26.960,-49.231,-20.708,0.391,-1.563,-17.192,17.192,10.159,-17.973,-33.602,7.814,19.145,-1.563
'[15:29:40.820 24/07/2074]',-1.954,-0.391,15.629,-31.258,44.542,10.159,-11.722,-61.734,17.582,12.112,-21.099,-53.138,-14.457,-3.516,-3.907,-21.490,15.238,10.940,-14.847,-19.145,1.954,6.252,-3.907
'[15:29:40.824 24/07/2074]',-3.907,6.252,3.516,-29.695,37.900,3.907,-12.503,-53.919,6.642,6.252,-17.973,-49.621,-19.536,-7.033,-7.424,-18.364,13.284,12.503,-2.735,-9.768,-12.894,-7.424,-7.424
'[15:29:40.828 24/07/2074]',-2.735,0.781,-2.344,-21.099,32.430,0.000,-14.847,-44.542,-0.781,-1.563,-15.629,-41.416,-26.569,-15.629,-6.252,-10.159,5.079,14.847,3.126,-19.927,-19.145,-4.689,-6.252
'[15:29:40.832 24/07/2074]',0.000,6.252,-4.298,-26.960,32.039,3.516,-13.675,-48.840,-0.391,-5.861,-11.331,-44.933,-23.834,-14.847,-3.126,-19.536,1.563,11.722,5.079,-23.443,-29.695,2.735,-3.126
'[15:29:40.836 24/07/2074]',-0.781,11.722,-7.814,-28.523,25.788,5.861,-17.582,-41.026,-4.689,-14.066,-7.424,-35.556,-22.662,-14.847,-3.907,-20.317,0.000,8.596,8.596,-14.457,-26.960,-10.159,-3.907
'[15:29:40.840 24/07/2074]',4.689,10.159,-16.410,-25.788,19.536,5.079,-22.662,-29.695,-10.159,-22.271,-8.596,-17.192,-29.695,-10.159,0.000,-18.364,-6.642,10.940,17.192,-29.304,-28.132,-0.781,0.000
'[15:29:40.844 24/07/2074]',1.563,8.205,-16.020,-25.788,11.331,6.252,-23.834,-25.788,-11.722,-27.741,-7.424,-11.331,-32.430,-9.377,3.907,-21.490,-15.238,8.596,16.801,-29.695,-33.211,9.377,3.907
'[15:29:40.848 24/07/2074]',1.563,26.960,-33.211,-33.211,1.563,8.205,-25.397,-22.271,-14.847,-33.602,-2.735,-5.470,-29.695,-12.112,7.033,-22.662,-20.317,4.298,33.993,-33.211,-33.211,-8.596,7.033
'[15:29:40.852 24/07/2074]',5.470,33.993,-47.277,-31.258,-4.689,5.079,-28.523,-9.768,-23.443,-38.681,-0.391,3.907,-41.416,-10.940,10.549,-17.582,-26.569,2.344,48.059,-29.304,-52.747,-13.675,10.549
'[15:29:40.855 24/07/2074]',7.033,17.582,-40.244,-25.397,-7.033,0.000,-33.211,-1.172,-25.397,-45.324,-2.344,9.377,-43.761,-17.973,7.814,-10.159,-35.946,1.172,41.026,-25.788,-60.171,-0.781,7.814
'[15:29:40.859 24/07/2074]',15.629,14.457,-39.853,-28.913,-1.954,-1.954,-33.602,-0.391,-26.178,-47.277,-1.172,7.033,-43.761,-18.364,6.252,-10.940,-40.635,-3.907,40.635,-17.973,-58.608,-10.549,6.252
'[15:29:40.863 24/07/2074]',17.582,2.735,-41.416,-19.536,-4.689,-7.424,-38.291,9.377,-28.913,-51.575,-2.344,16.020,-47.668,-18.755,4.298,-4.298,-42.198,-5.079,42.198,2.344,-63.687,-20.708,4.298
'[15:29:40.867 24/07/2074]',16.801,-8.987,-37.118,-8.987,-4.689,-12.503,-40.244,18.755,-28.132,-55.092,-8.205,26.569,-49.231,-28.523,6.642,5.861,-44.933,-4.298,37.900,1.954,-61.343,-18.364,6.642
'[15:29:40.871 24/07/2074]',20.708,-3.907,-37.509,-10.159,-0.391,-8.596,-37.509,14.847,-19.927,-50.012,-10.159,23.834,-43.761,-26.178,7.033,5.470,-43.761,-9.768,38.291,2.344,-53.529,-24.615,7.033
'[15:29:40.875 24/07/2074]',21.099,2.735,-38.291,-13.284,-1.563,-5.861,-33.993,14.066,-12.112,-48.449,-10.940,24.615,-36.337,-31.258,10.549,8.987,-39.853,-12.503,39.072,12.503,-60.952,-38.681,10.549
'[15:29:40.879 24/07/2074]',21.490,-5.079,-32.821,-4.298,-1.172,-7.814,-33.993,22.271,-7.424,-48.449,-20.317,35.556,-38.681,-35.165,8.596,23.443,-39.072,-11.722,33.602,10.940,-69.158,-28.523,8.596
'[15:29:40.883 24/07/2074]',28.913,-3.126,-34.383,-8.205,2.735,-4.689,-32.821,17.192,0.391,-48.059,-26.960,34.383,-34.383,-37.900,1.954,30.476,-39.072,-14.457,35.165,0.781,-69.939,-24.225,1.954
'[15:29:40.887 24/07/2074]',32.821,-16.801,-18.364,-8.596,2.735,-3.126,-27.350,16.020,3.126,-48.059,-29.695,34.774,-29.695,-44.151,-1.172,36.728,-35.556,-17.582,19.145,26.178,-71.893,-37.900,-1.172
'[15:29:40.891 24/07/2074]',33.993,1.172,-28.523,-10.940,3.907,0.391,-26.569,17.582,1.954,-49.621,-32.821,39.853,-35.556,-44.542,-4.298,45.324,-29.695,-15.629,29.304,10.940,-71.893,-44.151,-4.298
'[15:29:40.895 24/07/2074]',37.509,0.391,-19.536,-11.722,8.205,5.470,-22.662,12.503,5.470,-47.277,-33.993,37.900,-38.291,-43.370,-6.252,50.794,-27.350,-12.503,20.317,-2.735,-70.330,-32.821,-6.252
'[15:29:40.898 24/07/2074]',40.635,13.284,-15.629,-17.582,13.284,14.457,-14.066,6.642,13.675,-38.681,-30.085,29.695,-33.993,-36.728,-3.126,49.231,-21.490,-9.768,16.410,-11.722,-77.753,-25.788,-3.126
'[15:29:40.902 24/07/2074]',47.668,27.741,-17.973,-17.582,21.490,21.490,-10.159,5.470,18.755,-30.476,-21.880,29.695,-29.304,-39.072,14.066,50.794,-12.112,-3.516,18.755,-14.847,-87.131,-36.337,14.066
'[15:29:40.906 24/07/2074]',43.761,9.768,2.344,-6.252,21.880,22.662,-6.252,10.159,20.708,-24.225,-16.020,35.946,-28.913,-35.946,21.490,60.171,-9.377,7.033,-1.563,-5.861,-89.475,-28.523,21.490
'[15:29:40.910 24/07/2074]',46.886,3.516,16.410,-7.033,24.615,26.569,0.000,6.252,22.662,-14.457,-2.735,32.430,-23.443,-30.867,33.602,58.999,-5.861,14.847,-15.629,-7.814,-89.475,-19.536,33.602
'[15:29:40.914 24/07/2074]',45.324,9.768,23.053,-12.112,24.615,29.695,7.033,2.735,17.973,-6.642,14.847,28.913,-21.880,-26.178,46.886,56.654,1.954,21.490,-22.271,0.391,-94.554,-30.085,46.886
'[15:29:40.918 24/07/2074]',41.416,7.424,33.211,-6.252,24.225,30.867,11.331,7.033,13.284,0.391,27.350,32.039,-25.397,-20.708,57.436,62.906,10.159,33.602,-32.430,11.331,-102.759,-35.556,57.436
'[15:29:40.922 24/07/2074]',45.324,13.284,38.681,-9.768,30.085,35.946,19.536,0.391,14.847,9.377,40.244,22.662,-20.708,-11.331,64.078,57.436,14.066,42.589,-37.900,-10.159,-96.508,-18.364,64.078
'[15:29:40.926 24/07/2074]',50.012,26.569,47.668,-17.973,37.118,44.933,30.085,-7.033,16.410,18.755,56.654,12.112,-16.020,-7.814,77.753,53.138,21.880,50.403,-46.886,-12.894,-102.759,-19.536,77.753
'[15:29:40.930 24/07/2074]',46.496,28.523,53.919,-8.596,35.556,48.059,34.383,0.781,12.503,21.880,65.250,16.801,-18.364,-8.205,87.912,58.608,26.960,61.734,-53.138,-3.126,-111.355,-23.834,87.912
'[15:29:40.934 24/07/2074]',47.277,33.602,51.184,-4.689,32.821,48.840,39.853,4.689,8.205,23.053,72.674,17.582,-22.662,-5.861,91.429,61.734,26.178,72.674,-50.403,-29.695,-95.336,-18.755,91.429
'[15:29:40.938 24/07/2074]',46.105,37.509,53.138,-10.159,24.225,50.794,50.012,0.000,9.768,25.788,80.488,7.424,-19.145,-3.907,93.773,56.264,23.834,75.018,-52.357,-28.132,-101.197,-15.238,93.773
'[15:29:40.941 24/07/2074]',40.244,46.105,45.324,-8.987,12.503,47.277,56.654,3.516,7.033,23.053,85.177,6.642,-21.490,-6.642,97.680,55.092,20.708,80.098,-44.542,-17.582,-107.448,-31.648,97.680
'[15:29:40.945 24/07/2074]',37.509,39.072,37.900,-2.735,0.391,40.635,62.125,8.205,7.033,19.536,84.786,6.252,-26.569,-4.298,95.336,56.264,13.675,87.912,-37.118,-31.258,-100.415,-23.053,95.336
'[15:29:40.949 24/07/2074]',28.523,37.118,43.761,-4.689,-10.940,37.118,72.674,4.689,9.768,18.364,85.177,0.781,-21.490,6.252,84.005,47.668,5.079,90.647,-42.979,-32.821,-92.210,-1.954,84.005
'[15:29:40.953 24/07/2074]',27.741,46.496,40.635,-9.768,-15.629,33.211,77.363,9.768,4.298,13.675,85.568,2.735,-26.569,5.079,85.958,44.542,2.344,90.647,-39.853,-19.927,-96.899,-17.192,85.958
'[15:29:40.957 24/07/2074]',22.662,41.416,39.072,-3.516,-22.271,23.053,78.144,20.708,-3.516,7.424,80.488,10.549,-32.821,4.298,77.363,47.668,0.000,89.866,-38.291,-14.066,-84.396,-26.960,77.363
'[15:29:40.961 24/07/2074]',17.192,38.291,37.900,-3.907,-27.741,14.066,78.926,23.834,-6.642,2.735,73.065,11.331,-34.383,1.954,66.422,47.668,-8.987,87.131,-37.118,-24.615,-80.879,-12.112,66.422
'[15:29:40.965 24/07/2074]',15.629,39.072,37.509,-9.768,-27.741,5.861,78.926,23.443,-7.033,0.000,66.032,6.252,-34.383,-1.954,58.608,44.151,-14.066,76.581,-36.728,-12.112,-82.442,-23.053,58.608
'[15:29:40.969 24/07/2074]',16.020,28.913,30.867,-6.642,-30.867,-5.861,75.800,30.476,-8.596,-5.079,53.138,10.940,-37.900,-4.298,46.886,46.496,-17.973,68.767,-30.085,-0.781,-79.316,-32.821,46.886
'[15:29:40.973 24/07/2074]',6.252,20.317,24.615,-0.781,-36.728,-16.410,69.939,33.602,-8.596,-10.159,35.946,12.894,-42.589,-6.252,33.602,46.496,-27.741,62.125,-23.834,-5.861,-80.098,-12.894,33.602
'[15:29:40.977 24/07/2074]',1.954,23.834,12.894,-4.689,-35.946,-23.443,63.297,30.085,-7.424,-10.159,22.662,8.987,-47.277,-2.735,22.662,42.198,-32.821,50.794,-12.112,-12.503,-74.628,-10.159,22.662
'[15:29:40.980 24/07/2074]',2.344,19.536,-2.344,-5.861,-36.337,-32.821,52.357,30.085,-9.377,-9.377,11.331,8.205,-48.059,-4.689,15.238,38.681,-32.039,37.509,3.126,0.391,-76.190,-23.443,15.238
'[15:29:40.984 24/07/2074]',-7.424,15.629,-13.675,-4.689,-38.681,-42.589,38.291,30.867,-12.894,-12.112,-0.391,10.940,-53.919,-12.112,8.987,42.198,-33.602,28.132,14.457,3.907,-80.098,-26.178,8.987
'[15:29:40.988 24/07/2074]',-4.298,14.066,-29.304,-10.940,-29.304,-48.449,28.132,17.973,-10.549,-8.205,-7.033,2.735,-53.529,-9.377,3.516,35.556,-36.337,13.675,30.085,-7.814,-76.190,-19.145,3.516
'[15:29:40.992 24/07/2074]',0.391,6.642,-37.509,-17.582,-19.927,-55.482,19.145,6.642,-8.987,-8.205,-9.768,-2.735,-50.403,-11.331,1.563,28.913,-36.337,1.172,38.291,5.470,-75.409,-30.867,1.563
'[15:29:40.996 24/07/2074]',-0.391,-5.861,-40.635,-13.675,-14.457,-62.515,7.033,7.033,-11.722,-14.066,-14.457,3.126,-56.654,-14.066,0.391,33.993,-37.900,-4.689,41.416,12.112,-80.098,-28.913,0.391
'[15:29:41.000 24/07/2074]',1.954,-18.364,-51.184,-6.642,-7.424,-68.376,-3.516,4.689,-12.503,-19.145,-14.457,7.033,-56.654,-17.582,0.391,35.165,-42.198,-9.768,51.966,7.424,-76.581,-24.615,0.391
'[15:29:41.004 24/07/2074]',6.252,-28.913,-47.668,-10.940,-3.126,-68.376,-10.159,0.391,-12.894,-21.880,-6.642,4.689,-55.482,-16.410,4.689,30.476,-41.416,-16.410,48.449,25.788,-83.223,-34.383,4.689
'[15:29:41.008 24/07/2074]',3.126,-48.449,-37.509,-0.781,-3.126,-73.065,-16.801,8.987,-14.847,-26.960,-2.735,10.549,-53.919,-20.708,6.642,34.383,-40.635,-19.927,38.291,54.701,-89.084,-43.370,6.642
'[15:29:41.012 24/07/2074]',0.391,-27.741,-65.250,1.563,-1.954,-71.893,-25.397,8.205,-14.847,-30.476,0.781,14.457,-57.827,-21.490,11.722,37.900,-41.026,-19.927,66.032,16.410,-89.866,-34.383,11.722
'[15:29:41.016 24/07/2074]',3.126,-26.569,-69.158,3.126,3.126,-71.502,-27.741,6.252,-9.768,-29.695,5.861,11.331,-58.999,-16.020,17.192,35.946,-41.026,-22.271,69.939,7.424,-93.382,-27.350,17.192
'[15:29:41.020 24/07/2074]',5.861,-26.178,-70.720,5.861,7.033,-69.158,-31.648,7.814,-3.516,-32.430,10.159,10.549,-53.529,-22.662,22.271,39.072,-35.165,-25.788,71.502,13.284,-94.945,-37.118,22.271
'[15:29:41.023 24/07/2074]',6.252,-27.350,-75.800,14.847,7.424,-66.032,-37.509,13.284,1.172,-37.118,14.066,15.238,-53.138,-23.834,30.085,41.416,-29.695,-23.443,76.581,10.549,-101.587,-30.867,30.085
'[15:29:41.027 24/07/2074]',13.675,-37.509,-68.767,15.238,12.503,-57.827,-42.589,9.377,10.940,-38.681,19.927,11.722,-49.231,-22.271,39.463,37.509,-25.397,-23.443,69.548,0.391,-95.726,-17.973,39.463
'[15:29:41.031 24/07/2074]',16.410,-33.993,-62.125,9.768,16.020,-46.886,-42.198,2.344,21.099,-39.072,24.615,5.079,-37.900,-21.099,44.542,27.350,-17.973,-28.523,62.906,6.252,-87.912,-18.755,44.542
'[15:29:41.035 24/07/2074]',17.973,-28.913,-65.641,13.284,16.020,-37.900,-46.886,4.689,26.960,-40.635,26.960,8.205,-31.258,-18.755,50.403,22.271,-7.814,-30.867,66.422,12.894,-84.005,-23.053,50.403
'[15:29:41.039 24/07/2074]',19.145,-24.225,-71.502,17.582,12.894,-30.085,-48.840,6.252,30.476,-39.463,25.006,12.112,-30.867,-14.066,52.747,21.490,-3.907,-31.258,72.283,-4.298,-70.330,-17.192,52.747
'[15:29:41.043 24/07/2074]',19.927,-21.099,-67.204,11.722,10.159,-20.708,-45.714,0.000,35.946,-36.337,24.615,4.689,-18.755,-15.238,52.357,11.722,-0.391,-37.118,67.985,-4.689,-67.595,-6.642,52.357
'[15:29:41.047 24/07/2074]',21.099,-7.033,-78.535,12.112,1.954,-12.112,-46.886,4.689,34.383,-32.821,25.006,6.642,-13.675,-15.238,55.092,8.596,8.987,-38.681,79.316,-8.987,-66.422,-13.675,55.092
'[15:29:41.051 24/07/2074]',19.927,-11.331,-68.376,12.503,-3.516,-3.126,-46.496,7.424,33.211,-27.350,22.271,8.987,-10.159,-16.801,56.264,9.768,16.801,-35.556,69.158,-9.377,-60.952,-8.987,56.264
'[15:29:41.055 24/07/2074]',23.053,-16.020,-51.184,5.470,-3.907,8.205,-41.026,-1.563,37.118,-15.629,20.317,2.344,-0.391,-14.457,57.436,2.735,25.006,-38.291,51.966,-9.377,-51.184,0.391,57.436
'[15:29:41.059 24/07/2074]',25.006,-12.894,-44.151,2.344,-4.298,17.192,-37.118,-5.470,40.635,-4.689,17.192,-2.344,9.768,-9.377,56.654,-5.861,34.774,-40.244,44.933,4.689,-46.886,-3.516,56.654
'[15:29:41.063 24/07/2074]',22.662,-13.675,-37.509,7.424,-4.298,21.490,-37.900,0.391,43.370,1.172,8.987,2.344,14.457,-5.079,53.138,-4.689,42.198,-38.291,38.291,7.033,-34.383,-3.126,53.138
'[15:29:41.066 24/07/2074]',25.006,-30.476,-20.708,8.596,-4.689,23.443,-35.165,-1.172,45.324,8.987,0.391,-1.954,22.271,0.000,42.198,-11.331,43.370,-38.681,21.490,10.159,-19.927,12.503,42.198
'[15:29:41.070 24/07/2074]',28.523,7.033,-47.277,-3.907,-2.344,28.913,-34.383,-7.033,47.668,16.801,-1.954,-12.894,31.258,5.079,36.337,-22.662,46.105,-40.635,48.059,-15.629,-18.364,10.159,36.337
'[15:29:41.074 24/07/2074]',32.039,17.192,-47.668,-8.987,0.000,30.085,-33.211,-3.516,44.542,21.490,-5.861,-13.284,34.383,7.814,28.913,-24.615,49.231,-38.681,48.449,-19.145,-10.159,3.516,28.913
'[15:29:41.078 24/07/2074]',33.211,14.066,-40.244,-11.722,1.172,31.258,-30.085,-6.252,37.900,25.788,-9.768,-18.755,34.383,12.894,11.722,-24.225,46.496,-34.774,41.026,-33.993,0.391,18.755,11.722
'[15:29:41.082 24/07/2074]',32.430,21.880,-33.993,-21.880,3.126,34.383,-24.225,-15.238,32.430,32.039,-7.814,-26.960,34.774,16.020,7.424,-28.913,45.714,-32.430,34.774,-35.556,-0.781,21.880,7.424
'[15:29:41.086 24/07/2074]',28.523,22.662,-21.880,-25.397,3.907,35.165,-19.927,-14.847,27.350,36.728,-4.689,-29.304,39.463,20.317,0.391,-30.085,49.231,-29.304,22.662,-21.880,1.563,18.364,0.391
'[15:29:41.090 24/07/2074]',24.225,14.457,-17.192,-18.755,1.954,28.913,-20.708,-8.596,17.582,34.383,-4.689,-24.615,34.774,13.675,-5.470,-19.145,48.840,-23.443,17.973,-23.834,10.940,10.940,-5.470
'[15:29:41.094 24/07/2074]',25.006,17.192,-15.238,-24.615,5.079,27.741,-18.755,-12.112,16.410,35.946,-2.344,-28.913,37.509,12.112,-8.205,-20.317,46.496,-21.880,16.020,-35.556,9.377,19.927,-8.205
'[15:29:41.098 24/07/2074]',21.880,37.118,-25.006,-30.085,7.814,26.569,-16.410,-14.066,14.066,37.509,0.391,-32.039,37.900,16.801,-8.987,-25.006,48.059,-23.443,25.788,-41.807,8.205,12.503,-8.987
'[15:29:41.102 24/07/2074]',20.708,30.867,-19.927,-28.132,10.549,19.927,-17.192,-10.159,8.987,29.695,-1.563,-24.615,33.211,11.331,-12.112,-19.536,45.714,-24.615,20.708,-28.132,4.298,1.563,-12.112
'[15:29:41.105 24/07/2074]',14.457,21.490,-5.470,-26.960,14.457,18.364,-15.238,-13.675,9.768,24.225,-5.470,-23.053,29.304,10.549,-15.238,-18.755,38.291,-21.880,6.252,-29.304,3.516,17.582,-15.238
'[15:29:41.109 24/07/2074]',8.987,25.788,-0.781,-31.648,19.145,15.629,-12.894,-19.536,8.596,19.927,-5.470,-23.443,22.271,15.629,-16.801,-21.099,32.821,-23.443,1.563,-30.867,3.907,23.053,-16.801
'[15:29:41.113 24/07/2074]',1.954,17.192,0.391,-25.006,14.847,6.642,-14.457,-13.675,1.954,8.596,-6.252,-13.284,11.722,6.252,-11.331,-15.629,26.569,-19.536,0.391,-17.582,3.126,7.424,-11.331
'[15:29:41.117 24/07/2074]',-5.470,1.172,12.112,-15.238,11.331,1.172,-14.457,-7.424,1.172,-0.391,-7.033,-4.298,5.470,-1.172,-8.596,-6.642,20.317,-16.801,-11.331,-12.894,7.814,7.814,-8.596
'[15:29:41.121 24/07/2074]',-8.987,28.913,-12.503,-22.271,9.377,1.172,-12.894,-13.675,1.172,-4.298,-5.079,-6.252,-0.391,-1.563,-2.344,-8.987,16.801,-19.536,13.284,-47.277,7.033,8.205,-2.344
'[15:29:41.125 24/07/2074]',-17.582,32.039,-12.112,-23.443,1.954,-1.172,-8.205,-14.457,1.172,-10.940,-0.781,-4.298,-5.079,-7.424,8.205,-10.159,15.629,-21.880,12.894,-32.430,-7.424,-2.735,8.205
'[15:29:41.129 24/07/2074]',-19.927,19.927,-0.781,-21.490,-0.781,-4.298,-3.516,-13.284,0.000,-19.536,1.563,1.172,-12.503,-12.894,10.940,-1.563,13.284,-16.410,1.563,-28.523,-13.284,-2.344,10.940
'[15:29:41.133 24/07/2074]',-21.880,17.582,7.424,-22.271,0.000,-3.907,1.563,-15.238,-2.735,-21.880,5.470,1.954,-19.145,-11.331,13.675,0.000,10.940,-11.331,-6.642,-32.821,-15.629,6.252,13.675
'[15:29:41.137 24/07/2074]',-19.536,5.861,19.536,-23.053,-0.391,-7.033,6.252,-14.847,-8.205,-24.615,12.894,3.126,-23.443,-13.675,23.443,-1.563,9.768,-7.814,-18.755,-3.516,-28.132,-7.033,23.443
'[15:29:41.141 24/07/2074]',-17.582,-5.470,27.350,-14.066,-0.781,-14.847,11.331,-5.079,-10.940,-26.960,17.973,9.768,-25.788,-17.973,25.006,8.987,8.987,1.563,-26.569,14.847,-28.913,-21.880,25.006
'[15:29:41.145 24/07/2074]',-21.880,0.000,25.006,-6.642,0.000,-17.973,14.457,0.391,-11.331,-24.225,21.099,8.596,-25.397,-19.536,28.913,10.940,2.735,10.940,-24.225,-1.954,-23.834,-10.159,28.913
'[15:29:41.148 24/07/2074]',-16.410,3.907,22.271,-7.814,4.298,-21.880,20.317,-1.172,-7.424,-19.145,25.397,2.344,-24.225,-14.847,32.821,8.205,-1.954,14.457,-21.490,-4.689,-22.662,-9.377,32.821
'[15:29:41.152 24/07/2074]',-13.284,9.768,23.053,-4.298,7.814,-25.397,29.695,1.172,-3.126,-14.457,30.476,1.172,-21.490,-10.549,35.165,10.940,-3.126,21.880,-22.271,-3.126,-19.145,-14.066,35.165
'[15:29:41.156 24/07/2074]',-17.192,-0.781,42.198,2.735,5.861,-24.225,35.165,9.377,-3.126,-11.331,30.867,6.252,-26.569,-9.377,38.681,19.536,-5.861,29.695,-41.416,-1.172,-15.238,-7.033,38.681
'[15:29:41.160 24/07/2074]',-14.457,-10.159,65.250,0.000,8.205,-18.364,44.151,5.079,-0.391,-5.861,33.602,5.470,-27.741,-4.298,42.589,21.880,-7.033,33.602,-64.469,2.344,-16.801,2.735,42.589
'[15:29:41.164 24/07/2074]',-11.331,0.000,73.065,-5.079,8.596,-11.722,53.919,3.907,2.344,0.000,37.509,6.642,-24.225,-7.033,53.138,26.178,-1.563,35.165,-72.283,7.814,-25.788,-8.987,53.138
'[15:29:41.168 24/07/2074]',-17.973,0.781,84.786,-3.126,1.563,-5.079,57.827,8.596,0.391,3.516,37.118,11.331,-25.788,-12.112,57.045,35.165,3.516,39.853,-84.005,14.066,-26.178,-19.536,57.045
'[15:29:41.172 24/07/2074]',-8.596,-5.861,92.601,-2.344,2.735,0.781,64.860,4.298,1.172,11.331,39.072,10.549,-26.960,-4.689,62.125,34.383,3.126,42.198,-91.819,-0.781,-20.317,-5.079,62.125
'[15:29:41.176 24/07/2074]',-1.172,21.880,74.628,-6.642,8.205,10.549,69.939,-1.563,1.954,20.708,44.151,6.642,-27.741,5.470,67.595,29.304,7.814,42.198,-73.846,-23.834,-24.615,1.172,67.595
'[15:29:41.180 24/07/2074]',-1.954,17.973,78.926,-0.391,5.470,14.066,69.548,2.735,-1.172,22.662,46.886,12.894,-30.867,3.907,73.065,35.946,12.503,46.496,-78.144,-21.490,-25.397,1.563,73.065
'[15:29:41.184 24/07/2074]',-4.689,11.722,85.958,4.298,5.470,18.364,66.813,5.079,-2.735,25.397,49.231,17.973,-35.165,8.987,76.972,39.853,12.503,50.012,-85.177,-22.271,-21.880,10.549,76.972
'[15:29:41.188 24/07/2074]',-0.391,27.741,82.442,-5.470,14.066,27.741,64.860,-2.344,-0.781,32.039,53.529,13.675,-30.476,13.284,81.661,33.993,17.973,46.886,-81.661,-32.039,-22.662,16.020,81.661
'[15:29:41.191 24/07/2074]',-2.344,24.225,85.958,-12.112,12.503,30.867,58.217,-6.252,-3.516,35.165,53.919,12.503,-28.523,8.987,87.521,30.867,24.225,42.979,-85.177,-11.331,-22.662,-0.781,87.521
'[15:29:41.195 24/07/2074]',-3.907,25.788,83.223,-17.582,12.894,33.602,49.231,-9.377,-3.907,39.463,49.231,12.894,-27.741,15.629,85.177,25.788,26.178,42.589,-82.442,-25.006,-15.238,12.112,85.177
'[15:29:41.199 24/07/2074]',2.735,37.900,67.204,-27.741,19.145,37.509,41.807,-18.364,-4.689,44.542,46.496,7.033,-26.178,19.536,85.177,15.238,25.788,39.463,-66.422,-52.357,-7.033,25.788,85.177
'[15:29:41.203 24/07/2074]',3.516,34.383,66.422,-36.337,19.145,37.509,35.556,-25.006,-4.298,45.324,42.589,3.516,-18.364,18.364,81.661,5.079,28.913,33.602,-65.641,-31.258,-3.126,13.675,81.661
'[15:29:41.207 24/07/2074]',3.126,24.225,63.297,-37.118,16.020,34.383,24.225,-22.271,-7.814,41.416,35.165,7.814,-19.145,14.847,73.455,6.642,28.132,31.258,-62.515,-17.973,-3.907,8.596,73.455
'[15:29:41.211 24/07/2074]',4.689,27.350,53.138,-44.542,19.145,31.648,16.020,-26.569,-11.722,37.118,26.569,4.298,-18.364,16.020,56.264,2.735,21.490,26.178,-52.357,-25.397,-0.391,16.801,56.264
'[15:29:41.215 24/07/2074]',7.033,24.615,45.714,-53.529,19.536,26.178,10.940,-33.993,-11.331,32.039,19.145,-4.298,-17.582,9.768,48.059,-3.907,17.582,14.847,-44.933,-11.331,-5.470,4.689,48.059
'[15:29:41.219 24/07/2074]',8.596,14.457,40.244,-51.966,22.271,16.020,2.735,-30.476,-12.112,25.397,7.033,-3.126,-21.490,4.298,37.509,-2.735,16.410,2.735,-39.463,8.596,-14.066,-6.642,37.509
'[15:29:41.223 24/07/2074]',6.642,41.026,9.377,-53.138,27.741,8.205,-2.344,-29.304,-10.549,16.410,-4.298,-1.563,-25.788,0.781,20.708,3.907,10.159,-3.516,-8.596,-34.383,-10.159,3.126,20.708
'[15:29:41.227 24/07/2074]',5.079,39.072,6.252,-53.529,32.821,0.391,-4.298,-30.867,-4.298,5.470,-12.894,-1.563,-27.350,-3.126,10.549,5.470,3.126,-13.284,-5.470,-42.589,-9.768,8.987,10.549
'[15:29:41.230 24/07/2074]',5.079,28.913,12.503,-50.403,33.993,-5.861,-4.298,-26.569,-1.954,-4.298,-19.927,1.563,-27.350,-5.470,-3.126,11.331,2.344,-23.834,-11.722,-20.708,-8.987,-4.689,-3.126
'[15:29:41.234 24/07/2074]',2.344,25.006,10.940,-48.840,32.039,-11.722,-6.642,-22.271,-0.781,-18.364,-28.913,8.596,-29.695,-7.814,-22.271,20.317,-3.126,-27.350,-10.159,-12.894,-12.503,-10.159,-22.271
'[15:29:41.238 24/07/2074]',3.126,23.834,14.457,-55.482,33.993,-12.503,-5.470,-28.523,3.516,-27.350,-32.821,4.298,-26.960,-16.020,-28.913,20.708,-12.894,-31.258,-13.675,-21.880,-18.755,-2.735,-28.913
'[15:29:41.242 24/07/2074]',5.470,18.364,18.755,-56.654,37.118,-15.238,-0.781,-33.211,3.516,-34.383,-32.821,-1.954,-25.397,-20.317,-40.244,21.099,-17.192,-34.383,-17.973,-10.159,-15.629,-16.020,-40.244
'[15:29:41.246 24/07/2074]',1.954,10.549,14.847,-46.105,36.728,-23.053,-0.391,-30.085,-0.391,-42.979,-32.821,2.344,-30.476,-28.913,-45.714,32.430,-22.662,-26.178,-14.066,-5.079,-18.755,-24.225,-45.714
'[15:29:41.250 24/07/2074]',-3.907,24.225,-2.344,-39.072,33.602,-28.913,3.126,-28.913,-3.126,-49.621,-28.913,3.907,-35.165,-31.648,-49.621,39.463,-31.648,-17.192,3.126,-42.589,-13.675,-10.549,-49.621
'[15:29:41.254 24/07/2074]',-1.172,7.033,11.722,-33.211,34.383,-34.383,15.238,-30.476,-8.596,-50.012,-19.536,0.391,-36.337,-30.476,-50.012,39.072,-35.165,-9.768,-10.940,-16.801,-9.768,-22.662,-50.012
'[15:29:41.258 24/07/2074]',-6.642,3.126,17.582,-25.006,29.695,-37.509,22.662,-25.397,-12.112,-51.966,-10.549,1.172,-39.463,-23.834,-50.012,39.853,-35.165,0.781,-16.801,0.391,-14.066,-27.350,-50.012
'[15:29:41.262 24/07/2074]',-8.987,-5.079,24.615,-17.192,25.006,-42.198,31.648,-22.662,-14.847,-55.873,-3.126,0.781,-39.072,-27.741,-47.277,41.026,-42.979,15.238,-23.834,-2.735,-11.331,-21.490,-47.277
'[15:29:41.266 24/07/2074]',-11.331,-3.126,30.476,-14.066,24.225,-40.635,44.151,-26.178,-14.457,-54.701,5.470,-4.689,-32.430,-33.602,-41.416,39.853,-48.449,28.913,-29.695,-10.159,-9.377,-19.145,-41.416
'[15:29:41.270 24/07/2074]',-13.284,-5.470,37.118,-5.079,20.708,-38.291,56.264,-26.178,-12.112,-54.310,19.145,-5.861,-26.569,-35.165,-28.132,36.728,-46.496,42.198,-36.337,5.861,-10.159,-30.085,-28.132
'[15:29:41.273 24/07/2074]',-19.536,-1.172,31.258,11.331,13.284,-35.165,62.906,-19.145,-11.722,-54.310,27.350,2.344,-20.317,-32.039,-25.006,42.198,-45.714,59.780,-30.476,-3.516,-0.391,-23.443,-25.006
'[15:29:41.277 24/07/2074]',-21.880,3.126,32.039,17.192,7.033,-25.006,74.237,-25.006,-9.768,-51.184,39.072,-0.391,-14.457,-31.648,-16.801,41.416,-44.151,75.409,-31.258,-16.020,1.172,-10.159,-16.801
'[15:29:41.281 24/07/2074]',-22.271,14.457,32.430,21.099,2.344,-9.768,82.833,-28.523,-11.722,-41.807,53.919,-5.079,-13.675,-22.662,-4.689,35.556,-35.946,86.740,-31.648,-9.768,2.735,-12.894,-4.689
'[15:29:41.285 24/07/2074]',-22.662,11.331,37.118,35.556,-2.735,0.391,86.349,-21.880,-13.284,-38.681,64.469,-1.954,-6.252,-17.973,-1.563,37.118,-26.960,98.462,-36.337,5.470,15.629,-21.490,-1.563
'[15:29:41.289 24/07/2074]',-25.006,2.735,41.807,48.449,-12.112,9.768,89.866,-18.755,-15.629,-33.211,72.283,-1.563,-5.861,-26.178,10.940,42.198,-21.099,109.402,-41.026,9.768,17.973,-21.490,10.940
'[15:29:41.293 24/07/2074]',-24.615,5.470,46.105,50.794,-16.801,20.708,94.164,-19.927,-11.722,-24.225,78.926,-7.424,0.000,-22.662,19.536,37.118,-13.675,114.090,-45.324,8.987,21.880,-10.940,19.536
'[15:29:41.297 24/07/2074]',-25.006,7.814,48.059,58.217,-23.053,30.867,94.554,-12.112,-9.377,-16.410,84.005,-4.689,6.642,-15.238,25.397,34.774,-1.172,118.388,-47.277,21.490,36.728,-22.662,25.397
'[15:29:41.301 24/07/2074]',-26.569,-1.172,64.078,60.171,-33.211,39.072,95.726,-5.079,-7.424,-9.377,85.568,0.000,8.596,-10.549,30.085,39.072,6.252,126.203,-63.297,31.258,36.337,-14.847,30.085
'[15:29:41.305 24/07/2074]',-23.443,11.722,67.595,52.357,-31.258,51.966,98.852,-10.159,-2.735,1.172,89.084,-7.814,16.410,-3.907,32.039,33.993,12.503,126.203,-66.813,21.880,33.993,2.344,32.039
'[15:29:41.309 24/07/2074]',-19.145,14.066,72.283,51.966,-30.867,61.343,99.243,-9.768,0.391,9.768,92.991,-10.549,21.490,-1.172,38.291,33.602,20.708,125.031,-71.502,30.085,42.979,-10.549,38.291
'[15:29:41.313 24/07/2074]',-18.364,13.675,72.674,58.608,-28.132,63.687,94.945,-2.735,4.298,10.940,93.382,-6.642,26.960,-4.689,37.509,41.807,27.350,126.984,-71.893,36.337,35.165,-8.205,37.509
'[15:29:41.316 24/07/2074]',-15.629,26.960,47.277,66.032,-21.099,63.687,85.958,-2.735,5.470,11.722,92.210,-9.377,25.397,-8.596,39.463,43.761,27.741,122.686,-46.496,11.331,37.509,-1.563,39.463
'[15:29:41.320 24/07/2074]',-10.940,24.225,39.463,67.204,-13.284,59.780,81.661,-6.252,10.549,12.503,94.945,-15.629,31.258,-9.377,41.416,39.072,33.602,114.090,-38.681,23.834,40.635,-12.894,41.416
'[15:29:41.324 24/07/2074]',-5.861,23.443,26.960,73.455,-2.735,52.357,74.237,-4.298,14.847,14.066,94.554,-17.192,33.993,-3.907,41.416,35.165,41.416,106.667,-26.178,32.039,46.496,-23.443,41.416
'[15:29:41.328 24/07/2074]',-4.298,16.410,19.927,83.223,6.642,43.370,68.767,-3.126,17.582,19.927,90.647,-17.582,31.258,5.861,42.979,30.085,44.542,100.024,-19.145,25.006,46.105,0.781,42.979
'[15:29:41.332 24/07/2074]',-3.907,1.954,26.569,86.349,12.112,39.853,68.767,-9.768,25.397,30.476,87.912,-23.834,41.026,8.205,44.933,24.225,53.919,89.084,-25.788,35.556,47.668,11.722,44.933
'[15:29:41.336 24/07/2074]',-5.470,26.569,-1.954,92.210,15.629,41.026,63.687,-10.159,30.085,43.761,84.396,-23.443,44.933,16.410,51.966,19.145,70.330,80.879,2.735,14.847,53.529,7.033,51.966
'[15:29:41.340 24/07/2074]',-10.159,19.536,-6.252,103.932,13.675,39.853,58.217,-6.252,26.960,51.184,81.270,-18.755,43.370,21.490,55.092,18.755,80.879,78.535,7.033,15.629,56.264,12.503,55.092
'[15:29:41.344 24/07/2074]',-6.642,23.053,-21.099,105.885,15.629,39.463,53.919,-8.987,25.397,55.873,78.535,-19.927,41.416,21.490,57.045,18.755,84.396,74.628,21.880,0.391,50.794,20.317,57.045
'[15:29:41.348 24/07/2074]',-0.781,14.457,-18.364,98.462,17.973,39.072,52.357,-16.020,22.271,61.734,79.707,-26.178,43.761,28.132,57.827,5.861,89.475,68.376,19.145,14.457,53.529,11.722,57.827
'[15:29:41.352 24/07/2074]',-2.344,5.470,-2.735,89.475,19.145,37.118,50.012,-16.410,18.755,62.515,77.753,-25.788,43.370,36.337,50.012,2.735,91.819,65.641,3.516,31.648,54.310,8.987,50.012
'[15:29:41.355 24/07/2074]',3.126,-0.781,-5.079,82.442,19.927,33.211,46.886,-21.099,14.457,58.999,72.283,-25.397,38.291,33.211,41.416,6.252,86.349,64.860,5.861,19.536,44.151,21.490,41.416
'[15:29:41.359 24/07/2074]',7.814,-8.596,-2.735,73.455,20.708,30.867,45.324,-28.132,11.331,58.217,69.158,-29.304,40.244,30.476,33.602,3.516,82.833,60.171,3.516,14.847,49.231,19.145,33.602
'[15:29:41.363 24/07/2074]',4.689,-5.861,-3.907,67.204,17.192,26.569,43.761,-26.569,5.079,50.794,64.469,-22.662,31.648,31.648,23.834,7.814,82.051,60.562,4.689,14.847,48.059,8.987,23.834
'[15:29:41.367 24/07/2074]',6.252,-18.364,-7.033,66.032,15.238,16.801,38.291,-23.834,-5.079,38.291,59.389,-16.410,17.973,22.271,14.457,19.145,73.065,60.952,7.814,15.238,35.165,6.252,14.457
'[15:29:41.371 24/07/2074]',7.814,-27.741,-2.344,57.436,19.145,8.987,37.118,-30.476,-9.377,31.258,55.092,-17.192,9.768,19.145,6.252,21.099,63.687,54.701,3.126,17.973,29.695,8.205,6.252
'[15:29:41.375 24/07/2074]',7.814,-24.225,-1.954,41.416,21.490,1.172,35.556,-35.556,-9.768,23.053,53.529,-18.364,8.596,17.192,-2.344,22.271,58.217,49.231,2.735,25.788,16.801,-2.344,-2.344
'[15:29:41.379 24/07/2074]',0.000,-29.304,-9.768,43.761,19.927,-10.159,24.615,-30.867,-9.768,10.940,45.714,-10.159,2.344,6.642,-9.768,35.946,48.059,46.496,10.549,15.629,8.596,-0.391,-9.768
'[15:29:41.383 24/07/2074]',0.000,-28.913,-20.708,36.337,25.397,-20.708,18.364,-37.509,-5.861,3.907,39.463,-12.112,1.172,5.079,-17.582,36.337,39.853,41.416,21.490,-5.861,16.410,4.298,-17.582
'[15:29:41.387 24/07/2074]',-0.391,-30.476,-23.834,26.960,30.085,-32.039,12.894,-39.853,0.391,-1.172,34.383,-13.284,4.298,-2.735,-16.410,33.602,33.211,32.430,24.615,3.907,5.861,-6.642,-16.410
'[15:29:41.391 24/07/2074]',-1.172,-45.324,-23.053,23.053,32.039,-45.714,1.954,-35.946,2.735,-8.596,27.741,-9.377,0.391,-4.298,-19.145,34.774,27.741,25.397,23.834,20.708,0.391,-16.020,-19.145
'[15:29:41.395 24/07/2074]',0.781,-42.979,-33.993,15.238,38.681,-57.045,-7.424,-34.383,5.079,-12.894,21.490,-9.768,-1.954,-8.205,-19.536,33.602,17.582,16.801,34.774,-2.344,1.563,-8.596,-19.536
'[15:29:41.398 24/07/2074]',4.298,-58.608,-21.490,3.126,45.324,-64.860,-15.238,-36.337,12.112,-13.284,14.066,-14.847,3.907,-6.642,-25.006,25.397,8.205,1.563,22.271,9.377,2.735,-4.298,-25.006
'[15:29:41.402 24/07/2074]',1.563,-62.906,-20.708,-1.563,47.668,-73.065,-26.960,-31.258,20.708,-16.410,3.516,-16.020,9.377,-6.252,-31.258,18.364,2.735,-14.066,21.490,22.662,9.768,-13.284,-31.258
'[15:29:41.406 24/07/2074]',-8.205,-61.734,-36.337,1.563,46.105,-84.396,-41.807,-25.006,26.178,-23.443,-12.894,-17.973,8.987,-9.377,-41.807,13.284,-7.814,-28.132,37.118,4.298,26.960,-4.298,-41.807
'[15:29:41.410 24/07/2074]',-16.801,-72.283,-40.244,2.344,46.105,-95.336,-51.575,-26.569,32.821,-25.006,-32.430,-30.085,10.159,-8.987,-55.482,-0.391,-20.708,-46.496,41.026,11.722,31.648,11.722,-55.482
'[15:29:41.414 24/07/2074]',-24.225,-73.455,-55.482,0.000,41.807,-108.620,-62.125,-26.178,36.337,-32.430,-49.231,-37.118,8.596,-13.675,-67.595,-10.549,-32.430,-64.860,56.264,26.960,30.867,3.907,-67.595
'[15:29:41.418 24/07/2074]',-29.695,-83.614,-73.846,5.470,34.383,-123.858,-73.846,-18.364,33.211,-44.542,-67.985,-37.900,10.159,-28.523,-84.005,-15.629,-47.277,-75.018,74.628,31.648,41.807,-3.126,-84.005
