'Time and date','FP1-F7','F7-T7','T7-P7','P7-O1','FP1-F3','F3-C3','C3-P3','P3-O1','FP2-F4','F4-C4','C4-P4','P4-O2','FP2-F8','F8-T8','T8-P8','P8-O2','FZ-CZ','CZ-PZ','P7-T7','T7-FT9','FT9-FT10','FT10-T8','T8-P8'
'hh:mm:ss.mmm dd/mm/yyyy','uV','uV','uV','uV','uV','uV','uV','uV','uV','uV','uV','uV','uV','uV','uV','uV','uV','uV','uV','uV','uV','uV','uV'
'[19:30:03.000 24/07/2074]',-2.735,-37.509,100.806,0.781,30.867,8.596,11.722,10.159,37.118,37.900,-0.391,9.377,-56.654,33.602,93.773,13.284,41.807,-12.894,-100.024,105.104,10.549,-133.626,93.773
'[19:30:03.004 24/07/2074]',0.391,0.391,0.391,0.391,0.391,0.391,0.391,0.391,0.391,0.391,0.391,0.391,0.391,0.391,0.391,0.391,0.391,0.391,0.391,0.391,0.391,0.391,0.391
'[19:30:03.008 24/07/2074]',0.391,0.391,0.391,0.391,0.391,0.391,0.391,0.391,0.391,0.391,0.391,0.391,0.391,0.391,0.391,0.000,0.391,0.391,0.391,0.391,0.391,0.391,0.391
'[19:30:03.012 24/07/2074]',0.391,0.391,0.391,0.391,0.391,0.391,0.391,0.391,0.391,0.391,0.391,0.000,0.391,0.391,0.781,-0.781,0.391,0.391,0.391,0.391,1.172,0.000,0.781
'[19:30:03.016 24/07/2074]',0.391,0.391,0.391,0.391,0.391,0.391,0.391,0.391,0.391,0.391,0.391,0.391,0.391,0.781,-1.172,2.344,0.391,0.391,0.391,0.000,-0.391,1.563,-1.172
'[19:30:03.020 24/07/2074]',-0.391,0.781,0.391,0.391,0.000,0.391,0.391,0.391,0.391,1.172,-0.781,3.126,-0.391,0.391,-1.954,6.642,0.391,0.000,0.391,0.000,-3.126,1.954,-1.954
'[19:30:03.023 24/07/2074]',-0.781,0.000,1.172,0.000,-0.391,0.391,0.000,0.391,-0.391,1.563,-1.172,1.172,0.000,-1.563,1.563,0.391,1.172,0.391,-0.391,1.172,0.781,-1.954,1.563
'[19:30:03.027 24/07/2074]',0.781,0.000,1.954,0.391,0.391,0.781,0.391,0.391,0.391,0.391,1.172,-4.689,1.172,-0.391,5.470,-9.377,1.563,1.172,-1.172,2.344,2.735,-2.735,5.470
'[19:30:03.031 24/07/2074]',1.954,0.781,1.172,0.781,1.172,1.563,1.563,0.391,2.344,0.000,3.126,-4.298,0.391,2.344,2.344,-3.516,1.563,0.391,-0.391,1.172,-1.954,1.563,2.344
'[19:30:03.035 24/07/2074]',-1.172,0.391,1.172,0.391,-0.391,0.781,0.781,0.000,0.781,1.563,-0.391,3.516,-1.172,2.735,-3.516,7.814,1.563,-0.391,-0.391,-3.907,0.781,5.079,-3.516
'[19:30:03.039 24/07/2074]',-2.735,0.391,0.781,0.391,0.000,0.000,0.000,-0.391,-1.172,3.516,-4.298,5.079,-2.344,0.391,-9.377,15.238,1.563,0.391,0.000,-7.033,1.954,5.861,-9.377
'[19:30:03.043 24/07/2074]',-2.344,6.252,-1.563,1.954,-0.391,2.735,1.172,0.391,0.391,9.768,-7.424,10.940,-10.159,-0.781,-18.755,44.151,7.814,-2.344,2.344,-2.735,-30.085,10.940,-18.755
'[19:30:03.047 24/07/2074]',-11.331,3.907,6.642,0.000,-8.987,8.987,0.000,0.391,-1.172,16.410,-14.457,16.410,-11.722,-6.642,2.344,34.383,18.755,-0.781,-5.861,17.582,-37.509,-5.861,2.344
'[19:30:03.051 24/07/2074]',-13.284,-0.781,23.053,1.172,-5.079,13.284,3.516,-1.563,-3.126,21.099,-10.549,-17.973,-13.284,-7.424,18.755,-8.205,28.913,3.126,-22.271,9.377,-3.126,-14.066,18.755
'[19:30:03.055 24/07/2074]',-8.987,1.563,27.741,0.391,-2.344,19.536,9.377,-5.079,12.503,18.364,-3.907,-41.026,-17.973,6.642,31.648,-33.211,38.291,4.298,-26.960,-3.126,-17.192,9.768,31.648
'[19:30:03.059 24/07/2074]',-12.503,-1.172,35.556,-0.391,-3.907,25.788,10.549,-10.549,12.503,21.490,-1.172,-44.542,-20.708,2.735,42.589,-35.556,48.059,3.907,-34.774,-8.987,7.814,-1.954,42.589
'[19:30:03.063 24/07/2074]',-13.284,-7.424,41.026,3.907,0.781,23.053,11.722,-11.722,16.020,19.536,-3.516,-39.072,-18.364,25.788,10.159,-24.225,52.747,6.252,-40.244,-35.165,48.840,25.006,10.159
'[19:30:03.066 24/07/2074]',-0.781,23.053,1.172,7.424,5.861,23.053,10.940,-9.377,23.834,12.112,0.391,-29.304,-21.880,32.430,0.391,-3.126,54.310,6.252,-0.391,-37.509,-8.596,43.370,0.391
'[19:30:03.070 24/07/2074]',0.391,43.761,-24.615,11.722,3.126,26.569,10.549,-8.205,23.834,10.940,1.172,-10.940,-21.490,26.960,-0.391,20.317,58.608,1.954,25.397,-34.383,-22.271,23.443,-0.391
'[19:30:03.074 24/07/2074]',-3.907,32.039,-9.768,25.006,7.814,21.490,12.112,0.781,20.708,12.503,1.563,7.424,-19.145,59.389,-22.271,27.741,59.389,5.470,10.549,-10.159,-17.582,43.370,-22.271
'[19:30:03.078 24/07/2074]',-2.735,49.621,-30.867,24.615,14.066,17.973,9.377,-1.563,23.443,6.642,4.689,-13.675,-24.615,17.192,21.490,6.642,51.184,8.987,31.648,-47.668,-27.350,18.364,21.490
'[19:30:03.082 24/07/2074]',-3.516,10.940,10.940,25.006,19.145,18.755,8.205,-3.516,28.132,0.000,7.814,-17.582,-27.350,-2.344,40.635,8.596,43.370,10.159,-10.159,-29.304,-6.252,-5.470,40.635
'[19:30:03.086 24/07/2074]',-7.033,-20.317,47.277,26.569,28.913,14.066,6.642,-4.689,23.053,-1.172,11.331,-9.768,-23.443,-25.788,63.687,8.596,39.853,12.894,-46.496,1.172,17.973,-38.291,63.687
'[19:30:03.090 24/07/2074]',-5.079,-23.053,41.026,26.178,28.913,13.284,-0.781,-3.907,14.457,-9.768,12.894,-9.768,-28.913,-57.436,82.051,12.894,30.085,18.755,-40.244,-3.907,7.424,-53.529,82.051
'[19:30:03.094 24/07/2074]',-3.516,-30.085,38.681,32.821,30.085,10.549,-1.563,-1.954,22.271,-21.880,14.457,0.391,-25.397,-65.250,87.521,19.145,21.490,21.490,-37.900,-2.735,9.768,-54.701,87.521
'[19:30:03.098 24/07/2074]',-3.516,-19.536,23.834,39.072,28.913,9.768,0.391,0.391,11.722,-5.470,16.410,13.284,-24.225,-25.397,64.078,23.443,17.582,24.225,-23.053,6.252,-7.033,-20.317,64.078
'[19:30:03.102 24/07/2074]',-1.172,-9.768,1.954,45.324,25.006,9.377,-4.298,5.861,15.629,-9.377,14.457,26.569,-23.443,-1.954,42.589,32.039,10.549,27.741,-1.172,-1.954,-21.099,4.298,42.589
'[19:30:03.105 24/07/2074]',1.172,1.563,-11.331,44.933,24.225,12.503,-8.596,7.814,30.867,-15.238,14.847,32.039,-23.834,20.317,28.913,37.900,1.954,32.039,12.112,-25.397,-24.615,26.569,28.913
'[19:30:03.109 24/07/2074]',5.079,10.549,-29.304,41.807,28.913,11.331,-13.675,2.344,23.443,-12.894,12.503,30.085,-20.317,37.509,2.735,34.383,-2.344,31.258,30.085,-22.271,-12.503,28.132,2.735
'[19:30:03.113 24/07/2074]',2.344,6.642,-28.132,34.774,26.960,12.503,-23.443,-0.781,16.801,-22.662,8.205,29.304,-17.582,16.410,-1.954,35.556,-1.563,30.867,28.913,-5.470,-1.172,1.563,-1.954
'[19:30:03.117 24/07/2074]',-0.391,-12.894,-12.894,45.324,25.788,12.503,-25.788,5.079,11.722,-26.178,7.814,26.178,-11.722,-14.457,16.020,31.258,0.000,32.821,13.675,9.768,16.801,-28.132,16.020
'[19:30:03.121 24/07/2074]',-3.907,-20.317,-2.344,48.840,25.788,11.722,-19.145,2.735,6.642,-19.145,9.377,23.834,-7.424,-14.066,12.112,31.648,-0.391,27.741,3.126,1.954,26.960,-8.596,12.112
'[19:30:03.125 24/07/2074]',-6.252,-15.238,-1.954,48.449,20.317,11.331,-12.894,4.298,5.861,-11.722,7.814,23.834,3.126,0.000,0.391,23.443,3.126,25.397,2.735,10.940,33.211,-0.391,0.391
'[19:30:03.129 24/07/2074]',-12.503,-7.814,-12.503,52.747,11.722,8.596,-11.722,10.159,5.079,-10.159,1.563,23.443,0.000,-13.675,16.020,18.364,0.000,26.569,13.284,2.735,19.927,-1.954,16.020
'[19:30:03.133 24/07/2074]',-10.549,7.424,-36.337,39.853,7.033,5.861,-11.331,-1.172,2.735,-9.768,-1.563,4.689,0.781,-18.364,2.735,10.549,-5.861,25.006,37.118,-43.761,40.244,6.252,2.735
'[19:30:03.137 24/07/2074]',-10.159,30.085,-69.548,32.430,0.000,4.298,-13.675,-6.642,-1.954,-7.814,-9.377,-1.172,6.642,-31.258,-8.987,12.112,-5.079,17.582,70.330,-26.960,34.774,-29.695,-8.987
'[19:30:03.141 24/07/2074]',-16.801,23.443,-50.403,28.913,1.172,1.563,-14.457,-2.735,-1.954,-7.424,-11.722,5.470,3.126,-37.118,-5.470,22.271,-3.126,16.410,51.184,1.172,7.424,-25.006,-5.470
'[19:30:03.145 24/07/2074]',-25.397,25.788,-48.840,28.913,0.000,-2.735,-14.457,-1.563,1.172,-11.331,-14.847,9.768,12.503,-17.973,-44.933,34.774,-9.768,15.238,49.621,-17.192,26.569,9.377,-44.933
'[19:30:03.148 24/07/2074]',-22.271,10.940,-39.463,35.556,-1.172,-7.424,-10.549,3.907,-1.563,0.000,-12.894,21.880,8.596,2.344,-35.556,31.258,-10.940,9.768,40.244,-1.172,22.662,21.099,-35.556
'[19:30:03.152 24/07/2074]',-25.788,-11.722,-14.847,39.072,-3.907,-9.768,-7.814,8.596,-0.391,0.000,-13.675,19.927,22.271,-8.205,-18.755,9.768,-10.940,8.205,15.629,36.728,28.523,9.768,-18.755
'[19:30:03.156 24/07/2074]',-19.927,-28.523,-19.145,41.416,-16.410,-8.596,-11.331,9.768,-12.503,1.563,-14.847,-17.973,14.847,-51.575,29.695,-36.728,-16.410,12.503,19.927,14.066,42.589,-16.801,29.695
'[19:30:03.160 24/07/2074]',-29.304,-35.946,-21.099,39.853,-40.244,-9.768,-8.987,12.503,-35.946,5.470,-15.238,-31.258,5.470,-64.860,32.821,-50.794,-23.053,12.112,21.880,20.708,40.635,-25.788,32.821
'[19:30:03.164 24/07/2074]',-32.039,-44.151,-14.066,32.821,-55.092,-13.284,-5.470,16.410,-49.231,1.954,-16.801,-32.039,4.298,-51.966,2.344,-51.184,-26.569,9.377,14.847,43.370,53.138,-28.132,2.344
'[19:30:03.168 24/07/2074]',-48.449,-24.615,-16.801,25.788,-69.939,-15.629,-2.735,24.615,-60.171,0.781,-16.410,-25.006,0.391,-37.118,-25.788,-38.291,-31.258,14.066,17.582,42.979,45.714,-14.066,-25.788
'[19:30:03.172 24/07/2074]',-37.118,-26.960,-24.615,20.317,-69.158,-24.615,-3.907,29.695,-65.641,-4.298,-14.066,-10.159,-3.516,-5.079,-69.158,-16.801,-42.979,9.377,25.397,19.145,47.668,21.880,-69.158
'[19:30:03.176 24/07/2074]',-6.252,-21.490,-22.662,8.596,-39.853,-26.960,-0.781,25.788,-34.774,-8.987,-9.768,-3.516,6.642,-5.079,-50.012,-9.377,-40.635,2.735,23.443,10.549,44.933,4.689,-50.012
'[19:30:03.180 24/07/2074]',7.424,5.079,-37.118,4.689,-24.225,-24.615,0.391,31.258,-21.099,-9.377,-3.907,0.391,7.424,-43.761,12.503,-10.940,-36.728,4.689,37.900,12.503,-9.768,-27.741,12.503
'[19:30:03.184 24/07/2074]',12.503,33.993,-53.919,3.907,-17.973,-16.801,-2.344,35.946,-16.410,-9.768,1.954,5.470,7.814,-52.357,28.913,-3.516,-34.383,6.642,54.701,-10.159,-25.788,-36.337,28.913
'[19:30:03.188 24/07/2074]',16.801,26.960,-43.370,1.172,-16.410,-14.066,-1.954,35.946,-18.364,-8.596,7.033,7.033,14.066,-50.403,28.913,-5.079,-30.476,-0.391,44.151,1.172,-22.662,-42.589,28.913
'[19:30:03.191 24/07/2074]',7.033,25.397,-34.383,0.781,-25.006,-10.549,-1.172,37.900,-30.085,-2.344,9.768,14.066,8.987,-45.714,33.993,-5.470,-23.053,-3.516,35.165,31.258,-21.880,-62.125,33.993
'[19:30:03.195 24/07/2074]',10.940,8.987,-21.880,1.563,-19.145,-5.470,-12.894,39.072,-32.430,-4.689,9.768,16.020,17.192,-19.145,-7.424,-1.172,-23.053,-4.689,22.662,12.894,6.252,-23.834,-7.424
'[19:30:03.199 24/07/2074]',19.536,-16.020,-2.344,0.000,-12.503,-7.424,-14.066,36.728,-33.602,-3.907,12.894,11.331,12.112,-9.768,-18.364,3.516,-25.006,-8.987,3.126,0.391,30.476,-10.940,-18.364
'[19:30:03.203 24/07/2074]',17.973,2.735,-21.490,1.563,-15.629,-10.940,-6.642,36.337,-34.774,-1.172,17.192,9.377,5.861,-37.509,19.536,2.344,-19.927,-10.940,22.271,17.973,0.000,-51.966,19.536
'[19:30:03.207 24/07/2074]',12.112,-7.033,1.172,5.079,-12.503,-9.768,-4.689,41.026,-35.165,-1.563,21.490,21.880,0.391,-26.178,9.768,23.053,-17.192,-4.689,-0.391,55.482,-15.629,-49.621,9.768
'[19:30:03.211 24/07/2074]',-1.172,7.424,-5.470,9.377,-13.675,-10.940,-5.470,42.979,-41.807,-3.516,23.053,25.397,-4.298,-18.755,-2.344,29.304,-21.099,-2.735,6.252,22.662,6.252,-34.383,-2.344
'[19:30:03.215 24/07/2074]',12.503,23.834,-55.092,14.847,-19.536,-23.053,1.563,39.463,-40.244,-2.735,25.788,16.801,1.172,-16.020,19.927,-6.252,-23.834,-5.861,55.873,8.205,-6.642,-35.165,19.927
'[19:30:03.219 24/07/2074]',14.457,-2.735,-31.648,3.516,-10.159,-25.788,-9.768,30.867,-42.198,-10.159,27.741,26.178,5.861,-1.563,-3.516,1.172,-28.523,-4.689,32.430,10.159,40.244,-39.853,-3.516
'[19:30:03.223 24/07/2074]',9.768,-3.516,-51.184,10.940,-13.675,-33.993,-16.410,30.867,-43.370,-15.629,23.443,1.954,15.629,-29.304,-0.391,-19.927,-41.416,-3.907,51.966,-30.476,58.999,-30.085,-0.391
'[19:30:03.227 24/07/2074]',-5.470,-1.563,-39.072,7.424,-26.178,-34.383,-7.033,29.304,-40.244,-14.066,23.053,-5.079,13.675,-29.304,17.192,-38.681,-47.668,-0.781,39.853,-14.847,26.569,-10.159,17.192
'[19:30:03.230 24/07/2074]',-28.913,-22.271,16.410,-6.252,-28.913,-20.317,-15.238,23.834,-43.761,-12.894,20.317,-1.954,3.516,-18.755,10.159,-33.993,-42.979,0.000,-15.629,66.813,8.987,-29.304,10.159
'[19:30:03.234 24/07/2074]',-43.761,-30.085,22.662,2.735,-42.589,-17.973,-17.582,32.430,-45.324,-17.973,12.112,1.172,7.424,-54.701,15.238,-17.582,-43.370,1.172,-21.880,83.223,-5.470,-42.979,15.238
'[19:30:03.238 24/07/2074]',-33.993,-17.582,0.391,7.424,-42.589,-15.629,-12.112,28.523,-35.946,-12.503,7.814,-0.781,-4.298,-55.482,45.324,-26.178,-39.853,-0.391,0.391,60.952,-23.443,-40.244,45.324
'[19:30:03.242 24/07/2074]',-33.602,-23.053,0.000,6.252,-37.118,-17.192,-12.503,18.364,-31.648,-12.112,5.470,-2.735,3.516,-52.357,25.397,-17.973,-34.774,-5.470,0.781,79.707,-16.020,-49.621,25.397
'[19:30:03.246 24/07/2074]',-9.377,-19.536,-21.099,6.252,-31.648,-13.675,-14.066,17.192,-27.350,-12.503,8.205,2.344,8.596,-62.515,25.397,-1.172,-31.648,1.954,21.880,6.252,7.424,-41.026,25.397
'[19:30:03.250 24/07/2074]',-17.973,-2.735,-25.006,16.410,-33.602,-18.755,5.470,17.582,-20.708,-6.642,10.940,-1.954,18.755,-50.012,16.801,-5.470,-36.337,11.722,25.788,-4.689,1.172,-8.596,16.801
'[19:30:03.254 24/07/2074]',-12.894,17.192,-56.264,17.973,-35.556,-24.615,11.331,15.238,-30.867,-8.205,20.708,-1.563,21.099,-7.814,-33.602,-1.563,-39.072,16.020,57.045,-21.880,22.662,1.172,-33.602
'[19:30:03.258 24/07/2074]',-31.258,16.020,-33.211,14.457,-44.933,-23.443,14.847,19.145,-41.807,-5.861,19.536,1.563,19.536,-17.582,-25.397,-3.907,-42.198,25.006,33.993,-1.563,21.880,-7.814,-25.397
'[19:30:03.262 24/07/2074]',-29.695,49.231,-87.912,28.913,-47.277,-38.681,21.099,26.178,-29.695,0.391,6.642,1.172,12.894,-38.681,13.284,-9.377,-50.794,30.867,88.694,-73.455,25.397,-7.814,13.284
'[19:30:03.266 24/07/2074]',-55.092,-0.781,-24.225,35.165,-51.966,-44.151,28.132,23.053,-34.774,0.000,9.768,1.563,23.443,-16.410,-17.192,-12.503,-53.529,32.430,25.006,17.192,36.728,4.298,-17.192
'[19:30:03.270 24/07/2074]',-47.668,-17.582,-6.252,28.913,-47.277,-39.072,18.364,26.569,-36.337,-1.172,10.159,8.987,31.648,-11.331,-36.337,-1.172,-51.184,30.085,7.033,25.397,36.728,19.145,-36.337
'[19:30:03.273 24/07/2074]',-44.542,-83.223,56.654,26.569,-50.794,-40.635,21.490,25.397,-27.350,6.252,8.596,7.424,28.913,-53.919,20.317,0.781,-48.449,34.383,-55.873,95.336,36.728,-40.244,20.317
'[19:30:03.277 24/07/2074]',-44.542,-88.694,56.264,22.271,-47.668,-44.151,19.145,18.364,-26.960,4.298,7.814,0.391,50.794,-50.403,-15.629,1.172,-51.966,32.430,-55.482,105.104,36.728,-16.801,-15.629
'[19:30:03.281 24/07/2074]',-25.397,-54.310,-5.470,7.033,-49.231,-45.714,5.470,11.331,-41.026,-4.689,12.894,0.391,49.621,-77.363,-12.503,7.814,-53.138,27.350,6.252,53.138,21.490,-39.853,-12.503
'[19:30:03.285 24/07/2074]',-26.960,-58.217,-33.602,20.317,-56.264,-65.250,7.814,15.629,-32.039,-2.344,-1.172,-7.424,24.615,-98.462,32.821,-3.516,-53.529,23.443,34.383,35.556,0.781,-50.012,32.821
'[19:30:03.289 24/07/2074]',-44.542,-64.860,-14.066,15.629,-53.138,-68.767,8.596,5.079,-22.271,-7.424,-11.722,-22.271,33.602,-65.250,-19.145,-14.457,-58.217,18.755,14.847,48.840,2.735,12.503,-19.145
'[19:30:03.293 24/07/2074]',-48.449,-22.271,-72.674,22.271,-54.310,-75.800,2.344,6.252,-25.006,-21.490,-12.894,-19.536,29.695,-37.118,-69.548,-3.907,-60.952,5.861,73.455,-3.126,0.391,53.529,-69.548
'[19:30:03.297 24/07/2074]',-53.529,-9.768,-84.786,28.132,-52.747,-80.098,3.516,8.596,-23.053,-14.847,-25.006,-30.476,10.940,-49.621,-44.542,-12.112,-51.966,-3.126,85.568,-1.954,13.284,9.377,-44.542
'[19:30:03.301 24/07/2074]',-51.966,-81.270,12.503,1.563,-44.151,-64.469,-0.781,-8.596,-20.317,-0.781,-32.821,-46.886,11.722,-41.807,-42.198,-29.304,-43.370,-6.642,-11.722,61.343,44.151,-3.516,-42.198
'[19:30:03.305 24/07/2074]',-28.913,-26.569,-64.860,-12.112,-39.463,-64.860,-8.987,-18.755,-26.960,-8.987,-26.178,-50.403,30.867,-69.158,-36.728,-39.072,-41.416,-16.801,65.641,-19.536,33.211,-3.907,-36.728
'[19:30:03.309 24/07/2074]',-45.714,-71.111,30.867,-39.072,-31.648,-44.542,-14.457,-32.821,-21.880,-3.907,-23.053,-54.310,39.463,-67.985,-30.476,-45.324,-28.913,-22.662,-30.085,47.277,50.794,-21.880,-30.476
'[19:30:03.313 24/07/2074]',-41.807,-126.984,56.654,-19.145,-31.648,-58.217,-19.927,-19.927,-20.708,-16.410,-34.383,-33.211,28.132,-31.258,-79.707,-22.662,-30.476,-28.913,-55.873,90.256,25.006,35.556,-79.707
'[19:30:03.316 24/07/2074]',-47.277,-68.376,17.192,-35.946,-12.503,-47.668,-32.039,-39.463,-5.861,-14.066,-39.463,-41.807,29.304,-53.919,-57.436,-20.317,-28.132,-34.774,-16.410,12.894,14.457,47.277,-57.436
'[19:30:03.320 24/07/2074]',-57.827,-34.774,5.079,-25.788,-0.781,-44.933,-32.430,-33.993,-8.987,-12.894,-35.556,-28.132,14.457,-35.165,-65.250,-1.563,-18.755,-44.542,-4.298,14.457,6.252,41.416,-65.250
'[19:30:03.324 24/07/2074]',-45.324,-51.575,-5.470,-12.112,-0.391,-55.482,-38.291,-20.317,-14.066,-17.973,-39.072,-20.708,-3.126,-64.469,-31.258,5.079,-15.629,-51.184,6.252,14.066,-0.781,3.907,-31.258
'[19:30:03.328 24/07/2074]',-35.165,-1.563,-40.635,-30.085,5.079,-49.621,-33.993,-29.695,-8.596,-11.722,-33.211,-39.853,7.033,-106.276,21.099,-18.364,-10.159,-48.840,41.416,-49.621,-3.516,-21.880,21.099
'[19:30:03.332 24/07/2074]',-51.575,-9.768,2.344,-34.383,3.516,-41.807,-24.615,-29.304,-10.940,-16.410,-15.629,-39.853,22.271,-109.792,27.350,-25.397,-5.079,-49.621,-1.563,-11.722,1.563,-26.569,27.350
'[19:30:03.336 24/07/2074]',-26.178,-82.442,38.681,-15.238,1.172,-48.449,-30.867,-6.642,-12.894,-24.225,-17.973,-16.410,21.490,-63.687,-26.569,-4.689,-3.516,-51.575,-37.900,35.946,18.364,-0.781,-26.569
'[19:30:03.340 24/07/2074]',-29.695,-5.470,-13.675,-30.867,8.596,-39.853,-30.476,-17.582,-3.516,-17.582,-20.317,-21.490,8.205,-35.556,-29.304,-8.987,0.781,-44.542,14.457,-33.993,13.675,15.238,-29.304
'[19:30:03.344 24/07/2074]',-27.741,5.470,-30.867,-25.006,9.377,-44.151,-25.006,-18.364,-1.172,-24.225,-16.410,-14.066,30.476,-52.357,-25.006,-10.159,0.000,-42.589,31.648,-53.138,21.099,27.741,-25.006
'[19:30:03.348 24/07/2074]',-27.350,69.158,-100.024,-12.503,6.252,-45.714,-21.490,-9.377,-8.596,-28.913,-8.205,-0.391,18.364,-35.946,-28.132,-1.954,2.735,-38.681,100.806,-82.442,34.383,-12.503,-28.132
'[19:30:03.352 24/07/2074]',-28.132,66.813,-94.554,-11.722,3.126,-47.277,-10.159,-12.894,0.391,-24.225,-6.642,-15.238,45.714,-66.422,-7.033,-18.755,2.735,-33.211,95.336,-58.999,17.582,-17.973,-7.033
'[19:30:03.355 24/07/2074]',0.000,98.462,-163.321,-1.172,0.391,-55.482,0.000,-9.768,-17.582,-25.006,8.205,-14.457,47.668,-80.488,16.020,-33.993,-2.344,-25.006,164.103,-117.998,5.470,-12.112,16.020
'[19:30:03.359 24/07/2074]',-26.569,-45.324,37.509,-15.629,3.907,-26.569,-15.238,-11.722,-36.337,-15.629,16.020,8.987,54.310,-60.952,-27.350,6.252,-4.298,-21.880,-36.728,51.575,25.397,-1.172,-27.350
'[19:30:03.363 24/07/2074]',-18.364,-115.653,85.958,-0.391,-8.987,-28.913,-14.066,4.689,-27.741,-5.861,-3.126,23.443,40.635,-27.350,-51.184,22.662,-7.814,-20.708,-85.177,93.773,-10.549,66.813,-51.184
'[19:30:03.367 24/07/2074]',-4.689,-46.105,26.569,-23.443,-1.563,-21.880,-8.987,-14.847,-26.569,6.642,0.391,11.722,28.523,18.364,-61.734,5.470,-3.516,-10.549,-25.788,12.503,-5.861,94.945,-61.734
'[19:30:03.371 24/07/2074]',-12.503,-50.012,17.192,0.781,-7.424,-21.490,-18.364,4.298,-23.443,-13.675,0.391,49.621,44.151,16.801,-92.601,42.198,-4.689,-12.894,-16.410,19.927,20.708,80.488,-92.601
'[19:30:03.375 24/07/2074]',20.317,-15.238,-16.801,-19.927,5.470,-11.331,-0.391,-25.788,19.927,-1.563,-11.722,-12.112,35.556,3.126,-14.066,-31.258,2.735,-11.722,17.582,1.954,-1.954,49.231,-14.066
'[19:30:03.379 24/07/2074]',41.807,64.860,-124.640,-17.582,14.066,-17.973,-4.689,-26.178,17.582,-3.907,-12.503,-35.946,41.807,-46.105,32.821,-65.250,2.735,-10.159,125.421,-103.150,10.159,4.298,32.821
'[19:30:03.383 24/07/2074]',16.410,7.033,-40.244,-14.847,10.159,-10.549,-14.457,-15.238,-3.516,-29.304,3.907,-10.159,58.608,-86.740,17.192,-30.085,-4.689,-8.596,41.026,-17.582,12.503,-17.973,17.192
'[19:30:03.387 24/07/2074]',2.735,-27.350,7.033,-8.596,16.020,-6.252,-17.192,-19.145,14.066,-8.987,-5.470,-23.834,73.455,-114.090,54.310,-39.463,-4.298,-15.238,-6.252,46.496,-26.960,-11.331,54.310
'[19:30:03.391 24/07/2074]',23.443,-73.455,-11.331,18.755,-4.689,-25.397,-28.132,16.801,3.907,-11.722,-27.350,7.814,31.258,-115.263,51.184,2.735,-12.112,-19.927,12.112,36.728,-39.853,-22.271,51.184
'[19:30:03.395 24/07/2074]',7.033,-18.364,-16.801,-21.099,18.755,-13.284,-36.728,-16.020,11.722,7.033,-25.397,-8.205,37.509,-46.496,-3.126,-2.344,-5.079,-15.238,17.582,1.172,-33.993,31.258,-3.126
'[19:30:03.398 24/07/2074]',23.834,-12.503,-8.205,-60.171,23.834,1.954,-41.416,-41.807,4.298,-3.907,-1.172,-12.112,34.774,-26.178,-7.424,-15.238,2.344,-14.847,8.987,-10.940,21.880,-16.410,-7.424
'[19:30:03.402 24/07/2074]',-8.205,15.238,-44.542,-24.225,-5.470,-7.814,-26.569,-20.708,11.331,7.033,-27.741,-29.304,53.919,-62.125,-5.470,-24.615,1.172,-20.317,45.324,-4.298,-15.629,2.735,-5.470
'[19:30:03.406 24/07/2074]',-30.085,73.846,-82.442,-31.258,-3.516,-8.205,-25.397,-30.867,-0.391,11.722,-22.662,-30.085,62.515,-45.714,-47.277,-12.503,5.470,-15.238,83.223,-33.211,-30.476,31.648,-47.277
'[19:30:03.410 24/07/2074]',-46.496,56.654,-46.496,-29.304,-10.940,-2.735,-12.503,-37.900,-26.569,-22.662,20.317,-18.364,94.945,-37.509,-97.289,-8.205,4.298,-12.894,47.277,25.788,-18.755,54.701,-97.289
'[19:30:03.414 24/07/2074]',-28.913,30.085,-112.527,46.886,-22.662,-28.913,-23.834,12.503,11.331,-18.364,-44.542,-7.033,26.960,-64.860,-42.589,21.099,-4.298,-31.648,113.309,-16.410,-107.057,96.899,-42.589
'[19:30:03.418 24/07/2074]',32.039,-103.150,30.085,-17.973,26.569,-16.410,-39.072,-27.350,26.960,-10.940,-34.774,-34.383,13.675,-17.582,-44.933,-5.470,13.675,-25.006,-29.304,38.681,-84.005,123.858,-44.933
'[19:30:03.422 24/07/2074]',23.443,-25.788,5.470,-57.827,30.476,-0.391,-23.443,-59.389,17.582,-24.615,3.516,-53.138,3.907,-14.457,-14.847,-30.476,19.145,-17.582,-4.689,1.954,-41.416,50.794,-14.847
'[19:30:03.426 24/07/2074]',-9.768,-42.589,-6.252,7.424,0.391,-21.490,-25.006,-4.689,9.768,-35.946,-21.099,-15.629,30.085,-74.628,-23.443,3.516,6.642,-30.085,7.033,28.913,-77.363,78.926,-23.443
'[19:30:03.430 24/07/2074]',-7.424,16.801,-33.211,-24.225,10.549,-19.536,-6.252,-32.821,31.648,-3.907,-22.271,-40.244,18.364,-47.668,10.549,-17.192,14.847,-19.536,33.993,-22.271,-51.966,42.589,10.549
'[19:30:03.434 24/07/2074]',-19.145,117.998,-136.752,-17.192,-13.284,-17.973,8.596,-32.039,-3.516,-4.689,-8.596,-4.689,41.807,-80.879,-5.470,20.708,3.126,-16.410,137.534,-121.514,-16.410,17.582,-5.470
'[19:30:03.438 24/07/2074]',-47.277,91.429,-97.289,0.391,-27.350,-17.192,3.907,-11.331,-5.470,-6.642,-21.099,32.430,3.907,-39.853,-28.132,62.906,-3.126,-26.960,98.071,-73.065,-37.118,41.416,-28.132
'[19:30:03.441 24/07/2074]',-4.689,68.376,-116.044,-9.377,-12.112,-24.615,-10.940,-11.722,3.126,-9.768,-20.317,1.172,37.509,-86.349,-7.424,27.741,0.781,-31.258,116.825,-96.899,-30.867,12.503,-7.424
'[19:30:03.445 24/07/2074]',-8.596,-58.999,21.490,-19.145,-18.755,-22.662,-8.596,-12.503,-2.735,-9.377,-19.927,6.252,1.954,-63.297,30.476,3.907,0.391,-31.258,-20.708,4.689,-27.741,30.867,30.476
'[19:30:03.449 24/07/2074]',-73.846,-136.752,151.600,-12.503,-37.900,-14.066,-5.079,-12.894,-13.675,-28.132,-4.298,-33.211,8.596,-53.529,10.549,-46.886,2.344,-31.648,-150.818,178.950,-57.827,58.999,10.549
'[19:30:03.453 24/07/2074]',-42.589,-60.171,57.436,-19.145,-19.927,-14.847,-10.159,-17.192,0.781,-37.509,7.814,-62.906,33.602,-86.349,17.582,-57.827,7.424,-32.430,-56.654,63.297,-2.735,-1.172,17.582
'[19:30:03.457 24/07/2074]',-13.675,-42.979,-1.563,-2.344,-20.317,-29.304,7.033,-16.410,11.331,-3.516,-9.768,-67.595,-1.172,-57.045,57.045,-68.376,10.159,-28.913,2.344,4.689,-13.284,11.722,57.045
'[19:30:03.461 24/07/2074]',-26.178,51.966,-64.860,-19.536,-14.847,-26.960,12.112,-29.304,-35.165,-3.907,26.178,-43.761,58.999,-39.853,-24.615,-51.184,10.549,-19.145,65.641,-39.463,0.000,44.542,-24.615
'[19:30:03.465 24/07/2074]',-1.563,45.714,-98.462,11.331,-5.079,-40.635,4.689,0.391,2.735,-18.755,-6.252,-7.814,6.642,-32.430,-21.490,15.238,3.126,-28.132,99.243,-58.999,-1.954,-0.391,-21.490
'[19:30:03.469 24/07/2074]',-6.642,17.973,-31.648,-24.225,12.894,-24.225,-3.516,-29.695,2.735,-8.205,-5.470,-21.099,43.370,-52.747,7.033,-30.085,7.424,-24.225,32.430,-50.012,-2.735,53.529,7.033
'[19:30:03.473 24/07/2074]',-25.006,-28.913,-48.840,46.105,-17.192,-55.482,-8.596,24.225,-30.476,-36.728,-12.503,32.039,25.788,-49.231,-53.919,28.132,-7.424,-23.834,49.621,15.238,-7.814,39.853,-53.919
'[19:30:03.477 24/07/2074]',-72.283,21.880,-10.940,17.192,2.344,-36.728,-0.781,-7.814,28.913,-39.463,-16.410,-17.582,-30.867,35.556,-42.979,-7.033,-7.033,-23.834,11.722,6.252,-41.026,109.792,-42.979
'[19:30:03.480 24/07/2074]',-38.291,-3.126,-11.331,0.781,-0.781,-39.853,9.768,-20.708,11.722,-28.523,5.470,-33.993,-13.675,51.184,-62.515,-19.536,-3.907,-16.801,12.112,21.490,-46.496,111.355,-62.515
'[19:30:03.484 24/07/2074]',-17.973,67.985,-136.752,42.589,-0.391,-68.376,16.801,8.205,8.596,-34.774,16.020,-9.377,13.284,36.337,-68.767,-1.563,-10.549,-8.596,137.534,-48.449,-59.780,96.899,-68.767
'[19:30:03.488 24/07/2074]',-49.231,67.204,-54.701,7.814,9.768,-44.933,23.053,-16.410,20.708,-33.211,23.834,-28.913,-30.085,74.237,-43.370,-18.364,-11.722,-5.079,55.482,-19.927,-64.860,119.560,-43.370
'[19:30:03.492 24/07/2074]',15.629,-39.072,13.675,-12.894,29.304,-31.258,2.735,-22.271,22.271,-12.503,6.252,-27.350,20.708,-51.184,33.993,-14.457,-9.377,-5.470,-12.894,-0.781,-37.900,41.416,33.993
'[19:30:03.496 24/07/2074]',7.033,-35.946,0.000,0.391,24.225,-33.993,-12.503,-5.079,1.954,-28.913,5.861,-3.126,47.277,-88.303,12.112,3.126,-12.503,-0.391,0.781,-19.536,-12.112,32.430,12.112
'[19:30:03.500 24/07/2074]',-48.059,65.641,-94.164,41.416,1.172,-53.919,-4.689,23.443,-7.814,-14.066,-14.847,14.847,14.847,-61.734,12.894,10.549,-20.317,-2.344,94.945,-73.065,-27.350,47.668,12.894
'[19:30:03.504 24/07/2074]',6.642,-98.071,80.488,-25.006,28.132,-35.946,-3.126,-23.834,30.867,-7.424,-4.689,-14.847,0.391,-64.860,86.740,-18.755,-10.940,-2.735,-79.707,64.469,-48.840,8.596,86.740
'[19:30:03.508 24/07/2074]',-18.364,-41.416,36.728,-7.814,11.722,-33.993,-7.814,-0.391,12.894,-16.801,-2.735,0.781,-28.523,-35.165,62.125,-5.079,-11.722,-1.563,-35.946,48.449,-42.589,-8.205,62.125
'[19:30:03.512 24/07/2074]',-13.284,67.985,-84.005,0.000,16.020,-46.886,6.252,-5.861,32.430,-23.834,5.079,-13.284,-30.476,53.138,-3.907,-18.755,-15.629,5.079,84.786,-55.873,-55.092,73.455,-3.907
'[19:30:03.516 24/07/2074]',53.138,-62.125,5.079,-21.880,33.993,-32.430,-3.907,-22.662,27.741,-7.033,9.377,-17.973,4.689,35.165,-12.112,-15.238,-16.801,5.079,-4.298,-22.271,-26.960,86.740,-12.112
'[19:30:03.520 24/07/2074]',33.993,128.156,-166.056,-15.238,22.271,-31.648,-2.735,-6.642,20.708,-3.516,-3.907,-5.470,17.582,7.424,-14.066,-3.516,-15.629,7.033,166.838,-169.182,-33.993,62.515,-14.066
'[19:30:03.523 24/07/2074]',39.463,5.861,-39.853,-28.132,27.741,-33.211,0.391,-16.801,-12.112,6.252,7.814,0.781,120.733,1.954,-116.044,-2.735,-17.192,16.410,40.635,-51.184,-23.834,156.288,-116.044
'[19:30:03.527 24/07/2074]',36.728,-42.198,22.271,-25.397,18.364,-13.675,-7.033,-5.470,-6.642,-0.781,8.987,34.383,19.145,35.165,-60.171,40.635,-22.662,16.020,-21.490,-17.973,12.894,66.032,-60.171
'[19:30:03.531 24/07/2074]',-0.391,-0.781,39.463,-35.165,12.112,-5.079,-1.563,-2.344,21.490,-7.424,-4.298,13.284,-22.662,-1.563,44.542,2.344,-21.880,11.331,-38.681,-5.861,-26.569,19.536,44.542
'[19:30:03.535 24/07/2074]',-28.132,1.563,73.846,-47.277,12.503,6.642,-2.344,-17.582,-2.344,-11.331,26.569,-14.066,21.490,29.695,-23.443,-30.085,-18.364,16.020,-73.065,49.231,-7.033,51.966,-23.443
'[19:30:03.539 24/07/2074]',7.424,75.800,-73.846,-9.768,26.569,-6.252,-25.788,5.861,20.317,-23.053,14.457,10.159,-7.033,22.662,8.987,-2.735,-24.615,7.814,74.628,-121.123,-11.331,57.827,8.987
'[19:30:03.543 24/07/2074]',-14.066,49.621,-19.927,-6.642,16.801,-6.642,-14.066,12.112,36.337,9.377,-15.238,-1.563,25.006,-45.714,80.488,-31.648,-18.364,-2.344,20.708,-38.291,-63.687,36.728,80.488
'[19:30:03.547 24/07/2074]',-0.781,33.602,14.066,-44.542,23.053,4.298,-5.861,-19.145,18.364,24.615,-5.861,-25.006,60.171,-32.821,46.496,-61.343,-10.159,0.391,-13.284,-25.006,-35.165,60.171,46.496
'[19:30:03.551 24/07/2074]',7.814,-36.337,42.589,-8.205,3.516,-10.940,-5.861,19.536,-15.238,0.781,-7.033,26.960,49.621,3.516,-47.277,-0.781,-21.490,0.781,-41.807,22.271,-24.615,98.852,-47.277
'[19:30:03.555 24/07/2074]',-10.159,-57.827,69.548,16.020,-17.973,-21.099,14.847,41.807,18.364,-5.470,-34.774,36.337,-41.807,56.264,-19.145,18.364,-33.211,-7.033,-68.767,92.210,-64.469,72.674,-19.145
'[19:30:03.559 24/07/2074]',-34.383,105.495,-58.999,0.391,-40.244,-14.847,37.118,30.867,-1.172,-4.298,-23.834,27.741,-1.954,25.397,-28.523,2.344,-31.258,0.391,59.780,-34.774,-16.410,34.774,-28.523
'[19:30:03.563 24/07/2074]',7.033,33.993,-48.449,7.424,-21.880,-23.834,3.516,42.979,-36.337,-3.126,-20.708,60.562,11.722,39.463,-98.462,46.105,-37.118,3.907,49.231,-64.469,-1.954,93.382,-98.462
'[19:30:03.566 24/07/2074]',-18.364,41.416,-14.066,17.582,-28.913,-8.596,3.907,62.125,23.834,3.126,-46.496,55.482,-54.310,80.098,-17.582,28.523,-38.291,3.126,14.847,-60.171,-44.542,101.978,-17.582
'[19:30:03.570 24/07/2074]',-16.801,129.328,-69.548,-10.940,-21.880,4.298,16.410,31.648,18.364,25.788,-33.602,19.145,-37.509,41.026,42.979,-15.629,-21.880,8.205,70.330,-126.593,-32.821,51.184,42.979
'[19:30:03.574 24/07/2074]',-7.814,-1.172,77.363,-18.364,-7.424,19.927,9.377,27.350,0.391,14.847,-10.549,40.244,0.781,61.734,-23.443,5.861,-17.582,14.457,-76.581,8.987,-14.066,87.521,-23.443
'[19:30:03.578 24/07/2074]',-17.192,-46.496,123.858,14.847,-12.112,19.927,19.927,46.496,6.642,3.126,-10.159,65.250,-32.430,116.044,-49.621,30.476,-20.708,12.894,-123.077,91.819,-46.886,122.686,-49.621
'[19:30:03.582 24/07/2074]',-7.814,39.463,-23.834,57.436,-23.834,2.344,25.788,60.562,-12.112,-12.894,-7.424,82.051,23.053,-42.198,10.940,55.873,-26.569,1.172,24.615,6.642,-43.761,15.238,10.940
'[19:30:03.586 24/07/2074]',21.099,-5.470,14.066,26.569,-10.549,16.801,18.364,31.648,-3.126,-12.503,-1.172,70.330,62.125,-80.098,38.681,29.695,-20.708,-1.954,-13.284,19.145,-27.741,0.391,38.681
'[19:30:03.590 24/07/2074]',-0.391,33.993,-8.205,25.006,-15.629,14.847,11.722,39.853,15.629,-32.039,-9.377,52.357,-21.490,-32.039,59.389,18.755,-25.788,-9.377,8.987,-5.861,-66.032,1.563,59.389
'[19:30:03.594 24/07/2074]',11.331,96.508,-78.144,1.172,-21.099,7.814,16.020,28.913,30.085,-42.979,-6.642,17.192,14.847,-87.131,92.991,-24.615,-30.867,-15.629,78.926,-114.481,-45.714,-16.410,92.991
'[19:30:03.598 24/07/2074]',-0.391,121.514,-73.455,-14.847,-13.284,10.940,17.582,15.629,18.755,-31.258,-1.954,12.894,-38.681,-4.689,71.893,-30.085,-22.271,-16.801,74.237,-89.866,-30.085,-30.476,71.893
'[19:30:03.602 24/07/2074]',-3.516,11.722,72.283,-32.821,-2.735,25.788,-0.391,24.615,15.629,-46.105,11.722,57.045,-34.383,21.099,28.132,23.053,-17.973,-17.582,-71.502,29.304,-31.258,-16.801,28.132
'[19:30:03.605 24/07/2074]',26.178,-10.549,44.933,-16.020,4.298,13.675,-6.252,30.476,0.391,-15.238,5.079,44.542,3.516,-9.377,16.801,22.662,-20.708,-23.443,-44.151,1.954,-46.496,15.629,16.801
'[19:30:03.609 24/07/2074]',42.198,27.350,-30.085,-8.596,6.252,7.424,-6.252,22.662,-23.443,-28.913,22.662,36.728,39.072,-35.556,-4.298,8.205,-17.973,-26.569,30.867,-31.258,-14.847,-12.894,-4.298
'[19:30:03.613 24/07/2074]',-12.112,-20.317,86.740,-12.503,12.894,21.880,-26.960,31.258,8.596,-33.993,6.642,41.026,-10.940,-14.457,43.761,4.298,-18.364,-32.039,-85.958,67.985,-77.363,3.516,43.761
'[19:30:03.617 24/07/2074]',16.801,0.781,50.794,-35.556,32.039,16.801,-17.192,1.172,1.563,-23.834,17.582,3.516,1.954,-24.615,44.933,-22.271,-18.364,-25.397,-50.012,-1.563,-67.204,25.006,44.933
'[19:30:03.621 24/07/2074]',3.907,50.012,9.768,-28.523,26.178,12.894,-5.861,1.563,-21.880,-29.695,34.774,15.629,0.781,-19.927,40.244,-22.662,-22.662,-21.880,-8.987,-22.271,-35.556,-8.205,40.244
'[19:30:03.625 24/07/2074]',-8.205,71.111,-24.225,2.344,19.927,0.000,-5.861,26.960,-6.252,-43.761,20.317,53.138,-37.900,57.436,-14.066,17.192,-26.960,-19.927,25.006,-17.582,-67.985,40.635,-14.066
'[19:30:03.629 24/07/2074]',43.761,65.641,-32.039,-42.589,36.337,14.457,-2.735,-13.675,-2.344,-24.615,29.304,27.350,-7.033,64.078,-48.840,21.490,-29.695,-5.470,32.821,-95.726,-13.284,46.886,-48.840
'[19:30:03.633 24/07/2074]',30.867,75.018,-71.893,-10.159,17.973,-1.954,-1.172,9.377,-23.443,-32.430,16.410,39.463,23.053,-13.284,-33.993,23.834,-44.933,-2.344,72.674,-94.945,-35.946,35.946,-33.993
'[19:30:03.637 24/07/2074]',2.735,98.071,-64.469,-12.503,7.424,9.768,-3.126,7.814,-6.252,-41.026,12.894,28.913,20.317,0.000,-30.476,4.689,-45.714,1.563,65.250,-76.972,-39.853,33.602,-30.476
'[19:30:03.641 24/07/2074]',3.126,27.350,11.331,-14.847,3.907,11.331,1.954,8.596,-19.145,-26.178,17.582,26.178,18.755,-19.536,-2.344,1.954,-45.324,13.675,-10.549,8.987,-57.045,17.192,-2.344
'[19:30:03.645 24/07/2074]',7.424,-22.271,82.833,-31.258,1.954,30.476,-1.954,5.861,-40.244,-17.192,25.788,27.350,19.536,-72.674,46.105,2.344,-46.886,22.662,-82.051,40.244,-58.999,-9.768,46.105
'[19:30:03.648 24/07/2074]',-12.503,39.072,32.430,-16.801,-5.470,30.085,-0.781,18.755,-26.569,-26.178,25.006,38.291,-20.317,1.954,13.284,16.020,-42.979,20.317,-31.648,5.470,-46.496,-3.126,13.284
'[19:30:03.652 24/07/2074]',5.470,22.662,28.913,-15.238,-1.954,25.006,2.735,15.629,-22.271,-11.722,19.145,37.509,-15.629,20.708,-7.424,24.615,-35.165,19.536,-28.132,34.383,-44.542,-9.768,-7.424
'[19:30:03.656 24/07/2074]',32.821,-17.582,60.171,-30.476,-4.298,40.244,3.907,4.689,-3.516,-7.424,12.112,19.927,17.582,-8.596,10.549,1.954,-32.430,19.145,-59.389,11.722,-21.490,1.563,10.549
'[19:30:03.660 24/07/2074]',19.927,28.132,5.861,-13.675,-14.457,33.993,0.000,20.317,-7.033,-11.722,-3.126,19.927,-17.582,10.159,24.615,-18.755,-32.430,9.768,-5.079,-25.006,-35.946,10.940,24.615
'[19:30:03.664 24/07/2074]',7.033,33.211,15.629,-8.205,-15.629,31.648,10.159,19.536,3.126,-9.377,-0.391,20.708,-15.238,51.184,12.503,-33.993,-24.225,12.112,-14.847,-3.907,-20.317,29.695,12.503
'[19:30:03.668 24/07/2074]',48.840,64.078,-56.264,-11.722,-20.317,32.039,7.424,24.615,-22.271,-24.615,14.847,40.244,-1.172,9.768,17.192,-16.410,-22.662,16.020,57.045,-62.515,-29.695,6.252,17.192
'[19:30:03.672 24/07/2074]',12.112,86.349,-33.602,-14.847,2.735,37.509,-17.192,25.788,-16.410,-7.814,-6.252,59.780,-21.880,-5.861,40.244,16.020,-21.880,8.596,34.383,-80.488,-23.443,-3.126,40.244
'[19:30:03.676 24/07/2074]',14.847,55.873,-5.861,-13.284,7.033,35.556,-14.457,23.443,0.781,-7.814,-8.596,66.813,-8.596,28.132,-5.470,36.728,-15.629,1.954,6.642,-34.383,-11.722,9.377,-5.470
'[19:30:03.680 24/07/2074]',10.940,-5.861,39.853,1.563,0.391,33.211,-20.317,33.211,-14.847,-10.940,-17.192,89.475,-19.145,17.973,-18.755,65.641,-15.238,-2.344,-39.072,28.523,1.172,-10.549,-18.755
'[19:30:03.684 24/07/2074]',-5.079,-38.291,68.376,12.503,-8.205,31.258,-20.317,34.774,-9.768,0.391,-33.993,62.906,-28.913,-3.907,4.689,47.668,-16.410,-10.940,-67.595,66.422,-16.020,-16.801,4.689
'[19:30:03.688 24/07/2074]',-3.126,23.834,9.377,10.940,-5.861,30.476,-14.847,31.648,1.172,-9.377,-22.662,28.913,-46.886,24.615,20.317,0.391,-12.112,-19.927,-8.596,4.689,-8.205,-13.675,20.317
'[19:30:03.691 24/07/2074]',-7.424,17.973,6.252,21.490,-14.457,17.973,-10.159,44.933,-6.642,-19.145,-16.410,25.788,-43.370,-58.217,100.806,-15.629,-14.457,-21.099,-5.470,16.410,-30.085,-72.674,100.806
'[19:30:03.695 24/07/2074]',-25.788,-3.126,50.403,22.662,-17.192,16.410,-6.252,51.184,-3.516,-20.708,-17.973,31.258,-33.211,-51.966,86.349,-11.722,-17.192,-17.973,-49.621,57.045,-50.012,-37.509,86.349
'[19:30:03.699 24/07/2074]',-25.788,27.741,19.536,28.913,-13.675,11.722,-3.126,56.264,4.689,-27.741,-14.847,50.012,-33.602,-37.118,75.409,7.033,-21.490,-19.536,-18.755,9.768,-47.277,-8.987,75.409
'[19:30:03.703 24/07/2074]',-19.145,-1.172,21.880,45.324,-24.615,-7.424,6.252,73.065,-3.516,-32.039,-8.987,75.018,-24.615,-1.172,14.457,39.853,-25.006,-18.755,-21.099,44.933,-50.403,17.973,14.457
'[19:30:03.707 24/07/2074]',-52.747,-16.020,46.886,60.562,-40.635,-6.252,7.033,78.926,-19.927,-33.993,-13.284,87.131,-2.344,-6.642,-25.397,53.529,-24.615,-14.847,-46.105,99.634,-33.211,22.662,-25.397
'[19:30:03.711 24/07/2074]',-16.020,69.548,-75.018,50.012,-24.225,-12.503,9.377,55.873,-8.205,-35.556,-6.252,67.985,-33.993,38.291,-37.509,50.794,-22.662,-19.145,75.800,-51.575,-8.596,35.165,-37.509
'[19:30:03.715 24/07/2074]',-7.033,33.211,-41.026,44.542,-13.284,-12.894,1.954,53.919,-9.768,-29.304,-5.861,28.132,-20.708,-17.192,15.238,4.689,-17.582,-27.741,41.807,-41.416,-3.126,1.954,15.238
'[19:30:03.719 24/07/2074]',-16.801,-14.847,43.370,23.053,-4.689,1.172,3.516,33.602,-8.987,-20.317,-3.126,9.768,-13.284,-36.337,40.635,-13.675,-5.079,-24.615,-42.589,30.476,19.927,-38.291,40.635
'[19:30:03.723 24/07/2074]',-13.284,4.298,29.695,15.238,2.735,5.079,5.079,21.099,-0.781,-11.722,1.172,8.205,-34.774,-23.443,62.906,-7.814,-2.344,-24.225,-28.913,0.391,6.252,-36.728,62.906
'[19:30:03.727 24/07/2074]',-11.722,-3.907,43.370,12.112,3.516,3.907,5.470,25.788,-0.781,-12.894,4.689,16.410,-14.457,-21.099,36.337,6.642,-3.126,-24.615,-42.589,-0.391,12.112,-19.927,36.337
'[19:30:03.730 24/07/2074]',-13.675,13.284,19.536,19.145,-7.033,-6.252,17.973,32.821,-4.689,-15.238,7.814,34.383,2.735,-7.033,-8.205,34.774,0.000,-19.927,-18.755,18.364,-4.298,-10.159,-8.205
'[19:30:03.734 24/07/2074]',-18.755,23.834,17.582,12.503,-8.205,-12.503,23.053,33.602,-11.331,-20.317,13.675,38.681,-19.927,0.000,-11.331,53.138,-0.781,-11.722,-16.801,-4.298,-1.172,-13.675,-11.331
'[19:30:03.738 24/07/2074]',-7.424,13.284,34.383,2.735,9.377,-14.457,26.569,19.536,5.470,-15.238,10.549,9.768,-14.847,7.424,-16.020,34.383,-0.781,-13.675,-33.602,-10.159,-0.781,8.205,-16.020
'[19:30:03.742 24/07/2074]',-10.159,-3.907,54.310,0.781,3.126,-17.192,35.165,18.364,0.391,-16.410,10.159,0.391,5.470,-25.788,-1.563,15.629,0.391,-11.331,-53.529,25.006,-5.470,-8.205,-1.563
'[19:30:03.746 24/07/2074]',-34.774,-5.470,85.958,-10.549,11.331,-7.424,14.847,13.284,-1.954,-17.973,8.987,-3.516,-42.198,-38.291,68.376,-1.954,-3.126,-3.516,-85.177,21.099,-7.424,-41.807,68.376
'[19:30:03.750 24/07/2074]',-35.556,14.457,59.780,-3.907,14.847,-6.642,10.159,13.675,-3.907,-23.834,8.205,4.298,-50.794,-26.178,62.906,-0.781,-11.722,0.391,-58.999,-15.238,-5.861,-18.755,62.906
'[19:30:03.754 24/07/2074]',-38.291,14.457,51.966,1.172,5.079,-5.470,12.503,16.020,-9.377,-27.350,14.847,16.801,-29.304,-19.536,35.946,6.642,-15.629,3.907,-51.184,11.331,-17.973,-8.987,35.946
'[19:30:03.758 24/07/2074]',-35.946,7.424,45.324,10.549,0.391,-8.987,9.768,25.006,-20.708,-28.523,16.801,24.615,-48.059,-9.768,35.165,14.457,-17.582,10.549,-44.542,20.708,-33.211,-10.940,35.165
'[19:30:03.762 24/07/2074]',-29.304,18.364,35.556,1.172,2.344,-4.298,13.675,12.894,-13.284,-21.099,14.457,17.192,-29.304,-14.457,30.085,10.549,-18.364,17.973,-34.774,-6.252,-19.536,-3.907,30.085
'[19:30:03.766 24/07/2074]',-23.443,-5.861,57.827,-1.563,-0.781,1.172,19.145,4.689,-16.410,-8.596,7.424,26.569,-7.033,-19.927,13.675,22.271,-16.801,19.145,-57.045,22.662,-10.159,-5.861,13.675
'[19:30:03.770 24/07/2074]',-10.549,23.443,32.821,-12.112,-0.781,11.722,15.629,5.079,-18.755,-0.781,4.689,32.430,-9.377,-8.987,16.801,19.536,-10.159,23.053,-32.039,-3.126,-8.596,-16.801,16.801
'[19:30:03.773 24/07/2074]',-10.940,35.556,19.536,-12.112,-5.470,18.364,11.331,4.689,-23.443,5.470,-2.735,33.602,-16.801,-24.615,35.165,19.536,-10.940,30.476,-18.755,-27.350,-7.033,-30.867,35.165
'[19:30:03.777 24/07/2074]',-3.126,37.118,15.629,-13.675,-6.252,23.834,12.112,4.689,-30.085,15.238,-5.470,51.575,-14.457,-42.979,52.357,36.337,-13.675,33.211,-14.847,-32.039,-14.457,-39.853,52.357
'[19:30:03.781 24/07/2074]',-3.907,50.794,-0.391,-14.457,-12.112,24.225,11.722,5.861,-33.602,18.364,-4.298,15.238,-12.894,-33.211,37.118,4.689,-11.722,30.085,1.172,-28.132,-26.569,-30.476,37.118
'[19:30:03.785 24/07/2074]',-7.814,17.192,24.225,-5.861,-16.410,23.834,7.424,11.331,-34.774,22.662,-4.298,1.954,-19.536,-46.886,57.827,-5.079,-8.987,29.304,-23.443,1.172,-33.211,-42.198,57.827
'[19:30:03.789 24/07/2074]',-4.298,-10.159,44.933,-2.344,-13.284,23.053,7.424,8.205,-35.165,30.085,-6.642,-0.781,-11.331,-35.556,45.714,-11.331,-8.596,26.178,-44.151,15.238,-27.741,-14.066,45.714
'[19:30:03.793 24/07/2074]',-4.298,-1.172,36.728,-2.735,-16.410,24.615,10.940,6.252,-32.821,35.556,-4.689,-5.470,-9.768,-19.145,36.728,-14.847,-3.516,19.145,-35.946,12.112,-26.960,-8.205,36.728
'[19:30:03.797 24/07/2074]',-10.940,5.470,31.648,7.033,-23.443,23.834,17.192,14.457,-32.821,36.728,-2.735,5.861,-16.801,14.457,10.549,-1.563,3.516,21.099,-30.867,17.192,-22.662,3.126,10.549
'[19:30:03.801 24/07/2074]',-12.894,37.900,4.689,3.907,-25.788,19.927,22.662,14.847,-29.304,35.165,-3.516,13.675,-13.284,0.391,16.410,12.503,1.563,25.788,-3.907,-25.788,-23.443,6.252,16.410
'[19:30:03.805 24/07/2074]',-15.238,38.291,16.801,0.781,-22.662,19.145,29.695,12.503,-19.145,39.072,-3.126,12.894,-6.252,-6.252,16.801,25.397,1.954,23.053,-16.020,-19.927,-13.284,-3.126,16.801
'[19:30:03.809 24/07/2074]',-18.755,7.424,43.370,7.033,-21.880,12.894,30.476,15.238,-19.927,36.728,-5.079,7.033,-11.331,1.954,-6.642,34.774,1.954,21.099,-42.589,29.695,-10.940,-6.642,-6.642
'[19:30:03.813 24/07/2074]',-17.192,-8.205,37.118,15.629,-20.708,9.377,20.317,15.629,-20.708,34.383,-15.238,1.954,-7.814,-31.258,22.271,17.192,-5.470,21.490,-36.337,19.927,-2.344,-10.549,22.271
'[19:30:03.816 24/07/2074]',-16.801,-32.821,44.933,24.615,-20.708,3.126,19.536,14.847,-25.788,34.774,-20.708,-7.033,-17.582,-53.919,39.072,13.284,-12.112,18.364,-44.151,40.635,-1.954,-32.430,39.072
'[19:30:03.820 24/07/2074]',-16.801,-34.383,33.993,26.569,-21.490,-2.344,18.364,14.066,-28.523,26.960,-20.708,-3.126,-24.615,-25.006,26.960,-2.344,-14.457,9.768,-33.211,50.012,5.861,-26.960,26.960
'[19:30:03.824 24/07/2074]',-27.741,-31.648,34.774,19.536,-23.834,-10.549,12.503,14.457,-25.788,14.847,-22.271,7.424,-26.960,-17.973,32.821,-12.894,-19.145,7.424,-33.993,37.509,24.225,-28.913,32.821
'[19:30:03.828 24/07/2074]',-35.946,-39.463,53.138,2.735,-18.755,-17.582,9.768,7.033,-17.973,0.391,-24.225,15.238,-34.774,-3.907,6.642,5.079,-28.132,-0.781,-52.357,29.695,19.927,-1.954,6.642
'[19:30:03.832 24/07/2074]',-39.072,-39.853,57.045,-13.675,-11.722,-21.880,3.126,-4.689,-6.642,-16.801,-19.145,28.523,-32.821,29.695,-26.178,13.675,-30.867,-16.020,-56.264,26.960,27.741,28.523,-26.178
'[19:30:03.836 24/07/2074]',-41.807,-40.635,51.966,-22.271,-10.549,-28.132,-5.861,-8.205,-8.987,-30.476,-13.284,14.066,-36.728,-7.033,4.689,-0.391,-29.695,-24.225,-51.184,27.741,25.397,-7.033,4.689
'[19:30:03.840 24/07/2074]',-36.337,-54.701,51.575,-26.569,-13.284,-29.304,-14.457,-8.205,-15.238,-37.900,-8.596,-9.377,-40.635,-80.488,57.827,-8.987,-29.695,-27.741,-50.794,38.291,-8.596,-53.138,57.827
'[19:30:03.844 24/07/2074]',-33.993,-64.860,48.059,-22.271,-19.536,-28.132,-14.457,-10.940,-18.755,-36.337,-5.079,-10.549,-44.933,-89.084,86.740,-25.397,-25.006,-31.258,-47.277,45.324,-6.252,-64.860,86.740
'[19:30:03.848 24/07/2074]',-31.258,-62.125,33.211,-15.629,-28.913,-24.615,-16.020,-5.470,-22.271,-31.648,-1.954,-5.079,-37.118,-91.819,91.038,-23.834,-13.284,-32.821,-32.430,56.654,-8.987,-81.661,91.038
'[19:30:03.852 24/07/2074]',-32.821,-49.621,31.258,-14.847,-34.383,-16.801,-12.112,-1.954,-18.755,-28.523,3.126,-1.563,-32.039,-79.707,73.455,-7.814,-2.735,-28.913,-30.476,46.886,-8.987,-71.111,73.455
'[19:30:03.855 24/07/2074]',-31.648,-33.211,20.708,-11.331,-32.430,-10.159,-8.205,-3.126,-20.317,-25.006,9.377,16.020,-32.430,-21.490,17.582,16.801,1.954,-27.741,-19.927,22.271,-10.549,1.172,17.582
'[19:30:03.859 24/07/2074]',-30.476,-18.755,14.066,-6.252,-29.304,-5.079,-6.642,-0.391,-23.053,-22.662,17.973,6.642,-30.476,-5.079,0.000,14.457,9.377,-30.085,-13.284,4.689,7.424,8.205,0.000
'[19:30:03.863 24/07/2074]',-31.648,-19.145,24.615,-12.112,-26.569,-1.172,-9.768,0.000,-27.350,-25.006,25.788,-15.238,-34.774,-8.596,5.079,-4.298,12.894,-24.615,-23.834,1.954,26.178,-8.205,5.079
'[19:30:03.867 24/07/2074]',-28.913,-25.397,23.053,-6.642,-24.615,-0.781,-15.238,1.954,-37.118,-26.569,23.834,-14.066,-37.118,-4.298,0.391,-12.894,7.424,-22.271,-22.271,9.377,12.503,15.629,0.391
'[19:30:03.871 24/07/2074]',-27.741,-33.602,22.662,-7.033,-27.350,0.000,-17.192,-1.172,-35.165,-26.178,22.271,-12.894,-30.867,-44.542,43.370,-20.708,2.735,-27.350,-21.880,13.284,33.211,-35.556,43.370
'[19:30:03.875 24/07/2074]',-25.397,-3.126,-4.298,-15.238,-30.867,1.954,-19.927,0.000,-34.383,-24.615,17.973,-9.768,-29.304,-51.575,53.138,-22.662,0.391,-24.615,5.079,3.907,23.834,-61.734,53.138
'[19:30:03.879 24/07/2074]',-25.788,-1.172,-10.549,-12.894,-33.211,0.781,-20.317,1.172,-31.258,-22.662,12.112,3.907,-31.258,-33.993,35.946,-7.033,-7.814,-17.192,11.331,-8.596,0.391,-20.317,35.946
'[19:30:03.883 24/07/2074]',-23.053,-6.252,-2.344,-11.331,-30.867,1.563,-16.410,0.781,-30.476,-16.020,10.940,9.377,-29.304,-34.383,37.118,0.781,-15.238,-11.331,3.126,-10.549,-8.596,-10.549,37.118
'[19:30:03.887 24/07/2074]',-18.755,-8.205,6.252,-8.596,-23.834,5.079,-15.629,3.907,-30.867,-6.252,12.112,10.940,-22.271,-17.973,31.258,-4.689,-12.894,-5.079,-5.470,-1.563,2.344,-17.582,31.258
'[19:30:03.891 24/07/2074]',-12.503,-28.132,28.913,-5.470,-14.847,7.424,-19.145,8.596,-32.821,0.000,9.768,25.006,-18.364,12.894,4.689,2.344,-15.238,4.689,-28.132,16.801,-0.781,15.238,4.689
'[19:30:03.895 24/07/2074]',-11.722,-45.714,38.681,-1.954,-11.722,6.642,-22.271,5.079,-39.072,6.252,0.000,28.132,-14.847,-11.331,14.847,7.033,-19.536,7.814,-37.900,16.020,17.973,-2.735,14.847
'[19:30:03.898 24/07/2074]',-8.987,-40.244,39.463,-9.377,-8.205,12.503,-25.006,0.391,-38.291,16.020,-2.735,8.596,-9.768,-11.722,21.099,-14.847,-17.582,5.861,-38.681,22.271,24.615,-21.099,21.099
'[19:30:03.902 24/07/2074]',-4.689,-45.714,44.542,-13.675,-3.907,15.629,-28.132,-3.516,-37.900,18.364,-5.861,-3.516,-10.159,23.834,-12.503,-28.132,-15.629,7.033,-43.761,30.867,26.569,5.861,-12.503
'[19:30:03.906 24/07/2074]',-1.172,-42.979,37.118,-15.238,-3.516,18.364,-28.913,-8.205,-35.556,19.927,-8.987,-4.689,-14.066,36.337,-27.741,-21.880,-18.755,8.987,-36.337,18.364,15.629,26.960,-27.741
'[19:30:03.910 24/07/2074]',5.079,-19.536,13.284,-10.159,-1.954,23.053,-23.834,-8.987,-31.648,20.708,-7.424,2.344,-10.159,34.774,-29.695,-9.768,-18.755,7.814,-12.503,-0.781,8.596,26.569,-29.695
'[19:30:03.914 24/07/2074]',10.549,5.079,-5.079,-5.861,0.000,28.913,-18.364,-4.298,-28.523,23.443,-7.424,25.788,-11.722,0.391,13.284,11.722,-12.112,10.549,5.861,-17.973,0.000,-12.894,13.284
'[19:30:03.918 24/07/2074]',8.596,21.880,-19.536,-1.563,-4.298,33.211,-13.675,-4.298,-23.834,25.788,-12.503,51.184,-13.284,-48.059,51.966,49.621,-8.205,16.020,20.317,-42.979,6.642,-63.297,51.966
'[19:30:03.922 24/07/2074]',7.424,33.602,-25.006,5.861,-6.642,41.416,-7.033,-5.079,-22.271,31.258,-15.629,43.370,-10.549,-63.687,63.297,47.668,-6.252,15.629,25.788,-58.217,12.503,-68.767,63.297
'[19:30:03.926 24/07/2074]',11.331,3.516,28.913,-13.284,-2.344,55.092,-4.298,-16.410,-14.847,39.072,-15.238,-1.563,-6.642,-39.853,63.687,-9.768,4.298,12.894,-28.132,-15.238,12.112,-50.794,63.687
'[19:30:03.930 24/07/2074]',5.079,-30.867,66.813,-19.145,-5.861,62.906,-9.768,-25.006,-17.973,39.463,-21.099,-37.509,-11.722,-12.894,25.788,-38.291,8.596,13.675,-66.032,7.814,24.615,-16.801,25.788
'[19:30:03.934 24/07/2074]',3.126,-27.350,73.455,-16.020,-5.079,72.674,-6.642,-27.350,-19.927,45.714,-18.755,-56.264,-8.596,56.654,-41.807,-56.264,12.503,16.801,-72.674,-5.861,45.324,57.827,-41.807
'[19:30:03.938 24/07/2074]',7.424,-8.205,60.562,-16.020,-0.781,79.316,-3.907,-30.476,-19.927,50.012,-12.503,-60.171,-2.735,62.906,-42.198,-59.780,22.662,13.675,-59.780,-12.894,46.886,57.436,-42.198
'[19:30:03.941 24/07/2074]',3.516,-13.675,77.363,-15.238,-0.391,80.488,0.000,-28.132,-12.503,57.436,-12.894,-46.496,-1.563,12.503,19.536,-46.105,29.695,18.364,-76.581,0.000,48.449,-1.954,19.536
'[19:30:03.945 24/07/2074]',-3.516,1.954,64.078,0.391,-0.781,75.800,5.079,-17.973,0.391,64.078,-17.192,-23.834,3.126,16.801,24.615,-23.053,30.085,24.225,-63.297,-29.695,59.389,9.768,24.615
'[19:30:03.949 24/07/2074]',-1.172,-3.907,75.409,-0.781,6.252,67.985,11.331,-18.364,10.159,67.204,-16.801,-19.145,6.252,3.126,53.919,-23.053,27.741,21.880,-74.628,-23.834,52.357,2.735,53.919
'[19:30:03.953 24/07/2074]',-4.298,-32.039,94.164,-0.781,3.126,54.310,13.284,-16.410,14.457,61.734,-19.536,-19.927,3.516,-0.781,54.310,-21.490,25.006,17.973,-93.382,22.662,39.072,-9.768,54.310
'[19:30:03.957 24/07/2074]',-10.159,-39.072,76.190,14.066,-2.344,38.681,13.675,-10.159,11.331,54.701,-27.350,-21.490,0.000,-10.940,45.324,-16.801,18.755,18.364,-75.409,24.225,49.621,-20.708,45.324
'[19:30:03.961 24/07/2074]',-8.205,-30.085,60.171,10.940,-2.344,28.913,19.536,-14.066,6.252,51.575,-28.913,-33.602,-0.781,-14.066,33.993,-23.443,13.284,16.020,-59.389,13.675,44.933,-11.331,33.993
'[19:30:03.965 24/07/2074]',-8.596,-23.053,53.138,8.987,-3.516,21.490,25.397,-13.284,6.252,48.449,-29.304,-42.198,1.563,-30.867,39.463,-26.569,15.629,13.284,-52.357,26.960,35.556,-33.602,39.463
'[19:30:03.969 24/07/2074]',-13.284,-21.490,47.277,16.410,-7.424,12.503,30.085,-6.252,7.814,47.277,-33.211,-40.244,-0.391,-21.880,28.913,-24.615,18.755,14.847,-46.496,17.192,53.138,-31.258,28.913
'[19:30:03.973 24/07/2074]',-17.582,-12.112,39.072,18.755,-6.642,4.689,32.821,-3.516,7.033,43.370,-32.430,-41.416,-1.954,27.350,-21.099,-27.350,14.066,13.675,-38.291,-2.735,53.529,35.556,-21.099
'[19:30:03.977 24/07/2074]',-19.145,-10.549,31.648,17.192,-4.298,-3.907,30.085,-2.344,14.847,31.258,-28.523,-34.383,-1.954,57.436,-54.310,-17.582,8.596,6.642,-30.867,-5.079,49.621,69.939,-54.310
'[19:30:03.980 24/07/2074]',-22.662,-6.642,10.549,23.053,-10.549,-13.675,25.006,3.126,11.722,20.317,-25.397,-26.960,-5.861,22.662,-20.708,-15.238,8.987,2.344,-9.768,4.298,45.324,20.317,-20.708
'[19:30:03.984 24/07/2074]',-24.615,-10.159,5.079,24.225,-13.675,-21.880,22.271,7.424,5.861,10.549,-22.271,-24.615,-12.894,-5.470,8.596,-19.927,1.954,2.344,-4.298,1.954,40.244,-1.172,8.596
'[19:30:03.988 24/07/2074]',-16.410,0.391,0.000,18.755,-5.861,-24.615,23.053,8.987,16.801,2.735,-15.238,-23.834,-4.689,-49.621,50.012,-14.457,-2.344,-3.126,0.781,-8.596,33.993,-44.542,50.012
'[19:30:03.992 24/07/2074]',-14.066,-1.954,-2.344,20.317,-6.642,-28.132,22.271,12.894,15.238,-0.781,-12.894,-17.973,-2.735,-69.939,71.502,-16.801,-2.735,-5.861,3.126,2.344,32.430,-76.581,71.502
'[19:30:03.996 24/07/2074]',-17.973,-22.662,13.675,21.880,-7.814,-32.039,17.973,16.801,10.940,-6.252,-15.629,-11.331,-7.424,-37.118,37.509,-15.238,-10.549,-4.298,-12.894,1.563,44.151,-37.118,37.509
'[19:30:04.000 24/07/2074]',-10.549,-30.476,20.317,23.443,3.126,-31.258,16.020,15.238,16.410,-10.940,-9.377,-2.735,-7.033,-16.801,20.708,-4.689,-16.020,-5.079,-19.536,1.954,32.430,-4.689,20.708
'[19:30:04.004 24/07/2074]',-3.126,-31.258,13.284,27.741,10.159,-32.039,13.284,15.629,13.284,-12.894,-2.735,-1.563,-5.861,-9.377,17.582,-5.470,-14.847,-7.814,-12.503,25.006,19.927,-11.722,17.582
'[19:30:04.008 24/07/2074]',-2.344,-41.807,12.894,33.211,8.205,-36.728,12.503,17.582,1.954,-14.847,1.563,4.298,-10.159,7.033,1.563,-3.516,-16.020,-1.563,-12.112,33.993,31.648,-8.596,1.563
'[19:30:04.012 24/07/2074]',0.391,-38.681,10.549,37.509,8.596,-38.291,17.192,20.708,-1.172,-17.192,8.987,9.377,-12.503,-12.503,17.582,8.205,-23.834,6.642,-9.768,22.271,24.225,-16.410,17.582
'[19:30:04.016 24/07/2074]',7.814,-28.523,4.689,33.602,9.768,-36.337,23.053,20.317,-0.391,-15.238,14.847,3.516,-7.424,-9.377,14.847,5.861,-28.523,13.284,-3.907,18.364,20.317,-21.490,14.847
'[19:30:04.020 24/07/2074]',6.642,-35.556,6.252,38.681,-1.563,-37.900,28.132,26.960,-8.205,-15.238,19.927,10.159,-7.424,6.642,-3.516,10.940,-32.430,22.662,-5.470,24.615,21.880,-11.331,-3.516
'[19:30:04.023 24/07/2074]',7.033,-32.039,16.801,38.291,0.391,-32.430,30.085,32.821,-6.642,-14.457,23.834,29.304,-6.252,1.954,4.298,31.648,-38.291,34.774,-16.020,13.675,16.410,-6.642,4.298
'[19:30:04.027 24/07/2074]',12.894,-15.238,22.271,37.509,12.112,-22.662,32.821,35.165,-2.735,-9.377,27.350,43.370,0.000,39.463,-12.112,30.476,-35.946,38.291,-21.490,-3.126,23.053,32.430,-12.112
'[19:30:04.031 24/07/2074]',13.284,0.781,5.861,35.165,11.722,-19.536,32.039,31.648,-12.894,-8.205,31.258,44.933,4.298,53.529,-21.099,17.582,-32.039,37.900,-5.079,-6.252,34.383,31.258,-21.099
'[19:30:04.035 24/07/2074]',9.768,-10.159,21.099,34.383,7.424,-14.066,30.867,30.085,-20.708,-9.377,34.774,59.780,3.907,30.085,-6.642,36.728,-29.695,41.026,-20.317,-1.563,46.496,5.079,-6.642
'[19:30:04.039 24/07/2074]',14.066,-17.192,45.324,22.271,11.331,-2.344,31.258,23.443,-22.271,-6.642,38.291,46.496,2.735,50.794,-19.536,20.708,-28.913,41.416,-44.542,-8.205,50.012,34.383,-19.536
'[19:30:04.043 24/07/2074]',16.020,15.238,8.205,18.755,10.159,5.470,31.258,11.722,-21.490,0.781,39.072,9.768,5.079,6.642,27.741,-12.112,-25.006,38.681,-7.424,-35.556,44.151,-9.768,27.741
'[19:30:04.047 24/07/2074]',9.377,7.424,26.178,15.629,3.516,12.112,32.039,10.940,-19.145,7.033,37.509,11.722,2.344,2.344,38.291,-4.689,-19.927,42.589,-25.397,-32.821,45.714,-16.410,38.291
'[19:30:04.051 24/07/2074]',13.675,2.735,46.886,9.768,8.987,23.053,29.695,10.940,-6.642,14.066,36.337,12.894,4.689,29.695,21.880,-0.391,-14.457,47.277,-46.105,-26.960,26.178,20.708,21.880
'[19:30:04.055 24/07/2074]',12.894,25.397,30.867,3.516,10.159,32.039,26.960,3.126,-5.079,20.708,35.946,8.596,9.768,37.900,24.225,-11.722,-8.205,40.635,-30.085,-43.761,35.556,22.271,24.225
'[19:30:04.059 24/07/2074]',10.549,13.284,44.542,-2.344,5.861,37.509,20.708,1.563,-0.781,21.880,35.556,18.755,13.284,52.747,5.079,4.689,-1.563,38.681,-43.761,-16.410,28.913,21.880,5.079
'[19:30:04.063 24/07/2074]',5.861,-6.642,66.422,1.172,5.470,42.198,10.940,7.033,3.126,21.490,30.085,27.741,15.238,15.629,31.648,19.927,-1.172,38.681,-65.641,-1.172,26.569,-5.079,31.648
'[19:30:04.066 24/07/2074]',7.814,-12.894,64.469,3.516,12.503,45.714,3.907,0.391,5.470,23.053,26.569,14.457,14.066,-7.033,59.389,4.298,0.391,32.821,-63.687,-2.735,27.741,-16.801,59.389
'[19:30:04.070 24/07/2074]',4.689,5.861,40.635,4.689,14.847,48.449,-0.391,-5.861,7.033,25.397,23.443,3.907,11.331,-18.755,65.641,3.126,5.470,26.960,-39.853,-10.940,29.304,-38.681,65.641
'[19:30:04.074 24/07/2074]',0.391,12.503,30.867,10.940,16.020,46.886,-3.516,-3.907,8.205,26.178,20.708,5.470,3.126,-14.847,62.906,11.331,8.987,29.695,-30.085,-19.927,26.178,-30.867,62.906
'[19:30:04.078 24/07/2074]',-1.954,27.741,17.192,10.940,22.662,48.059,-4.298,-12.112,10.940,28.132,21.490,-2.344,-1.563,1.954,55.873,3.126,10.549,30.085,-16.410,-54.701,33.993,2.735,55.873
'[19:30:04.082 24/07/2074]',-7.033,56.654,-7.424,10.549,25.397,51.184,-4.298,-19.536,18.364,33.993,25.006,-7.814,1.954,32.430,37.509,-1.954,16.410,29.304,8.205,-80.098,46.886,23.834,37.509
'[19:30:04.086 24/07/2074]',-8.987,50.403,10.940,12.894,26.960,52.357,0.391,-14.457,23.443,37.509,28.523,-0.391,5.470,39.853,36.337,7.424,25.397,35.946,-10.159,-64.078,48.449,22.662,36.337
'[19:30:04.090 24/07/2074]',-5.079,23.053,39.853,19.536,29.304,54.701,5.079,-12.503,25.788,35.946,29.304,1.563,7.814,50.012,20.708,14.847,27.350,42.589,-39.072,-39.853,44.542,43.761,20.708
'[19:30:04.094 24/07/2074]',0.000,17.973,47.277,18.755,32.039,58.608,8.205,-15.238,28.913,30.867,30.476,-2.344,7.814,58.217,3.126,18.364,29.304,44.542,-46.496,-36.337,38.291,58.608,3.126
'[19:30:04.098 24/07/2074]',0.391,17.192,42.198,17.973,23.053,55.482,12.894,-13.675,26.960,20.708,31.648,1.563,7.814,35.556,12.112,25.397,29.695,48.449,-41.416,-23.834,30.867,27.741,12.112
'[19:30:04.102 24/07/2074]',1.172,17.192,33.211,25.397,17.973,49.231,17.973,-8.205,27.350,9.768,36.337,6.642,7.424,38.291,0.781,33.993,26.960,53.919,-32.430,-17.192,24.225,26.960,0.781
'[19:30:04.105 24/07/2074]',1.563,35.946,10.159,19.145,17.192,48.059,17.192,-14.847,33.211,4.298,34.383,1.172,12.503,21.490,9.377,30.085,19.927,50.012,-9.377,-50.794,22.662,26.569,9.377
'[19:30:04.109 24/07/2074]',2.344,45.324,-3.516,16.801,15.238,40.635,21.099,-15.238,37.118,1.172,34.774,1.172,17.973,13.284,21.099,22.271,16.801,43.761,4.298,-54.701,32.430,6.252,21.099
'[19:30:04.113 24/07/2074]',4.689,51.575,-18.364,20.317,13.675,32.039,20.708,-7.424,33.602,-4.689,30.867,7.814,14.457,27.350,2.735,22.271,14.457,39.853,19.145,-57.827,33.211,19.536,2.735
'[19:30:04.117 24/07/2074]',12.112,51.575,-15.629,4.689,17.192,27.741,18.364,-10.159,33.993,-12.503,28.132,5.079,9.768,27.350,-1.563,19.145,8.596,31.648,16.410,-69.939,24.225,36.337,-1.563
'[19:30:04.121 24/07/2074]',16.020,28.523,0.781,3.126,17.192,14.847,22.271,-4.689,35.556,-19.536,27.350,8.987,9.377,23.834,8.987,9.768,3.126,19.536,0.000,-33.211,22.662,19.927,8.987
'[19:30:04.125 24/07/2074]',17.192,30.085,-7.814,-6.642,12.112,4.298,17.192,-2.344,33.993,-29.304,25.788,11.331,8.596,3.907,25.397,3.907,-3.516,13.675,8.596,-19.536,12.503,-11.722,25.397
'[19:30:04.129 24/07/2074]',18.364,13.675,5.470,-10.940,13.284,-2.344,14.066,1.954,35.946,-33.211,21.880,12.503,6.252,-16.410,41.026,6.642,-14.457,12.503,-4.689,-8.987,-0.391,-22.662,41.026
'[19:30:04.133 24/07/2074]',17.582,6.252,7.814,-8.987,16.020,-8.205,12.503,0.781,34.774,-33.211,18.364,12.112,10.159,-23.053,41.416,3.907,-24.225,7.033,-7.033,-12.112,17.582,-31.648,41.416
'[19:30:04.137 24/07/2074]',18.364,12.894,-7.033,-12.503,14.847,-10.940,7.033,0.391,24.225,-35.946,17.582,16.410,9.377,-6.252,16.020,3.516,-27.741,1.954,7.814,-16.801,34.774,-33.993,16.020
'[19:30:04.141 24/07/2074]',17.192,13.284,-7.424,-12.112,12.894,-11.722,4.298,4.298,14.457,-37.900,18.364,24.225,3.516,23.053,-16.801,9.768,-29.304,4.298,8.205,-27.741,48.059,-10.159,-16.801
'[19:30:04.145 24/07/2074]',19.145,22.271,-12.503,-12.503,17.582,-12.894,7.814,3.516,12.894,-36.728,21.880,31.648,2.344,60.562,-32.821,0.391,-31.648,2.344,13.284,-50.794,55.092,31.258,-32.821
'[19:30:04.148 24/07/2074]',23.834,48.059,-38.291,-19.536,16.020,-12.112,8.596,1.172,7.033,-39.072,30.476,35.946,-0.781,103.150,-61.734,-3.907,-29.695,1.563,39.072,-62.906,38.681,61.343,-61.734
'[19:30:04.152 24/07/2074]',26.569,24.615,-8.596,-21.880,16.410,-10.159,7.033,6.642,2.344,-39.463,39.072,38.681,0.391,82.442,-39.853,-1.172,-26.569,8.205,9.377,-28.523,20.708,39.463,-39.853
'[19:30:04.156 24/07/2074]',32.430,0.781,8.596,-21.880,19.927,-10.159,3.516,5.861,-2.735,-34.383,43.761,38.681,1.563,62.515,-17.192,-1.563,-30.085,14.066,-7.814,-21.490,13.675,36.337,-17.192
'[19:30:04.160 24/07/2074]',34.383,-5.079,9.377,-21.490,19.927,-11.722,0.781,6.642,-12.503,-26.960,44.151,41.416,0.391,44.151,-1.563,1.954,-29.304,15.629,-8.596,-18.755,19.927,13.284,-1.563
'[19:30:04.164 24/07/2074]',27.741,-14.457,11.331,-18.755,12.894,-16.410,-1.954,10.549,-17.582,-21.880,41.416,43.370,4.689,35.556,-1.563,5.079,-27.741,19.536,-10.549,-1.563,30.085,-7.033,-1.563
'[19:30:04.168 24/07/2074]',23.443,-16.410,2.344,-8.987,9.377,-23.834,-0.781,14.457,-25.006,-14.457,37.118,41.416,-0.391,12.112,26.960,0.391,-28.523,24.615,-1.563,-15.629,50.403,-32.430,26.960
'[19:30:04.172 24/07/2074]',23.443,34.774,-50.794,-5.079,10.940,-27.741,6.252,11.331,-18.364,-5.861,34.383,35.946,-0.391,29.304,25.788,-8.987,-27.350,21.490,51.575,-64.469,51.184,-18.755,25.788
'[19:30:04.176 24/07/2074]',17.192,8.596,-19.536,0.391,10.159,-25.397,8.987,13.284,-14.457,0.391,32.821,38.681,-1.954,-1.563,62.515,0.000,-20.317,19.927,20.317,-25.397,40.635,-51.184,62.515
'[19:30:04.180 24/07/2074]',14.847,-12.503,0.781,0.781,11.331,-23.053,3.516,12.503,-12.112,2.735,28.913,37.509,-3.516,-26.960,78.926,10.159,-17.192,23.053,0.000,-18.364,39.853,-61.734,78.926
'[19:30:04.184 24/07/2074]',8.596,-15.238,5.470,3.126,15.629,-23.053,-0.781,11.331,-8.596,5.079,29.695,37.118,-10.549,15.629,42.589,15.629,-18.364,24.225,-4.689,-25.006,33.602,-6.642,42.589
'[19:30:04.188 24/07/2074]',0.391,-38.291,25.788,2.344,14.457,-23.053,-7.033,7.424,-9.768,1.954,32.039,46.496,-12.112,39.853,6.252,37.509,-16.410,19.927,-25.006,8.987,24.225,18.364,6.252
'[19:30:04.191 24/07/2074]',-3.907,-51.575,28.913,4.689,14.457,-23.443,-16.020,3.516,-10.159,-3.126,33.993,23.834,-14.457,43.761,-7.814,22.662,-14.847,19.927,-28.132,25.397,29.304,16.020,-7.814
'[19:30:04.195 24/07/2074]',-8.596,-32.039,-1.172,8.596,16.801,-24.225,-21.880,-3.516,-8.205,-4.298,36.337,-1.563,-18.364,57.436,-5.470,-12.112,-17.582,19.536,1.954,-5.079,35.165,37.118,-5.470
'[19:30:04.199 24/07/2074]',-9.377,-21.099,-11.331,9.768,20.708,-22.662,-19.927,-10.549,-0.781,2.344,37.509,-12.112,-15.629,-1.563,65.250,-20.708,-13.284,13.675,12.112,-17.973,47.668,-27.350,65.250
'[19:30:04.203 24/07/2074]',-5.861,-23.834,0.391,5.079,24.615,-18.755,-17.192,-11.722,7.814,11.722,39.463,-20.708,-8.987,-16.801,94.945,-28.523,-2.344,12.112,0.391,-11.722,52.747,-51.966,94.945
'[19:30:04.207 24/07/2074]',-11.722,-17.582,0.391,7.033,25.006,-22.271,-12.503,-10.549,12.112,18.364,37.900,-20.708,-14.066,19.145,72.283,-27.350,0.781,16.020,0.391,-26.960,53.138,-8.205,72.283
'[19:30:04.211 24/07/2074]',-13.675,-3.907,-3.516,6.252,27.741,-25.788,-1.563,-13.675,18.755,23.053,38.681,-16.410,-13.675,71.893,18.364,-10.549,3.126,16.410,4.298,-52.357,55.873,57.045,18.364
'[19:30:04.215 24/07/2074]',-17.973,-17.973,13.284,10.159,26.178,-29.304,6.252,-14.847,21.880,23.053,38.681,-14.066,-10.940,123.468,-30.085,-10.159,7.033,16.801,-12.503,-24.615,51.575,109.402,-30.085
'[19:30:04.219 24/07/2074]',-19.927,-34.774,30.867,16.410,25.788,-31.648,14.066,-15.238,23.053,18.755,39.072,-12.503,-8.596,95.726,-12.112,-3.907,7.033,23.053,-30.085,-5.470,50.403,85.568,-12.112
'[19:30:04.223 24/07/2074]',-17.582,-21.099,14.847,19.536,27.741,-31.258,21.099,-21.490,25.397,15.629,39.463,-15.238,-3.516,12.894,51.575,4.689,5.470,27.350,-14.066,-35.946,57.045,19.927,51.575
'[19:30:04.227 24/07/2074]',-21.880,-32.039,37.509,16.410,27.350,-27.741,29.695,-28.523,29.695,16.020,37.509,-18.755,5.861,-21.099,84.786,-2.735,4.689,30.867,-36.728,-35.556,74.628,-3.907,84.786
'[19:30:04.230 24/07/2074]',-19.145,-22.271,32.430,14.066,27.741,-26.178,33.602,-29.304,26.569,14.066,34.774,-23.834,5.079,-21.490,71.893,-1.954,11.722,35.165,-31.648,-37.509,70.330,-7.814,71.893
'[19:30:04.234 24/07/2074]',-17.973,24.225,-7.814,10.159,30.476,-28.132,39.463,-32.821,24.225,12.112,34.774,-32.039,-1.172,8.596,30.867,1.172,12.503,40.244,8.596,-92.601,67.204,30.867,30.867
'[19:30:04.238 24/07/2074]',-16.801,14.066,14.847,6.252,35.946,-26.960,46.496,-35.556,32.039,13.284,35.556,-35.556,-4.689,45.714,5.861,0.781,12.503,36.728,-14.066,-87.131,69.939,65.250,5.861
'[19:30:04.242 24/07/2074]',-14.066,13.675,26.178,4.298,43.761,-26.569,48.449,-34.774,39.072,12.894,35.556,-26.569,-6.252,1.954,63.297,3.907,17.973,35.946,-25.397,-73.846,62.515,10.549,63.297
'[19:30:04.246 24/07/2074]',-14.457,14.066,25.397,6.642,46.496,-30.476,46.105,-29.695,43.370,7.814,28.913,-14.066,-14.457,-18.755,84.005,16.020,12.894,37.118,-24.615,-90.647,63.297,-4.298,84.005
'[19:30:04.250 24/07/2074]',-12.503,-14.457,57.045,-2.344,50.794,-30.476,42.589,-35.946,51.575,3.907,25.788,-14.457,-16.020,-6.252,71.502,19.536,7.424,34.774,-56.264,-79.707,64.469,18.364,71.502
'[19:30:04.254 24/07/2074]',-9.377,-6.642,45.714,-14.847,49.621,-30.085,37.509,-42.979,52.747,-0.391,20.708,-16.020,-9.377,17.973,26.960,21.099,9.377,26.960,-44.933,-71.893,54.310,41.026,26.960
'[19:30:04.258 24/07/2074]',-7.424,27.741,6.252,-19.927,44.542,-32.039,33.993,-40.244,48.059,-7.814,16.020,-15.629,-15.629,54.701,-33.602,35.165,8.205,25.397,-5.470,-96.117,42.979,70.330,-33.602
'[19:30:04.262 24/07/2074]',-10.549,10.159,25.006,-21.099,42.198,-33.993,33.211,-39.463,47.668,-12.503,13.284,-16.801,-20.708,51.184,-46.886,49.231,1.954,22.662,-24.225,-91.429,52.357,65.250,-46.886
'[19:30:04.266 24/07/2074]',-14.066,-30.867,71.893,-24.225,37.118,-26.569,33.993,-42.979,50.403,-14.066,18.364,-16.020,-16.410,37.900,-23.443,40.635,1.563,16.020,-71.111,-44.542,58.999,45.324,-23.443
'[19:30:04.270 24/07/2074]',-17.192,-26.960,80.879,-25.788,31.648,-20.317,31.648,-33.993,45.714,-17.192,20.708,-0.391,-20.708,14.457,23.053,33.211,1.954,12.894,-80.098,-41.807,58.608,13.675,23.053
'[19:30:04.273 24/07/2074]',-17.973,-21.490,79.316,-30.085,25.006,-17.582,28.523,-28.523,41.026,-21.490,20.317,16.020,-30.867,30.867,24.225,32.821,-3.907,11.722,-78.535,-56.654,61.343,27.741,24.225
'[19:30:04.277 24/07/2074]',-10.159,-6.252,66.422,-42.589,23.834,-9.768,25.397,-32.039,41.416,-20.317,22.662,12.503,-24.225,69.158,-9.768,22.271,-8.205,7.424,-65.641,-65.641,34.383,82.442,-9.768
'[19:30:04.281 24/07/2074]',0.781,57.827,0.000,-56.654,19.145,-5.470,19.536,-32.039,36.337,-16.801,20.708,26.569,-22.662,32.039,21.490,36.337,-7.424,5.470,0.781,-109.011,3.516,40.635,21.490
'[19:30:04.285 24/07/2074]',4.298,71.502,-24.615,-44.933,15.629,-5.470,19.536,-23.443,28.132,-15.629,22.662,15.629,-31.258,-5.861,53.138,35.946,-8.987,9.768,25.397,-112.918,0.000,-15.238,53.138
'[19:30:04.289 24/07/2074]',4.689,27.350,14.457,-39.463,15.238,0.781,20.708,-30.476,26.569,-6.642,28.913,-2.344,-23.443,6.642,44.933,17.973,-10.940,13.284,-13.675,-82.051,7.814,5.861,44.933
'[19:30:04.293 24/07/2074]',5.079,25.397,7.814,-37.509,11.722,4.298,19.145,-35.556,21.880,-1.954,31.258,-0.391,-19.145,-6.642,66.032,10.940,-7.033,9.768,-7.033,-79.316,5.470,-5.470,66.032
'[19:30:04.297 24/07/2074]',-0.391,10.940,21.099,-33.602,8.987,5.470,17.192,-35.556,13.284,-1.172,33.211,5.470,-23.053,-1.563,67.985,9.377,-3.907,12.894,-20.317,-59.780,11.331,-8.596,67.985
'[19:30:04.301 24/07/2074]',1.172,-11.331,39.853,-32.430,14.066,6.252,10.940,-35.946,9.377,1.954,30.085,22.271,-25.397,36.728,22.662,30.867,-3.516,12.894,-39.072,-33.993,-6.642,39.853,22.662
'[19:30:04.305 24/07/2074]',12.112,6.642,2.344,-33.993,18.364,3.126,5.861,-41.416,3.907,6.642,25.788,21.099,-23.834,17.973,39.072,26.178,-3.516,3.516,-1.563,-35.556,-42.979,29.695,39.072
'[19:30:04.309 24/07/2074]',20.708,52.747,-35.556,-32.430,25.397,7.033,5.079,-33.993,-0.391,14.457,26.960,12.894,-25.006,2.344,67.595,10.549,2.344,2.735,36.337,-65.250,-47.277,-3.516,67.595
'[19:30:04.313 24/07/2074]',19.536,66.422,-34.774,-24.615,32.039,8.596,8.205,-23.834,-2.344,21.880,22.662,13.675,-27.741,8.205,74.628,1.954,5.079,4.298,35.556,-92.991,-30.476,2.735,74.628
'[19:30:04.316 24/07/2074]',22.271,41.807,-9.768,-31.258,38.681,10.549,6.642,-34.774,-0.391,27.741,18.755,12.503,-20.317,48.840,30.085,1.563,7.033,-1.563,10.549,-84.786,-5.079,42.979,30.085
'[19:30:04.320 24/07/2074]',22.271,54.310,-21.490,-46.105,41.807,13.284,3.516,-51.966,1.563,28.523,19.145,22.271,-15.629,83.223,-2.344,9.377,15.238,-9.768,22.271,-94.554,16.410,60.952,-2.344
'[19:30:04.324 24/07/2074]',16.410,39.853,-14.066,-42.589,44.151,6.642,0.000,-51.966,4.689,24.225,16.410,46.886,-15.238,126.984,-65.250,49.231,19.145,-10.940,14.847,-82.833,25.788,100.806,-65.250
'[19:30:04.328 24/07/2074]',9.377,6.642,-13.284,-40.244,42.589,-1.172,-7.424,-71.893,7.814,21.099,9.768,45.714,-9.768,127.375,-83.614,52.357,14.066,-18.755,14.066,-63.297,27.741,124.249,-83.614
'[19:30:04.332 24/07/2074]',15.238,56.264,-71.502,-47.668,41.026,-3.126,-2.344,-82.833,12.503,19.927,17.582,12.112,-8.987,73.455,0.391,0.391,16.801,-22.662,72.283,-102.759,0.781,77.363,0.391
'[19:30:04.336 24/07/2074]',16.410,57.045,-40.244,-23.443,44.542,1.563,9.768,-47.277,18.364,25.006,20.317,9.768,-8.596,35.946,55.482,-6.252,25.397,-14.457,41.026,-91.819,-6.642,35.556,55.482
'[19:30:04.340 24/07/2074]',22.662,3.126,48.059,-17.973,50.794,14.066,20.708,-30.867,28.913,34.383,23.053,-2.344,-9.377,-11.722,129.719,-21.880,30.085,-3.907,-47.277,-47.668,-17.973,0.391,129.719
'[19:30:04.344 24/07/2074]',40.244,1.563,67.204,-29.304,55.092,26.178,20.708,-23.443,39.853,39.853,24.615,-7.033,-7.814,-17.973,143.785,-16.801,35.556,-1.563,-66.422,-39.072,-50.012,-6.252,143.785
'[19:30:04.348 24/07/2074]',41.807,-20.708,70.720,-31.258,51.575,23.834,16.801,-33.602,38.681,39.463,22.271,11.722,-5.470,17.582,80.879,21.880,40.244,-0.391,-69.939,-1.954,-41.416,6.642,80.879
'[19:30:04.352 24/07/2074]',46.496,-30.476,45.714,-34.383,48.449,18.755,10.549,-52.357,41.807,37.900,24.615,-3.516,-1.172,53.138,28.132,23.053,39.072,1.954,-44.933,16.410,-53.919,36.337,28.132
'[19:30:04.355 24/07/2074]',51.966,28.523,-25.788,-62.515,50.403,16.801,4.689,-82.051,50.794,35.556,21.490,3.907,8.205,71.893,-10.940,44.933,31.648,0.391,26.569,-54.310,-52.357,65.250,-10.940
'[19:30:04.359 24/07/2074]',53.919,127.766,-146.520,-78.144,50.012,5.079,9.377,-109.402,52.747,30.476,18.364,14.847,15.238,130.501,-90.647,63.297,29.695,-5.079,147.302,-142.222,-40.635,108.230,-90.647
'[19:30:04.363 24/07/2074]',44.542,165.275,-178.168,-19.927,44.542,1.954,26.569,-63.297,48.840,30.476,23.834,37.118,14.457,153.162,-70.720,45.324,29.695,6.642,178.950,-192.234,-28.132,144.176,-70.720
'[19:30:04.367 24/07/2074]',42.979,175.824,-170.354,8.987,43.761,0.391,36.337,-23.443,48.059,26.569,19.145,83.223,4.689,134.017,-77.363,117.607,25.397,12.894,171.136,-226.227,-33.211,145.739,-77.363
'[19:30:04.371 24/07/2074]',39.853,89.084,-96.117,26.960,41.026,-5.079,38.681,-14.847,43.370,22.662,14.847,73.065,7.424,121.123,-67.985,96.117,26.569,7.424,96.899,-134.799,-16.801,123.468,-67.985
'[19:30:04.375 24/07/2074]',32.821,3.907,-38.291,20.317,29.304,-4.689,18.755,-24.225,26.178,17.582,8.205,23.053,-4.298,11.722,34.774,35.946,24.225,4.298,39.072,-26.569,-37.900,9.768,34.774
'[19:30:04.379 24/07/2074]',39.463,-64.078,55.482,-25.006,41.416,0.781,1.172,-39.072,42.198,25.006,-0.781,-10.159,-9.377,-65.250,141.832,-8.205,19.927,2.344,-54.701,35.946,-56.654,-63.297,141.832
'[19:30:04.383 24/07/2074]',50.403,-48.840,49.621,-58.608,57.436,3.907,-4.689,-64.469,58.217,32.039,-7.814,-19.536,-4.298,-45.714,109.402,5.470,19.927,-2.735,-48.840,12.503,-55.482,-43.370,109.402
'[19:30:04.387 24/07/2074]',50.794,54.310,-91.038,-42.198,46.496,-9.377,-1.954,-62.125,50.403,35.556,-5.470,-55.482,-8.987,-30.476,152.381,-85.177,19.927,-6.642,91.819,-80.488,-58.217,-41.416,152.381
'[19:30:04.391 24/07/2074]',60.171,59.389,-111.355,1.172,50.794,-13.284,0.000,-26.569,55.482,34.774,-1.563,-8.205,-18.364,14.066,91.038,-3.907,21.490,-0.391,112.137,-89.866,-91.819,14.847,91.038
'[19:30:04.395 24/07/2074]',70.330,-3.907,-76.190,16.410,48.449,-25.006,1.563,-16.801,44.151,18.755,-4.689,30.867,-30.085,89.475,-76.581,109.402,16.801,-2.344,76.972,-39.853,-112.137,107.839,-76.581
'[19:30:04.398 24/07/2074]',69.548,-102.369,19.536,1.954,40.635,-19.536,-3.907,-26.569,40.635,13.675,2.735,8.205,-34.383,100.024,-39.853,42.589,19.536,-2.344,-18.755,79.707,-127.375,102.759,-39.853
'[19:30:04.402 24/07/2074]',70.330,-186.764,121.905,-23.053,40.635,-11.331,-10.159,-35.946,40.635,6.642,6.252,-13.675,-36.337,81.661,-37.509,34.383,20.317,3.126,-121.123,176.606,-133.236,76.581,-37.509
'[19:30:04.406 24/07/2074]',73.846,-159.805,153.944,-86.349,45.714,-0.391,-5.470,-57.436,48.449,5.470,16.410,-31.648,-41.026,75.800,-19.145,25.006,15.629,15.629,-153.162,125.421,-130.110,82.051,-19.145
'[19:30:04.410 24/07/2074]',68.767,-92.210,101.587,-87.131,42.979,3.126,9.768,-64.469,61.343,10.159,24.615,-28.523,-32.430,20.708,98.071,-16.020,17.192,21.880,-100.806,52.357,-109.011,21.880,98.071
'[19:30:04.414 24/07/2074]',63.297,7.033,-24.615,-47.668,29.304,-9.377,25.006,-46.496,55.092,5.079,33.993,-14.457,-37.900,9.377,78.144,32.039,14.457,31.648,25.397,-34.774,-106.667,0.391,78.144
'[19:30:04.418 24/07/2074]',60.562,48.059,-78.926,-19.145,22.662,-14.847,30.476,-27.350,49.231,-1.954,43.370,41.026,-46.496,-10.549,94.945,96.508,11.331,39.853,79.707,-83.223,-108.620,-16.801,94.945
'[19:30:04.422 24/07/2074]',66.422,-7.424,-69.158,29.695,21.880,-20.708,34.383,-14.847,47.668,-5.861,45.324,111.746,-51.966,7.424,62.906,181.685,7.814,35.165,69.939,-17.973,-140.269,11.331,62.906
'[19:30:04.426 24/07/2074]',64.078,4.689,-121.123,73.846,16.020,-29.695,37.118,-1.563,40.244,-1.954,59.389,19.927,-46.105,81.661,46.496,38.291,5.861,30.085,121.905,-6.642,-133.626,68.767,46.496
'[19:30:04.430 24/07/2074]',57.827,-50.403,5.079,3.126,13.284,-14.066,27.741,-10.549,33.602,-0.391,63.687,-28.132,-51.184,40.244,138.315,-55.873,0.391,33.993,-4.298,44.933,-142.222,40.244,138.315
'[19:30:04.434 24/07/2074]',55.092,-96.899,57.436,-2.735,16.410,-9.768,26.569,-19.536,33.993,2.735,60.171,-14.847,-48.449,30.867,143.004,-40.244,-7.424,32.821,-56.654,85.568,-140.659,40.635,143.004
'[19:30:04.438 24/07/2074]',55.482,-75.018,82.833,-41.416,16.410,-4.298,29.695,-20.708,32.821,8.987,61.734,-59.389,-41.026,54.310,110.183,-75.800,-3.907,27.741,-82.051,84.786,-116.044,28.913,110.183
'[19:30:04.441 24/07/2074]',50.012,-41.416,46.496,-38.681,10.549,-6.642,25.397,-12.894,21.880,7.814,62.515,-51.184,-49.231,57.827,106.276,-69.939,-3.126,27.741,-45.714,61.343,-116.825,17.582,106.276
'[19:30:04.445 24/07/2074]',50.794,-26.569,35.946,-48.840,11.331,-8.596,25.397,-16.801,17.582,4.298,53.138,28.523,-52.357,61.734,91.429,6.252,-4.298,22.271,-35.165,44.542,-127.375,30.867,91.429
'[19:30:04.449 24/07/2074]',56.264,-5.079,2.735,-53.529,11.331,-3.126,20.317,-28.523,13.284,7.424,55.092,-27.350,-58.217,73.455,78.144,-41.026,-1.954,12.894,-1.954,25.397,-150.037,49.621,78.144
'[19:30:04.453 24/07/2074]',58.999,19.145,-28.913,-52.357,14.066,-1.563,12.894,-29.695,14.457,10.159,51.575,-50.794,-51.575,41.807,117.216,-78.926,1.954,6.252,29.695,14.066,-138.706,-1.172,117.216
'[19:30:04.457 24/07/2074]',60.171,0.391,-14.847,-53.138,15.629,1.172,7.424,-33.993,14.457,9.768,47.277,-35.946,-54.701,46.105,116.825,-69.939,2.344,6.252,15.629,24.615,-146.129,14.457,116.825
'[19:30:04.461 24/07/2074]',66.813,9.377,-55.092,-27.350,23.834,4.689,0.391,-37.118,19.927,14.457,37.900,-1.954,-44.933,79.707,34.774,3.126,5.079,0.781,55.873,5.079,-127.375,43.761,34.774
'[19:30:04.465 24/07/2074]',78.535,-2.735,-60.562,-19.536,30.867,4.298,-5.470,-35.165,25.788,21.880,30.867,17.973,-36.728,94.945,7.424,34.383,13.675,-5.079,61.343,28.913,-121.123,31.648,7.424
'[19:30:04.469 24/07/2074]',79.316,-4.298,-47.277,-24.225,33.211,8.987,-11.722,-28.523,22.662,29.304,22.662,27.350,-46.105,89.475,41.807,19.145,17.973,-5.470,48.059,33.211,-135.189,27.741,41.807
'[19:30:04.473 24/07/2074]',80.488,-16.801,-42.589,-23.053,34.383,10.940,-13.284,-34.774,20.708,33.602,6.642,71.893,-49.231,59.780,13.284,113.309,17.582,-10.940,43.370,30.085,-135.580,7.814,13.284
'[19:30:04.477 24/07/2074]',89.084,-11.331,-26.178,-64.860,35.946,15.629,-17.973,-47.277,25.788,47.668,-5.079,6.252,-46.886,46.105,77.753,0.781,20.317,-19.145,26.960,34.383,-153.162,-8.596,77.753
'[19:30:04.480 24/07/2074]',86.349,-32.430,-15.238,-70.330,34.383,10.940,-25.788,-53.138,23.834,51.966,-14.066,-52.357,-57.436,81.661,61.343,-73.846,22.662,-20.708,16.020,71.502,-165.665,17.582,61.343
'[19:30:04.484 24/07/2074]',85.958,-44.151,-33.602,-66.032,36.337,4.689,-36.337,-64.860,28.132,50.012,-25.788,-32.821,-57.436,174.652,-52.747,-41.807,19.927,-25.397,34.383,69.548,-148.083,107.448,-52.747
'[19:30:04.488 24/07/2074]',91.038,-44.933,-48.840,-76.581,41.416,4.689,-39.853,-86.740,39.072,55.092,-26.178,-53.529,-44.151,195.751,-73.846,-60.562,21.880,-33.602,49.621,65.641,-127.375,120.342,-73.846
'[19:30:04.492 24/07/2074]',88.303,-58.608,-30.085,-50.012,44.542,5.079,-34.383,-67.985,45.714,57.827,-22.271,-56.264,-39.853,188.718,-53.919,-67.204,30.476,-33.602,30.867,79.707,-105.495,99.243,-53.919
'[19:30:04.496 24/07/2074]',80.488,-61.343,1.172,-10.159,44.542,11.331,-20.708,-26.569,50.403,59.389,-19.927,-21.099,-38.291,144.176,-23.834,-10.940,33.211,-21.880,-0.391,46.886,-69.158,64.469,-23.834
'[19:30:04.500 24/07/2074]',91.038,-21.099,-14.847,-20.317,43.370,14.847,-6.642,-18.364,49.231,58.608,-18.364,-3.126,-29.695,89.866,-2.344,30.476,31.648,-17.973,15.629,5.861,-87.521,27.741,-2.344
'[19:30:04.504 24/07/2074]',96.508,-14.457,1.563,-18.755,40.244,17.192,-1.954,7.033,43.761,58.608,-19.536,-10.940,-32.821,94.554,19.536,-7.424,34.383,-15.629,-0.781,23.053,-111.355,25.006,19.536
'[19:30:04.508 24/07/2074]',107.448,17.973,-27.741,-74.628,34.383,16.020,-11.722,-16.801,38.681,46.496,-25.788,-24.615,-41.807,132.845,-36.728,-16.410,27.350,-13.675,28.523,21.490,-173.480,67.204,-36.728
'[19:30:04.512 24/07/2074]',119.951,76.190,-103.932,-87.521,32.821,12.894,-12.894,-28.132,37.118,38.681,-24.225,-25.788,-51.575,143.004,-45.324,-17.192,16.801,-10.549,104.713,-37.900,-206.300,93.382,-45.324
'[19:30:04.516 24/07/2074]',119.951,73.455,-117.216,-82.833,27.350,8.596,-3.516,-40.244,41.807,42.589,-15.238,-43.761,-46.105,76.972,44.542,-48.059,17.192,-11.331,117.998,-28.132,-202.784,22.662,44.542
'[19:30:04.520 24/07/2074]',115.653,26.960,-73.455,-57.436,19.927,8.596,9.377,-27.741,37.900,39.853,-3.907,-20.317,-51.966,53.529,75.800,-21.880,18.364,-2.344,74.237,6.252,-164.884,-27.350,75.800
'[19:30:04.523 24/07/2074]',114.481,7.814,-47.277,-3.126,22.271,9.768,21.490,16.801,39.853,36.337,-0.781,21.490,-50.012,55.482,59.389,33.602,15.629,8.596,48.059,-1.563,-131.673,-15.629,59.389
'[19:30:04.527 24/07/2074]',121.905,16.410,-32.821,-26.569,28.132,14.847,28.132,5.079,44.933,39.463,1.172,23.443,-36.728,60.952,49.621,37.118,15.629,8.987,33.602,-17.973,-117.607,-5.470,49.621
'[19:30:04.531 24/07/2074]',128.938,32.430,-24.225,-49.231,33.993,19.927,28.132,3.907,43.370,42.979,0.781,17.192,-35.946,109.011,20.317,14.066,19.145,10.159,25.006,-3.907,-133.236,24.615,20.317
'[19:30:04.535 24/07/2074]',143.004,67.985,-53.919,-65.641,38.681,23.053,20.708,5.861,46.886,34.383,5.470,7.033,-46.105,195.751,-61.343,9.768,18.755,12.503,54.701,-28.523,-200.049,137.534,-61.343
'[19:30:04.539 24/07/2074]',147.692,66.422,-48.059,-74.237,42.979,24.225,27.350,-4.298,54.701,35.556,15.629,-10.159,-44.151,198.486,-49.621,-5.079,18.755,10.549,48.840,-30.085,-212.552,148.864,-49.621
'[19:30:04.543 24/07/2074]',139.096,26.178,-5.079,-61.343,40.244,26.960,28.132,0.391,46.496,35.946,23.834,8.596,-43.370,238.339,-85.177,9.377,22.271,9.768,5.861,12.112,-181.294,165.275,-85.177
'[19:30:04.547 24/07/2074]',123.077,-20.317,35.556,-35.946,28.913,22.662,21.880,25.397,37.900,17.192,19.145,46.886,-57.436,267.253,-144.957,60.562,22.662,10.940,-34.774,52.357,-170.745,191.062,-144.957
'[19:30:04.551 24/07/2074]',114.090,-16.020,42.979,-42.589,30.476,27.350,21.880,15.238,37.900,19.145,17.192,46.496,-36.337,160.977,-58.608,58.608,23.053,12.503,-42.198,26.960,-126.203,100.415,-58.608
'[19:30:04.555 24/07/2074]',116.044,56.654,-44.542,-43.761,28.523,23.443,17.192,11.722,39.853,37.900,-1.563,57.436,-37.118,63.297,57.045,52.747,25.788,1.563,45.324,-42.589,-135.580,7.424,57.045
'[19:30:04.559 24/07/2074]',106.667,39.463,-21.880,-42.198,26.178,21.099,20.708,10.159,46.886,41.416,-3.907,37.118,-31.648,36.337,82.442,38.291,32.039,-0.391,22.662,17.192,-144.957,-43.761,82.442
'[19:30:04.563 24/07/2074]',110.965,3.126,6.642,-39.072,32.821,23.443,10.940,12.112,55.873,53.919,-14.066,7.814,-39.463,15.629,132.845,-3.516,31.258,-3.516,-5.861,31.648,-168.400,-35.946,132.845
'[19:30:04.566 24/07/2074]',118.388,-18.755,5.079,-25.397,36.337,20.708,4.689,14.457,57.045,56.654,-15.629,3.907,-23.443,58.999,69.158,-0.391,27.350,-9.377,-4.298,41.807,-160.195,12.894,69.158
'[19:30:04.570 24/07/2074]',107.839,-104.322,90.256,-16.020,33.993,21.880,1.172,17.192,50.794,47.668,-12.112,10.940,-12.894,151.600,-51.575,12.894,31.258,-14.066,-89.475,137.534,-127.375,85.568,-51.575
'[19:30:04.574 24/07/2074]',109.402,-68.767,48.059,-11.722,36.728,22.271,-9.377,24.615,42.589,41.026,-14.066,23.443,-12.112,125.031,-33.602,16.410,31.648,-12.894,-47.277,80.098,-128.938,84.005,-33.602
'[19:30:04.578 24/07/2074]',107.448,-41.026,-30.476,-0.781,28.132,16.410,-23.443,10.940,28.132,35.165,-12.503,40.635,-6.252,111.746,-32.039,19.927,24.225,-20.708,31.258,26.569,-89.475,66.032,-32.039
'[19:30:04.582 24/07/2074]',105.104,-37.118,-36.337,-1.563,32.821,12.112,-25.397,7.424,32.039,37.900,-19.145,41.026,-6.252,98.852,-17.973,20.317,26.569,-27.350,37.118,14.066,-72.283,44.542,-17.973
'[19:30:04.586 24/07/2074]',93.382,-35.946,-39.072,-5.861,32.430,9.768,-33.211,0.000,28.913,41.807,-23.834,15.629,-27.741,68.767,31.258,-7.033,29.695,-28.523,39.853,28.132,-88.303,4.689,31.258
'[19:30:04.590 24/07/2074]',85.958,-13.675,-76.190,-8.596,22.271,5.079,-40.635,-1.954,23.053,39.463,-26.178,5.861,-37.118,86.349,0.391,-4.689,22.662,-28.523,76.972,38.681,-150.427,37.118,0.391
'[19:30:04.594 24/07/2074]',83.223,-4.689,-61.734,-15.629,28.523,11.331,-34.383,-7.033,30.867,45.324,-27.350,-1.954,-26.569,134.799,-51.184,-7.033,28.132,-25.788,62.515,12.112,-135.580,103.932,-51.184
'[19:30:04.598 24/07/2074]',82.833,17.582,-64.469,-30.476,30.085,13.284,-28.132,-12.503,42.198,42.979,-25.397,-8.205,-11.722,114.090,-34.383,-14.066,33.993,-21.880,65.250,25.788,-144.957,66.813,-34.383
'[19:30:04.602 24/07/2074]',88.303,-4.298,-58.999,-27.350,24.225,5.470,-26.178,-7.424,42.979,38.291,-26.569,0.781,-3.126,166.056,-89.866,-14.457,29.304,-18.755,59.780,65.250,-144.957,94.554,-89.866
'[19:30:04.605 24/07/2074]',115.653,-10.549,-83.614,-32.430,33.602,3.126,-29.304,-19.927,52.747,38.681,-27.741,1.563,6.642,129.328,-37.509,-31.258,23.834,-21.880,84.396,-5.861,-83.223,55.482,-37.509
'[19:30:04.609 24/07/2074]',127.766,-91.819,-16.020,-31.648,37.509,-1.954,-27.350,-21.490,77.363,41.026,-34.774,-5.079,28.523,72.674,21.880,-44.151,21.099,-26.178,16.801,89.084,-95.336,-8.987,21.880
'[19:30:04.613 24/07/2074]',121.123,-87.131,-42.589,-19.536,19.536,-11.331,-28.913,-8.596,68.767,32.821,-38.291,-0.391,19.927,40.635,40.635,-37.900,12.503,-21.490,43.370,86.349,-114.481,-36.337,40.635
'[19:30:04.617 24/07/2074]',119.560,-46.105,-83.614,-13.284,19.145,-11.722,-23.443,-7.814,73.455,28.913,-36.337,0.781,30.476,2.344,55.092,-21.490,6.252,-17.973,84.396,33.602,-124.640,-38.681,55.092
'[19:30:04.621 24/07/2074]',123.468,-67.985,-3.907,-23.834,40.244,3.126,-11.722,-5.861,103.541,42.589,-33.993,-10.940,62.515,45.324,11.722,-17.973,18.755,-14.847,4.689,87.131,-116.435,-13.284,11.722
'[19:30:04.625 24/07/2074]',126.593,-89.866,30.867,-23.834,41.807,10.549,-10.549,0.000,98.071,42.589,-28.132,-8.596,81.270,94.554,-61.343,-10.159,24.225,-6.252,-30.085,144.176,-103.150,7.033,-61.343
'[19:30:04.629 24/07/2074]',134.408,-35.165,-7.814,-14.457,58.999,19.536,-9.768,6.252,112.527,45.324,-29.304,0.391,103.541,142.222,-119.560,3.907,27.350,0.391,8.596,73.065,-75.018,66.422,-119.560
'[19:30:04.633 24/07/2074]',141.050,-16.801,3.126,-20.708,76.190,32.430,-3.907,-1.172,132.063,53.919,-21.880,-14.457,133.236,178.559,-126.593,-34.774,34.774,1.954,-2.344,53.138,-9.768,71.111,-126.593
'[19:30:04.637 24/07/2074]',145.739,39.072,-34.774,-16.020,90.647,40.635,-3.516,3.907,149.646,50.012,-17.582,-16.801,166.838,180.904,-125.031,-57.045,42.589,4.298,35.556,7.814,16.020,76.972,-125.031
'[19:30:04.641 24/07/2074]',129.719,149.646,-101.197,-9.377,100.806,41.807,11.331,11.722,167.619,51.575,-15.238,-3.126,180.513,130.110,-66.422,-42.198,48.449,12.503,101.978,-87.521,30.867,36.337,-66.422
'[19:30:04.645 24/07/2074]',135.971,116.825,-43.761,-6.252,119.951,50.403,13.675,16.020,182.857,50.012,-13.284,6.252,200.440,84.786,-53.529,-4.689,50.794,13.284,44.542,-52.357,36.728,5.861,-53.529
'[19:30:04.648 24/07/2074]',123.858,94.164,-2.344,8.205,127.375,53.529,19.536,21.880,183.639,46.105,-13.675,35.556,227.009,67.204,-92.210,50.403,55.873,12.503,3.126,-21.490,79.707,-4.689,-92.210
'[19:30:04.652 24/07/2074]',118.388,35.556,43.370,46.886,133.236,48.059,26.960,33.211,190.281,38.291,-13.284,103.541,246.154,-66.813,-15.629,157.070,55.873,15.629,-42.589,34.383,103.541,-131.673,-15.629
'[19:30:04.656 24/07/2074]',123.468,24.615,48.449,58.999,147.692,57.045,14.847,34.774,193.016,30.476,-12.112,88.694,260.611,-97.680,12.894,125.812,50.794,12.503,-47.668,46.886,106.276,-148.083,12.894
'[19:30:04.660 24/07/2074]',125.421,-12.894,76.190,57.827,155.116,58.217,5.079,25.397,193.797,28.523,-9.768,54.310,278.193,-83.223,-5.861,79.707,48.059,4.298,-75.409,91.429,117.216,-129.328,-5.861
'[19:30:04.664 24/07/2074]',116.044,25.788,41.026,54.701,154.335,55.482,3.516,22.662,196.532,30.867,-3.516,17.192,276.239,19.536,-25.788,-27.350,49.621,1.954,-40.244,64.860,105.104,-30.867,-25.788
'[19:30:04.668 24/07/2074]',119.560,115.653,-1.954,1.954,163.321,64.860,-3.516,8.596,196.923,23.053,7.814,-60.952,275.458,20.708,-10.940,-116.435,48.059,4.689,2.735,-7.814,69.939,-16.801,-10.940
'[19:30:04.672 24/07/2074]',110.965,156.679,5.079,-55.092,151.990,64.469,1.563,-2.735,186.374,17.192,14.066,-105.885,272.723,-57.436,36.337,-137.924,43.370,0.781,-4.298,-65.641,73.846,-79.316,36.337
'[19:30:04.676 24/07/2074]',94.554,132.845,62.125,-76.581,143.394,64.860,14.066,-11.331,171.917,16.801,16.410,-97.289,265.690,-73.065,45.324,-127.766,44.151,2.344,-61.343,-35.165,96.899,-108.230,45.324
'[19:30:04.680 24/07/2074]',101.978,139.487,65.250,-85.177,151.990,78.144,3.907,-14.457,158.242,11.331,20.708,-76.972,262.564,-71.111,-19.927,-55.482,41.807,8.596,-64.469,-33.211,65.641,-91.038,-19.927
'[19:30:04.684 24/07/2074]',86.349,60.562,119.951,-53.529,143.004,65.250,10.940,-7.424,150.037,3.126,16.020,-36.337,276.630,60.562,-207.473,5.079,33.602,9.768,-119.170,18.364,112.918,53.138,-207.473
'[19:30:04.688 24/07/2074]',75.409,75.800,77.753,-9.768,138.706,58.999,20.708,-0.391,139.878,-3.516,21.099,-14.847,277.411,44.933,-184.029,5.079,35.946,7.814,-76.972,15.629,135.971,28.132,-184.029
'[19:30:04.691 24/07/2074]',61.343,102.759,25.006,32.039,134.408,51.575,23.053,10.159,133.626,-0.391,27.350,-30.476,280.147,-3.516,-125.031,-20.317,37.509,12.894,-24.225,-6.642,146.129,-14.066,-125.031
'[19:30:04.695 24/07/2074]',46.105,94.164,55.873,14.066,125.421,44.542,35.556,2.735,141.050,-16.410,17.973,-19.927,271.941,-224.664,73.455,3.126,32.430,13.675,-55.092,-28.913,159.023,-201.221,73.455
'[19:30:04.699 24/07/2074]',37.118,191.062,-14.457,-33.602,112.527,51.184,32.039,-17.582,116.435,-3.907,3.126,-16.801,256.313,-352.430,188.718,6.252,34.774,4.689,15.238,-108.620,123.858,-312.576,188.718
'[19:30:04.703 24/07/2074]',29.304,153.944,15.629,-36.337,100.806,57.436,27.350,-25.788,94.164,11.331,-0.781,-64.078,247.326,-284.054,105.885,-27.350,39.463,2.344,-14.847,-38.291,105.104,-259.048,105.885
'[19:30:04.707 24/07/2074]',11.331,41.026,76.190,22.662,87.912,54.701,19.927,-13.675,69.548,18.755,-6.252,3.126,250.452,-142.613,-101.197,80.879,37.118,3.126,-75.409,45.324,117.216,-85.568,-101.197
'[19:30:04.711 24/07/2074]',-2.735,27.350,34.383,87.131,78.144,46.886,16.410,1.172,60.171,3.516,-5.861,18.755,268.816,-68.376,-185.201,62.515,31.648,-3.907,-33.602,38.681,154.335,16.020,-185.201
'[19:30:04.715 24/07/2074]',-21.099,-1.563,14.847,148.474,69.939,36.337,15.629,14.457,69.548,-6.252,2.735,-74.237,265.690,-110.965,-112.918,-48.840,32.821,-7.424,-14.066,58.217,190.672,-29.304,-112.918
'[19:30:04.719 24/07/2074]',-37.118,-75.800,72.283,154.335,62.125,30.085,6.642,10.940,59.389,-18.364,-3.516,-48.449,238.339,-183.639,-42.979,-21.880,28.132,-10.940,-71.502,107.448,201.612,-81.270,-42.979
'[19:30:04.723 24/07/2074]',-33.211,57.436,22.662,10.940,53.138,33.211,-1.954,-28.132,56.654,-26.178,-28.132,-82.833,216.459,-285.226,26.569,-37.509,19.536,-25.006,-21.880,-21.099,157.070,-167.619,26.569
'[19:30:04.727 24/07/2074]',-43.761,124.249,-21.490,-38.291,40.244,25.397,-1.172,-46.496,57.045,-12.503,-40.635,-118.388,208.254,-179.341,-67.595,-74.237,16.020,-33.602,22.271,-79.707,184.420,-101.587,-67.595
'[19:30:04.730 24/07/2074]',-60.171,110.183,3.516,-47.277,33.602,23.053,1.954,-53.919,30.476,12.894,-38.291,-75.409,195.751,-137.924,-81.661,-44.542,18.364,-29.695,-2.735,-59.780,195.360,-69.548,-81.661
'[19:30:04.734 24/07/2074]',-69.939,219.194,-90.256,-52.747,28.132,8.987,15.238,-49.231,21.099,9.768,-32.821,-62.125,198.486,-141.441,-74.237,-44.933,12.503,-26.569,91.038,-185.592,188.327,-36.337,-74.237
'[19:30:04.738 24/07/2074]',-86.740,165.665,-88.303,16.801,24.225,-1.172,16.410,-33.993,16.410,-10.159,-19.145,-75.800,194.188,10.159,-264.127,-28.913,5.470,-28.913,89.084,-144.567,212.552,128.547,-264.127
'[19:30:04.742 24/07/2074]',-89.866,75.018,-33.602,55.873,19.927,-1.172,3.907,-17.192,1.563,-39.853,-15.238,-20.708,168.010,3.126,-339.145,93.382,3.516,-28.523,34.383,-58.217,212.943,119.951,-339.145
'[19:30:04.746 24/07/2074]',-100.415,16.410,16.410,54.701,5.079,-1.172,-9.377,-8.205,9.377,-66.422,-31.258,-14.066,151.600,-118.388,-228.571,92.210,-5.861,-27.350,-15.629,-14.457,221.929,1.563,-228.571
'[19:30:04.750 24/07/2074]',-105.104,72.674,-50.012,50.794,-3.907,-1.954,-14.066,-11.722,-4.298,-62.515,-48.840,-40.244,139.878,22.662,-479.414,158.632,-15.238,-31.258,50.794,-69.158,266.081,91.819,-479.414
'[19:30:04.754 24/07/2074]',-105.104,-28.913,43.370,55.092,-16.410,3.516,-20.708,-3.126,-34.383,-49.231,-48.059,42.589,115.263,-158.242,-270.379,223.101,-12.503,-26.569,-42.589,52.357,222.320,-80.488,-270.379
'[19:30:04.758 24/07/2074]',-136.752,41.026,39.463,-0.391,-33.602,6.252,-9.377,-19.927,-30.085,-25.006,-52.357,-5.470,120.733,-384.860,121.905,26.960,-9.377,-17.582,-38.681,-8.596,235.995,-312.576,121.905
'[19:30:04.762 24/07/2074]',-148.864,105.495,32.430,-37.118,-34.383,10.940,0.391,-25.788,-38.681,-11.331,-43.761,-103.932,100.024,-328.987,106.276,-77.753,-10.549,-8.596,-31.648,-79.707,198.877,-219.585,106.276
'[19:30:04.766 24/07/2074]',-147.692,71.502,48.449,-43.761,-40.244,11.722,-3.126,-39.853,-54.310,-13.284,-35.165,-137.143,92.210,-324.298,139.487,-148.864,-9.768,-9.768,-47.668,-32.430,169.573,-202.784,139.487
'[19:30:04.770 24/07/2074]',-146.520,172.308,-32.430,-69.939,-46.886,8.987,-0.781,-38.681,-56.654,-21.490,-39.072,-128.547,92.210,-349.695,152.772,-143.394,-8.205,-9.377,33.211,-141.050,218.803,-273.114,152.772
'[19:30:04.773 24/07/2074]',-142.222,154.725,-44.933,-53.529,-52.747,2.735,-1.563,-35.556,-60.952,-48.449,-39.463,-154.725,78.926,-264.518,-4.298,-115.653,-16.410,-5.470,45.714,-130.501,185.201,-160.195,-4.298
'[19:30:04.777 24/07/2074]',-130.891,183.248,-121.123,-32.430,-64.078,-0.391,-0.391,-37.118,-97.680,-45.714,-37.900,-110.183,58.999,-138.706,-180.513,-32.821,-21.490,-7.033,121.905,-153.553,158.632,-38.291,-180.513
'[19:30:04.781 24/07/2074]',-155.116,94.554,-10.940,-26.178,-78.926,1.954,0.781,-23.834,-106.276,-46.886,-35.946,-56.264,53.138,-218.413,-87.521,5.470,-17.192,-1.954,11.722,-64.078,176.996,-122.295,-87.521
'[19:30:04.785 24/07/2074]',-178.168,8.205,79.707,-16.801,-89.866,6.252,-2.735,-21.490,-107.057,-48.449,-34.383,-85.177,33.993,-211.380,-68.767,-30.476,-18.755,2.735,-78.926,29.304,152.772,-100.415,-68.767
'[19:30:04.789 24/07/2074]',-195.751,-10.159,105.495,12.503,-89.866,11.331,3.907,-14.066,-107.057,-34.774,-35.946,-67.985,24.225,-198.877,-68.767,-3.126,-17.582,3.126,-104.713,24.615,198.877,-94.164,-68.767
'[19:30:04.793 24/07/2074]',-202.002,32.821,81.661,0.781,-91.429,13.284,5.079,-14.066,-110.574,-30.867,-32.430,-50.403,28.913,-204.737,-61.734,10.940,-14.066,0.781,-80.879,-17.192,226.227,-113.309,-61.734
'[19:30:04.797 24/07/2074]',-211.770,96.117,25.397,-1.563,-98.071,6.252,5.470,-5.861,-119.560,-38.681,-35.165,-37.118,25.006,-273.504,-12.894,28.132,-18.364,3.126,-24.615,-90.647,232.088,-167.619,-12.894
'[19:30:04.801 24/07/2074]',-209.426,145.348,-37.509,-2.735,-110.183,0.000,6.252,-2.344,-130.501,-53.529,-37.509,-16.801,6.642,-316.093,-17.192,85.958,-26.178,2.344,38.291,-154.335,191.453,-177.778,-17.192
'[19:30:04.805 24/07/2074]',-209.817,180.513,-102.369,-9.377,-123.077,-10.940,4.298,-12.112,-170.745,-36.728,-37.118,-22.271,3.907,-316.093,-48.840,90.647,-30.867,-4.298,103.150,-184.420,187.937,-180.122,-48.840
'[19:30:04.809 24/07/2074]',-209.426,160.586,-75.800,-30.085,-129.719,-11.722,-2.344,-11.722,-163.321,-53.138,-42.979,-31.648,-14.066,-248.107,-87.521,56.264,-29.695,-5.861,76.581,-141.441,162.930,-129.328,-87.521
'[19:30:04.813 24/07/2074]',-207.473,127.375,-69.158,-14.847,-132.454,-7.424,-11.722,-12.894,-167.228,-52.747,-42.198,-20.317,-37.509,-124.249,-194.188,71.502,-33.993,-7.033,69.939,-118.779,144.567,-5.861,-194.188
'[19:30:04.816 24/07/2074]',-205.910,153.553,-89.866,-1.172,-118.388,-4.298,-1.563,-17.582,-153.944,-42.979,-31.258,-47.668,-26.960,76.581,-342.271,14.066,-28.913,-8.205,90.647,-158.632,215.678,159.805,-342.271
'[19:30:04.820 24/07/2074]',-200.440,139.096,-39.072,-31.648,-121.514,3.126,0.781,-14.847,-153.944,-51.966,-12.894,-75.800,-35.556,128.547,-347.350,-41.807,-24.225,-6.642,39.853,-112.527,169.573,209.426,-347.350
'[19:30:04.824 24/07/2074]',-217.241,153.553,-93.773,12.894,-139.878,-3.126,-6.642,6.642,-170.745,-60.952,-4.298,-80.098,-48.840,20.708,-253.187,-37.118,-32.430,-4.298,94.554,-156.288,175.043,126.984,-253.187
'[19:30:04.828 24/07/2074]',-210.598,83.223,-29.304,17.192,-132.063,-5.079,-6.642,5.861,-158.632,-55.092,-8.205,-64.469,-48.059,-177.387,-40.244,-21.880,-36.728,-4.689,30.085,-99.634,169.573,-57.045,-40.244
'[19:30:04.832 24/07/2074]',-210.598,25.788,7.814,18.755,-141.832,-11.331,-17.973,14.457,-177.778,-36.337,-23.834,-49.231,-55.092,-411.429,166.056,10.159,-44.151,-11.331,-7.033,-29.304,136.752,-281.709,166.056
'[19:30:04.836 24/07/2074]',-209.426,-2.735,19.927,26.178,-134.799,-11.722,-32.821,14.457,-150.037,-37.509,-35.165,-39.853,-50.403,-351.648,146.911,-10.159,-45.714,-14.847,-19.145,-12.894,184.811,-253.187,146.911
'[19:30:04.840 24/07/2074]',-191.844,8.987,-7.033,36.337,-116.044,-13.675,-31.648,9.377,-135.189,-24.225,-40.635,-18.364,-31.648,-261.783,66.813,4.689,-46.496,-18.755,7.814,-37.900,188.718,-145.739,66.813
'[19:30:04.844 24/07/2074]',-187.937,37.118,-35.165,31.648,-120.733,-17.582,-27.741,12.503,-133.236,-35.556,-34.383,-18.755,-38.681,-149.646,-56.654,20.708,-46.105,-26.569,35.946,-60.952,180.904,-44.542,-56.654
'[19:30:04.848 24/07/2074]',-203.956,111.355,-109.402,49.621,-128.938,-22.662,-23.834,25.397,-132.845,-50.012,-26.178,-1.954,-39.072,26.960,-211.770,9.768,-43.761,-28.132,110.183,-141.832,225.446,113.700,-211.770
'[19:30:04.852 24/07/2074]',-201.221,107.057,-132.454,61.734,-140.269,-29.695,-25.788,32.039,-148.083,-53.529,-23.053,17.582,-45.324,-15.629,-184.420,37.118,-46.886,-28.913,133.236,-129.328,204.737,67.204,-184.420
'[19:30:04.855 24/07/2074]',-208.254,-3.907,-15.629,74.628,-144.957,-26.178,-23.834,42.979,-135.580,-62.515,-26.178,17.192,-51.575,-135.971,-42.979,21.099,-50.794,-30.867,16.410,-31.648,217.241,-49.231,-42.979
'[19:30:04.859 24/07/2074]',-218.022,-85.958,73.065,81.661,-143.394,-19.145,-23.834,38.681,-125.031,-48.059,-31.648,-12.503,-51.575,-163.321,8.987,-13.675,-46.105,-30.867,-72.283,50.012,256.313,-110.965,8.987
'[19:30:04.863 24/07/2074]',-201.612,-86.349,56.654,86.349,-137.143,-18.755,-29.304,41.416,-116.044,-42.589,-39.463,-31.258,-51.966,-188.718,43.370,-33.993,-44.933,-27.350,-55.873,50.403,200.049,-105.495,43.370
'[19:30:04.867 24/07/2074]',-197.314,-78.144,54.310,82.833,-130.501,-19.536,-20.708,34.383,-103.150,-41.807,-40.635,-24.615,-45.714,-141.832,4.689,-29.695,-42.198,-25.788,-53.529,14.066,198.486,-32.821,4.689
'[19:30:04.871 24/07/2074]',-196.923,-18.364,-4.298,74.628,-135.189,-22.271,-19.536,33.602,-125.421,-42.198,-37.509,-8.596,-55.873,-28.132,-136.752,4.298,-39.463,-30.085,5.079,-21.880,178.950,62.515,-136.752
'[19:30:04.875 24/07/2074]',-182.076,65.250,-71.111,46.496,-131.282,-22.271,-20.708,34.383,-135.580,-44.151,-36.337,13.675,-60.562,70.330,-230.916,16.801,-34.383,-28.132,71.893,-92.210,163.321,141.050,-230.916
'[19:30:04.879 24/07/2074]',-173.089,76.190,-89.475,50.794,-123.858,-28.523,-16.801,35.165,-137.534,-46.105,-34.383,2.735,-54.701,95.726,-237.949,-19.536,-36.337,-25.788,90.256,-124.249,180.122,172.698,-237.949
'[19:30:04.883 24/07/2074]',-164.884,-37.900,19.536,47.277,-119.170,-16.801,-24.615,26.178,-144.957,-39.072,-37.118,-42.979,-64.860,-32.821,-106.667,-60.562,-35.165,-30.476,-18.755,-4.298,175.043,30.867,-106.667
'[19:30:04.887 24/07/2074]',-162.540,-46.886,30.867,46.886,-115.263,-19.145,-19.145,22.662,-138.706,-30.085,-40.244,-22.271,-62.125,-133.236,7.814,-46.105,-29.695,-30.867,-30.085,8.596,181.685,-80.488,7.814
'[19:30:04.891 24/07/2074]',-154.725,-48.059,17.582,57.436,-110.183,-21.490,-19.927,24.225,-130.501,-30.085,-40.635,-0.781,-62.125,-202.784,92.991,-32.039,-27.741,-26.569,-16.801,-1.954,168.400,-134.408,92.991
'[19:30:04.895 24/07/2074]',-148.083,-44.933,20.317,50.794,-103.932,-17.192,-17.973,17.973,-117.998,-25.788,-40.244,16.410,-64.860,-225.446,117.216,2.344,-26.569,-24.615,-19.536,-2.344,129.328,-143.394,117.216
'[19:30:04.898 24/07/2074]',-143.394,21.880,-8.987,20.708,-100.024,-12.894,-7.814,12.112,-104.322,-22.271,-41.416,53.529,-55.873,-157.070,47.277,48.840,-18.755,-23.053,9.768,-46.496,132.454,-107.448,47.277
'[19:30:04.902 24/07/2074]',-126.203,-16.410,37.509,29.695,-83.614,-5.079,-7.424,21.880,-90.256,-15.629,-32.821,18.364,-59.780,-90.647,7.033,21.490,-8.987,-15.629,-36.728,-4.689,95.726,-42.198,7.033
'[19:30:04.906 24/07/2074]',-118.779,-105.104,118.779,39.853,-72.674,0.781,-5.470,12.503,-81.661,-8.205,-31.648,-19.145,-56.654,-63.297,-41.416,18.755,-5.079,-14.847,-117.998,57.045,90.256,5.470,-41.416
'[19:30:04.910 24/07/2074]',-121.514,-38.681,43.761,46.496,-73.065,0.000,1.172,1.954,-82.833,3.516,-33.993,-19.536,-57.827,-62.515,-26.569,12.503,0.391,-17.582,-42.979,-15.629,121.123,-11.331,-26.569
'[19:30:04.914 24/07/2074]',-125.031,-28.523,16.801,50.794,-76.190,-7.033,3.907,-5.079,-88.303,4.298,-30.476,-2.344,-71.502,-22.271,-47.277,23.053,3.907,-13.675,-16.020,-43.370,112.918,40.244,-47.277
'[19:30:04.918 24/07/2074]',-118.779,25.006,-21.880,23.834,-68.767,-6.252,0.391,-14.066,-89.475,1.954,-28.523,0.781,-69.548,-23.834,-31.648,9.768,1.172,-8.596,22.662,-104.713,112.918,42.589,-31.648
'[19:30:04.922 24/07/2074]',-113.309,219.585,-209.426,4.298,-65.641,-12.894,5.861,-24.615,-81.270,8.205,-29.304,7.424,-69.939,-46.886,26.569,-5.470,0.391,-10.549,210.208,-281.319,94.945,8.205,26.569
'[19:30:04.926 24/07/2074]',-103.150,89.475,-73.846,-19.927,-58.608,-8.205,-6.252,-32.039,-77.363,2.735,-33.211,-7.424,-74.237,-12.503,1.954,-30.867,0.391,-15.238,74.628,-127.766,56.654,36.728,1.954
'[19:30:04.930 24/07/2074]',-93.773,-76.190,91.429,-21.880,-45.324,0.391,-23.053,-31.648,-74.628,1.954,-33.602,-22.662,-85.958,-29.304,16.410,-31.648,-2.735,-11.331,-90.647,27.741,25.006,33.993,16.410
'[19:30:04.934 24/07/2074]',-95.726,-107.839,115.263,-12.894,-41.416,1.954,-21.880,-40.635,-64.078,5.470,-37.118,-12.503,-80.879,-30.476,13.675,-10.940,-3.516,-12.112,-114.481,39.853,41.416,39.463,13.675
'[19:30:04.938 24/07/2074]',-96.899,-130.501,136.361,-8.205,-40.635,7.814,-19.927,-45.324,-67.985,3.907,-35.946,-8.596,-82.833,-50.012,25.006,-2.344,-2.344,-11.331,-135.580,64.860,55.482,12.112,25.006
'[19:30:04.941 24/07/2074]',-92.601,-116.044,127.766,0.391,-41.416,9.768,-15.629,-31.258,-69.939,0.391,-28.523,-5.470,-87.131,-69.548,29.304,21.490,-1.954,0.000,-126.984,61.343,25.397,3.516,29.304
'[19:30:04.945 24/07/2074]',-95.336,-26.569,38.291,7.033,-45.324,6.252,-5.861,-29.304,-67.595,-0.781,-25.006,-9.768,-86.349,-105.104,66.813,18.364,-5.079,5.470,-37.509,-28.132,23.443,-21.880,66.813
'[19:30:04.949 24/07/2074]',-92.210,41.416,-38.681,16.801,-46.105,5.470,-0.391,-29.695,-67.985,3.126,-25.788,-15.629,-81.270,-130.501,106.276,-1.954,0.000,2.344,39.463,-77.363,37.900,-67.595,106.276
'[19:30:04.953 24/07/2074]',-89.475,41.416,-39.072,10.940,-53.138,3.516,-0.781,-23.834,-75.409,0.391,-23.443,-26.569,-81.661,-102.759,53.529,3.516,3.126,1.954,39.853,-53.529,8.596,-37.900,53.529
'[19:30:04.957 24/07/2074]',-93.382,31.648,-25.006,10.940,-53.138,3.907,0.000,-25.006,-73.846,3.516,-25.397,-35.556,-77.363,-38.291,1.954,-18.755,5.861,3.516,25.788,-66.813,47.277,19.536,1.954
'[19:30:04.961 24/07/2074]',-96.508,47.668,-37.118,6.642,-50.794,9.377,-2.735,-33.993,-71.893,8.596,-28.523,-48.059,-58.999,20.708,-35.556,-67.204,6.642,-0.781,37.900,-85.568,93.773,64.469,-35.556
'[19:30:04.965 24/07/2074]',-84.786,28.132,-4.298,-17.192,-51.575,14.066,-8.987,-30.867,-85.177,2.735,-31.648,-26.569,-56.654,35.556,-89.866,-30.085,7.424,-2.735,5.079,-33.602,50.012,80.098,-89.866
'[19:30:04.969 24/07/2074]',-79.316,0.391,9.768,-13.675,-54.701,12.503,-15.238,-24.225,-87.131,-4.689,-36.337,-12.503,-58.608,-38.291,-44.933,0.000,3.907,-2.344,-8.987,-6.252,24.225,21.880,-44.933
'[19:30:04.973 24/07/2074]',-79.707,25.006,-29.304,-8.987,-59.389,9.377,-13.284,-28.913,-89.866,3.126,-41.416,-19.536,-45.714,-50.794,-22.662,-28.523,0.781,-5.861,30.085,-41.416,61.734,1.563,-22.662
'[19:30:04.977 24/07/2074]',-75.018,-7.424,-9.377,1.563,-62.515,7.424,-6.642,-27.350,-94.554,1.563,-48.840,8.987,-39.072,-84.786,-20.317,11.722,0.391,-11.722,10.159,5.079,73.846,-41.807,-20.317
'[19:30:04.980 24/07/2074]',-75.018,-70.720,51.966,14.066,-64.469,12.112,-8.596,-16.410,-89.866,7.424,-52.357,15.238,-38.291,-105.885,0.391,24.615,6.252,-7.033,-51.184,62.906,97.680,-81.270,0.391
'[19:30:04.984 24/07/2074]',-75.018,-69.548,61.734,11.331,-58.217,18.364,-9.377,-20.317,-82.051,11.722,-46.105,-20.317,-23.443,-26.569,-23.834,-62.125,7.033,-3.126,-60.952,39.072,148.474,-7.033,-23.834
'[19:30:04.988 24/07/2074]',-62.125,-35.165,32.039,11.331,-57.045,22.271,-7.424,-9.768,-89.084,3.126,-40.244,-7.033,-22.271,-12.112,-62.515,-35.556,7.033,-5.079,-31.258,40.244,98.852,14.457,-62.515
'[19:30:04.992 24/07/2074]',-54.310,0.391,-9.377,-2.344,-64.860,19.927,-14.066,-5.861,-96.117,-7.424,-35.556,15.238,-32.430,8.596,-96.508,-3.907,5.861,-3.907,10.159,27.741,42.198,35.946,-96.508
'[19:30:04.996 24/07/2074]',-57.045,48.449,-73.455,-4.689,-71.893,10.549,-16.020,-8.205,-102.369,-15.629,-32.039,-26.960,-35.165,32.821,-116.825,-59.389,-1.954,-0.391,74.237,-52.357,45.714,85.177,-116.825
'[19:30:05.000 24/07/2074]',-65.250,19.536,-57.827,-18.755,-83.614,2.344,-13.284,-26.569,-112.137,-21.880,-34.774,-54.701,-30.085,52.747,-169.182,-78.535,-11.722,-5.861,58.608,-46.496,105.885,85.568,-169.182
'[19:30:05.004 24/07/2074]',-67.204,-28.132,-13.284,-12.503,-81.270,2.344,-15.238,-26.569,-109.011,-19.536,-30.476,-33.993,-25.788,-8.987,-81.661,-77.363,-9.768,-7.424,14.066,5.079,128.938,-2.735,-81.661
'[19:30:05.008 24/07/2074]',-71.893,-74.628,31.648,-19.145,-81.270,1.172,-22.271,-31.258,-110.183,-16.410,-34.774,-28.132,-21.880,-105.885,9.768,-73.065,-7.814,-6.252,-30.867,35.946,173.480,-122.295,9.768
'[19:30:05.012 24/07/2074]',-64.469,-38.681,13.284,-34.774,-76.581,7.033,-25.788,-28.523,-107.057,-13.284,-32.821,-26.178,-25.397,-115.263,12.894,-52.357,-6.642,-8.205,-12.503,5.861,123.077,-109.011,12.894
'[19:30:05.016 24/07/2074]',-51.575,8.205,-41.026,-24.225,-66.422,8.205,-28.523,-21.490,-94.945,-10.159,-25.788,-1.563,-19.927,-35.946,-35.946,-41.026,0.391,-12.503,41.807,-7.033,77.753,-37.118,-35.946
'[19:30:05.020 24/07/2074]',-38.681,-27.741,0.781,-47.277,-58.608,7.424,-31.648,-29.695,-92.601,-12.894,-25.788,-5.470,-24.225,45.714,-131.282,-27.350,3.516,-10.549,0.000,39.463,43.761,38.681,-131.282
'[19:30:05.023 24/07/2074]',-37.509,-16.410,-19.536,-55.873,-56.264,4.689,-33.602,-42.979,-81.661,-22.271,-29.695,-32.821,-15.629,89.866,-199.658,-42.589,-1.954,-12.503,20.317,-4.298,78.144,85.568,-199.658
'[19:30:05.027 24/07/2074]',-27.350,-21.099,-12.503,-55.873,-48.059,6.642,-32.039,-43.370,-71.502,-20.708,-27.350,-29.304,-8.596,157.070,-271.160,-28.523,-1.172,-12.503,13.284,4.298,70.330,147.692,-271.160
'[19:30:05.031 24/07/2074]',-26.960,10.159,-43.370,-62.125,-49.231,2.735,-33.602,-41.026,-83.614,-21.099,-34.774,-17.973,-23.053,-55.092,-87.131,5.861,0.000,-11.331,44.151,-18.364,46.886,-62.906,-87.131
'[19:30:05.035 24/07/2074]',-23.443,89.866,-116.435,-63.687,-53.919,3.516,-28.132,-34.383,-80.488,-13.284,-28.523,-22.271,-33.993,-150.037,46.105,-9.377,1.172,-6.642,117.216,-83.614,-3.516,-143.785,46.105
'[19:30:05.039 24/07/2074]',-21.099,29.695,-62.906,-40.244,-50.012,5.470,-26.569,-22.271,-75.800,-6.642,-17.973,-37.509,-37.509,-74.237,4.298,-32.039,4.689,-6.252,63.687,-32.039,-23.443,-47.668,4.298
'[19:30:05.043 24/07/2074]',-23.053,9.768,-45.324,-22.662,-43.761,8.205,-24.225,-21.880,-67.595,-2.344,-8.205,-32.430,-32.039,-27.350,-19.927,-32.430,9.377,-5.470,46.105,-3.516,11.331,-33.993,-19.927
'[19:30:05.047 24/07/2074]',-32.039,20.317,-63.297,-7.814,-45.714,0.000,-17.192,-17.582,-62.125,-0.781,-9.377,-26.569,-18.755,119.951,-172.308,-28.523,8.205,0.781,64.078,-22.662,52.357,96.117,-172.308
'[19:30:05.051 24/07/2074]',-28.523,-18.755,-33.602,4.298,-35.946,-1.563,-21.099,-16.020,-58.999,1.954,-14.847,-3.516,-7.424,105.495,-195.751,19.927,4.689,0.781,34.383,0.391,80.879,85.568,-195.751
'[19:30:05.055 24/07/2074]',-27.741,19.536,-50.403,-26.178,-30.476,-4.298,-14.847,-33.211,-56.654,3.516,-13.284,-5.470,-7.033,-56.264,-42.589,33.211,4.689,-0.781,51.184,-30.867,76.190,-73.846,-42.589
'[19:30:05.059 24/07/2074]',-23.443,42.979,-62.515,-32.821,-28.913,-4.689,-19.145,-21.880,-58.217,10.940,-19.536,-33.211,-11.722,-121.514,35.946,-4.298,6.642,1.563,63.297,-27.741,26.960,-125.421,35.946
'[19:30:05.063 24/07/2074]',-24.615,-61.343,40.635,-41.807,-31.258,-2.735,-23.443,-27.741,-53.529,5.861,-19.145,-53.919,-21.490,-142.613,87.131,-44.542,3.907,0.391,-39.853,56.264,21.099,-127.375,87.131
'[19:30:05.066 24/07/2074]',-25.788,-144.176,138.315,-38.291,-32.039,5.861,-19.927,-23.834,-49.231,3.516,-10.940,-72.283,-24.615,-130.110,87.912,-63.297,5.470,0.781,-137.534,136.752,10.549,-102.759,87.912
'[19:30:05.070 24/07/2074]',-35.165,-62.125,48.840,-22.271,-39.463,4.298,-19.536,-15.238,-48.449,5.861,-15.238,-89.475,-19.145,-36.337,-13.675,-78.535,10.549,-1.563,-48.059,64.469,37.900,-34.383,-13.675
'[19:30:05.074 24/07/2074]',-31.258,-23.053,12.503,-32.821,-44.542,-2.344,-12.503,-13.284,-50.012,0.391,-15.629,-47.668,-22.662,34.774,-102.759,-24.225,8.987,1.172,-11.722,28.132,18.755,38.291,-102.759
'[19:30:05.078 24/07/2074]',-30.085,26.178,-44.542,-43.370,-46.496,-9.768,-13.284,-20.708,-51.575,-13.675,-23.834,-45.714,-33.211,49.231,-155.897,1.563,0.391,-3.907,45.324,-26.569,7.814,61.734,-155.897
'[19:30:05.082 24/07/2074]',-27.741,180.513,-197.705,-52.357,-47.668,-17.582,-9.768,-20.317,-54.701,-21.880,-21.099,-49.621,-35.556,62.906,-183.248,6.642,-3.907,-8.987,198.486,-155.897,-17.582,69.939,-183.248
'[19:30:05.086 24/07/2074]',-32.821,49.231,-55.873,-41.807,-44.151,-21.490,-5.861,-8.987,-55.092,-29.695,-22.271,-7.814,-40.244,20.708,-122.686,24.225,-6.642,-6.252,56.654,-32.039,1.563,21.880,-122.686
'[19:30:05.090 24/07/2074]',-32.430,-0.781,-20.317,-30.476,-34.383,-17.192,-15.629,-15.629,-41.026,-34.774,-37.118,2.735,-40.635,-126.984,22.662,32.430,-14.847,-12.112,21.099,3.516,3.516,-109.402,22.662
'[19:30:05.094 24/07/2074]',-26.178,-41.026,14.066,-12.894,-25.397,-11.331,-14.847,-12.894,-42.589,-16.020,-32.821,-9.768,-38.291,-103.150,39.853,-1.172,-13.675,-15.629,-13.284,46.496,-14.066,-73.065,39.853
'[19:30:05.098 24/07/2074]',-36.337,-55.482,44.933,-12.112,-24.225,-7.033,-14.847,-10.159,-37.900,-14.847,-33.211,-36.728,-41.416,-82.833,46.886,-47.668,-9.768,-15.629,-44.151,51.184,10.940,-57.827,46.886
'[19:30:05.102 24/07/2074]',-24.615,-6.252,-16.020,-29.304,-22.662,-5.861,-23.053,-23.053,-36.337,-17.582,-44.542,-39.463,-42.198,15.238,-63.687,-48.449,-12.112,-21.099,16.801,8.987,-7.033,38.681,-63.687
'[19:30:05.105 24/07/2074]',-21.880,-24.225,32.430,-58.999,-21.099,3.516,-17.973,-35.165,-39.463,-22.662,-37.900,-47.668,-41.416,76.581,-131.282,-54.310,-14.457,-24.615,-31.648,32.039,-4.689,97.289,-131.282
'[19:30:05.109 24/07/2074]',-27.741,-92.601,134.017,-74.237,-19.927,10.549,-15.629,-33.993,-37.900,-32.821,-35.165,-22.271,-35.556,45.714,-115.653,-23.834,-12.894,-23.443,-133.236,105.104,25.788,49.621,-115.653
'[19:30:05.113 24/07/2074]',-35.165,-30.867,59.780,-55.873,-21.099,4.689,-16.801,-27.350,-41.416,-32.430,-39.463,-3.126,-41.807,5.861,-78.535,-4.298,-18.755,-16.020,-58.999,24.615,39.853,16.410,-78.535
'[19:30:05.117 24/07/2074]',-36.728,51.575,-41.026,-40.244,-23.834,-3.907,-11.722,-24.615,-42.198,-25.006,-38.681,3.126,-48.059,-55.873,18.364,-19.927,-25.006,-14.457,41.807,-53.138,5.470,-26.178,18.364
'[19:30:05.121 24/07/2074]',-41.416,122.295,-119.951,-20.708,-26.569,-12.503,-5.079,-13.284,-38.291,-19.145,-30.867,-70.720,-39.853,-5.079,-1.954,-114.090,-23.053,-14.847,120.733,-118.388,23.834,4.298,-1.954
'[19:30:05.125 24/07/2074]',-37.900,207.082,-255.531,14.847,-27.741,-23.443,-12.112,-5.079,-42.979,-18.755,-31.258,-54.701,-41.026,24.615,-34.383,-98.852,-22.271,-13.284,256.313,-203.956,14.066,32.430,-34.383
'[19:30:05.129 24/07/2074]',-29.304,77.753,-111.355,-24.225,-27.741,-14.847,-17.582,-24.225,-41.026,-12.894,-39.072,-46.496,-32.821,-94.554,75.800,-90.647,-27.350,-13.284,112.137,-70.330,-4.689,-78.535,75.800
'[19:30:05.133 24/07/2074]',-26.960,-44.933,25.788,-30.867,-22.271,-2.344,-19.536,-30.476,-28.523,-11.722,-39.072,-52.747,-19.145,-192.625,151.600,-74.628,-25.788,-13.284,-25.006,54.701,8.987,-185.983,151.600
'[19:30:05.137 24/07/2074]',-18.364,-91.429,71.502,-51.966,-27.350,1.563,-27.741,-35.165,-42.979,-10.159,-39.853,-3.126,-37.900,-175.433,94.554,19.145,-26.960,-10.940,-70.720,113.700,-37.900,-169.182,94.554
'[19:30:05.141 24/07/2074]',-20.317,-156.679,132.454,-44.933,-30.867,0.391,-25.397,-30.476,-45.324,-9.768,-32.821,17.582,-40.635,-104.713,47.277,24.615,-30.867,-4.298,-131.673,173.480,-46.496,-89.475,47.277
'[19:30:05.145 24/07/2074]',-34.383,-121.123,125.031,-43.370,-25.788,4.298,-20.317,-30.867,-33.993,-7.814,-17.973,-25.397,-29.695,81.270,-93.382,-44.933,-27.350,0.000,-124.249,123.077,-2.344,88.694,-93.382
'[19:30:05.148 24/07/2074]',-10.159,-16.410,-10.549,-37.118,-16.801,-10.159,-21.099,-25.006,-33.993,-17.582,-7.033,-13.675,-25.006,153.553,-168.791,-33.602,-25.397,-0.781,11.331,3.126,3.907,144.957,-168.791
'[19:30:05.152 24/07/2074]',3.126,15.238,-66.032,-22.271,-12.503,-27.741,-10.549,-16.020,-27.350,-16.020,-7.033,-7.424,-14.847,-8.596,14.066,-50.794,-25.397,1.563,66.813,-35.165,0.781,-8.205,14.066
'[19:30:05.156 24/07/2074]',1.563,100.806,-123.468,-33.993,-9.768,-18.364,-7.814,-16.020,-14.847,-11.722,-10.159,-25.788,-9.768,-76.190,74.628,-52.747,-25.006,0.781,124.249,-117.607,-15.238,-58.999,74.628
'[19:30:05.160 24/07/2074]',4.298,267.643,-288.742,-31.258,-8.596,-25.397,-3.126,-8.596,-10.940,-10.940,-14.847,-17.192,-10.159,-141.441,116.825,-21.490,-25.397,-5.079,289.524,-254.359,-44.933,-125.031,116.825
'[19:30:05.164 24/07/2074]',1.954,210.598,-243.028,-31.258,-29.304,-28.913,0.391,-2.344,-21.490,-17.582,-21.099,33.211,-13.675,-81.270,22.662,43.370,-30.085,-6.252,243.810,-137.534,-110.574,-60.952,22.662
'[19:30:05.168 24/07/2074]',-2.344,-28.132,21.880,-46.496,-19.536,-3.516,-22.662,-6.642,-17.192,-30.476,-15.629,1.954,-5.470,33.993,-87.521,-4.689,-30.476,-5.470,-21.099,76.190,-62.125,49.231,-87.521
'[19:30:05.172 24/07/2074]',1.563,-16.801,12.894,-60.171,-7.424,1.563,-33.993,-21.099,-6.642,-33.211,-10.940,-33.993,10.940,70.330,-110.965,-58.217,-30.867,-9.377,-12.112,16.801,11.722,74.237,-110.965
'[19:30:05.176 24/07/2074]',38.681,-128.156,96.117,-61.734,-1.172,-0.391,-33.602,-16.801,-7.424,-35.165,-8.596,-6.252,7.424,-3.126,-17.192,-48.449,-29.304,-7.424,-95.336,79.316,31.258,-12.112,-17.192
'[19:30:05.180 24/07/2074]',13.284,-54.310,22.271,-48.059,-19.145,-6.642,-26.960,-11.331,-18.755,-32.039,-10.940,-30.476,-3.907,-115.653,92.601,-67.595,-32.821,-2.344,-21.490,51.575,-20.317,-107.448,92.601
'[19:30:05.184 24/07/2074]',11.331,15.238,-34.774,-63.687,-27.741,2.735,-28.913,-15.238,-32.039,-26.178,-8.205,-35.556,-18.364,-174.261,134.017,-45.714,-35.556,0.781,35.556,-36.728,-48.059,-137.143,134.017
'[19:30:05.188 24/07/2074]',3.126,46.105,-71.502,-56.264,-37.509,-7.424,-19.536,-11.722,-46.886,-26.569,-10.159,-3.516,-26.569,-75.018,18.364,-5.861,-35.165,0.000,72.283,-12.894,-93.773,-42.198,18.364
'[19:30:05.191 24/07/2074]',-14.066,123.077,-174.652,-41.026,-53.919,-27.350,-16.020,-7.424,-67.595,-38.291,-13.675,-10.159,-13.675,-47.668,-64.860,-4.689,-38.291,0.391,175.433,-45.324,-98.462,-19.145,-64.860
'[19:30:05.195 24/07/2074]',10.940,135.580,-228.962,-32.430,-41.416,-28.913,-29.695,-12.112,-62.515,-37.900,-11.722,-34.383,-12.112,-60.562,-30.085,-45.324,-39.072,0.000,229.744,-191.844,-8.987,-14.066,-30.085
'[19:30:05.199 24/07/2074]',14.847,50.794,-104.713,-34.774,-7.814,-19.145,-20.708,-23.053,-30.085,-18.755,-11.331,-24.225,12.112,89.475,-139.096,-51.575,-25.788,-2.344,105.495,-110.965,57.436,104.322,-139.096
'[19:30:05.203 24/07/2074]',5.861,64.469,-109.792,5.079,0.000,-21.880,-9.768,0.781,-22.662,-19.536,-9.377,31.648,42.979,136.752,-220.366,16.020,-16.020,0.391,110.574,-99.634,102.759,128.156,-220.366
'[19:30:05.207 24/07/2074]',-11.331,34.383,-69.939,4.689,-11.331,-21.099,-9.377,1.563,-26.569,-13.675,-10.549,7.033,35.165,-16.410,-71.893,5.470,-18.755,1.563,70.720,-42.198,75.018,-21.490,-71.893
'[19:30:05.211 24/07/2074]',-16.801,-60.952,93.773,-48.449,7.033,0.781,-19.145,-20.317,-19.145,-6.252,-15.629,14.847,51.966,-33.602,-82.051,33.993,-12.503,-1.954,-92.991,97.680,41.416,-14.847,-82.051
'[19:30:05.215 24/07/2074]',-3.126,16.020,13.675,-64.469,10.549,0.781,-22.271,-26.178,-21.099,-17.973,-18.364,6.252,53.919,-67.204,-78.926,37.509,-8.596,-4.298,-12.894,21.099,32.430,-45.714,-78.926
'[19:30:05.219 24/07/2074]',-0.781,127.375,-82.442,-85.177,8.987,8.205,-29.695,-28.523,-18.364,-13.284,-26.178,-58.217,48.449,-197.705,86.349,-57.436,-8.205,-3.516,83.223,-113.700,42.589,-171.917,86.349
'[19:30:05.223 24/07/2074]',21.490,83.614,-32.821,-92.991,27.350,18.364,-26.178,-39.072,-6.642,-1.954,-27.741,-89.084,52.357,-132.063,43.370,-92.991,-3.126,-6.252,33.602,-112.918,60.562,-92.601,43.370
'[19:30:05.227 24/07/2074]',16.801,62.906,-18.755,-57.827,28.913,23.053,-18.755,-28.523,2.344,-1.954,-23.834,-68.376,57.827,1.172,-69.548,-85.568,0.391,-9.768,19.536,-66.422,64.469,25.006,-69.548
'[19:30:05.230 24/07/2074]',-4.689,86.740,-47.668,-23.834,17.973,22.662,-15.238,-14.457,0.781,-1.563,-20.708,-33.602,67.204,-3.516,-55.092,-66.032,2.344,-5.079,48.449,-84.786,91.038,14.847,-55.092
'[19:30:05.234 24/07/2074]',-23.443,139.487,-126.593,13.284,4.298,10.549,-9.377,-2.344,-6.642,-9.377,-22.662,-17.582,53.529,7.814,-78.926,-41.416,-1.954,-6.252,127.375,-118.388,65.641,41.026,-78.926
'[19:30:05.238 24/07/2074]',-26.569,194.188,-193.407,23.053,0.391,3.126,-0.391,-5.079,-10.159,-12.503,-15.629,-7.033,47.668,26.960,-100.415,-22.271,-0.391,-11.722,194.188,-118.388,26.569,44.151,-100.415
'[19:30:05.242 24/07/2074]',-17.192,119.560,-98.852,16.801,11.331,14.066,-8.205,2.344,0.391,-18.755,-15.238,11.722,42.979,-16.020,-34.383,-15.629,7.033,-7.814,99.634,-82.051,67.204,-18.364,-34.383
'[19:30:05.246 24/07/2074]',-23.443,69.158,-46.886,31.258,11.722,10.549,-3.516,11.722,-5.079,-8.596,-19.536,-17.973,33.602,-95.726,54.310,-46.496,7.033,-6.252,47.668,-41.416,69.548,-89.475,54.310
'[19:30:05.250 24/07/2074]',15.238,-26.178,55.873,-3.126,31.648,21.099,-8.205,-1.563,5.079,-5.861,-12.503,-21.099,34.383,-73.455,20.317,-18.755,10.159,-6.642,-55.092,19.145,53.919,-65.641,20.317
'[19:30:05.254 24/07/2074]',10.940,-98.852,168.400,-28.913,37.118,35.946,-15.238,-5.861,3.126,5.861,-8.987,12.112,44.542,-129.719,106.276,-10.940,17.973,-5.470,-167.619,76.581,87.912,-133.236,106.276
'[19:30:05.258 24/07/2074]',1.954,-20.317,73.455,-10.549,29.304,27.741,-14.457,2.735,10.940,-12.894,-11.331,14.847,33.602,-124.640,64.078,26.178,15.629,-1.954,-72.674,4.689,42.198,-95.726,64.078
'[19:30:05.262 24/07/2074]',-2.735,33.993,-12.503,20.317,24.225,12.894,-6.642,8.987,0.000,-10.940,-7.424,3.907,28.523,11.722,-61.734,4.689,12.894,-3.516,13.284,-47.668,61.343,25.006,-61.734
'[19:30:05.266 24/07/2074]',-9.768,99.634,-87.521,30.476,17.973,6.252,3.516,3.907,-3.907,0.000,0.781,21.490,18.755,53.919,-64.860,8.205,17.973,-5.470,88.303,-85.177,40.244,50.403,-64.860
'[19:30:05.270 24/07/2074]',-21.490,112.918,-123.468,82.833,8.596,-5.470,17.973,29.304,5.861,-15.629,8.596,-7.424,17.192,183.248,-198.095,-12.503,19.927,1.563,124.249,-90.256,48.449,176.215,-198.095
'[19:30:05.273 24/07/2074]',-20.317,53.138,-51.966,82.051,8.987,-3.907,26.178,30.867,-5.079,-5.861,17.192,0.000,19.145,159.805,-168.791,-6.642,17.973,6.642,52.747,-53.919,82.833,145.348,-168.791
'[19:30:05.277 24/07/2074]',-15.238,-10.549,75.018,22.271,11.722,11.331,30.476,16.801,-1.954,-3.516,21.880,60.952,15.238,48.449,-61.343,72.283,21.490,10.159,-74.237,5.861,53.919,48.059,-61.343
'[19:30:05.281 24/07/2074]',-21.490,-30.085,98.852,33.602,7.033,13.284,25.397,33.993,0.391,-8.987,18.364,25.006,16.410,-144.176,132.845,26.960,25.397,12.503,-98.071,15.629,55.482,-132.454,132.845
'[19:30:05.285 24/07/2074]',-21.880,-62.906,118.388,42.589,7.424,12.503,21.490,33.602,-2.735,-3.126,14.066,28.132,5.470,-169.182,163.712,35.165,26.960,13.284,-117.607,38.291,30.085,-139.487,163.712
'[19:30:05.289 24/07/2074]',-20.317,-12.112,61.343,42.979,9.768,10.159,23.443,25.788,-0.391,8.596,7.814,-12.503,11.331,-109.011,98.071,2.344,32.039,6.252,-60.562,-6.642,46.105,-96.899,98.071
'[19:30:05.293 24/07/2074]',-21.490,73.065,-48.449,74.628,10.549,3.907,26.960,35.165,3.516,12.112,7.424,-52.357,13.675,-44.151,43.761,-43.370,36.728,3.907,49.231,-77.753,35.556,-35.556,43.761
'[19:30:05.297 24/07/2074]',-25.788,82.051,-62.125,68.767,5.470,-3.516,29.695,31.258,1.954,7.424,-1.954,-46.886,16.801,54.701,-100.415,-11.331,32.430,5.470,62.906,-88.694,61.734,50.794,-100.415
'[19:30:05.301 24/07/2074]',-30.867,21.880,28.913,44.542,6.642,5.470,32.039,19.145,-1.954,6.642,-3.907,10.159,19.536,49.231,-114.872,54.310,28.132,9.768,-28.132,-32.039,85.568,44.542,-114.872
'[19:30:05.305 24/07/2074]',-30.085,-37.118,105.104,13.284,7.424,14.847,24.615,2.735,0.391,1.954,-2.735,9.377,21.099,-47.668,-2.735,36.337,28.523,6.252,-104.322,39.072,74.237,-51.966,-2.735
'[19:30:05.309 24/07/2074]',-33.211,-81.661,171.917,-9.768,5.079,19.927,22.662,-1.954,7.424,3.516,-4.298,14.066,16.410,-76.581,34.383,44.151,30.867,10.549,-171.136,85.177,70.330,-81.661,34.383
'[19:30:05.313 24/07/2074]',-41.026,-107.057,188.718,-3.907,3.516,23.053,16.410,-9.377,8.596,-0.391,-8.987,52.747,16.020,-11.722,-46.496,92.601,26.569,11.722,-187.937,92.601,77.753,4.298,-46.496
'[19:30:05.316 24/07/2074]',-42.589,-25.397,93.773,1.954,5.079,17.582,21.880,-17.973,12.112,5.861,1.954,-39.463,20.708,41.807,-31.648,-51.184,28.132,8.596,-92.991,12.894,81.270,60.171,-31.648
'[19:30:05.320 24/07/2074]',-41.807,38.681,32.430,10.159,5.861,13.675,23.834,-5.470,18.364,6.252,0.391,-27.350,30.476,59.780,-56.654,-36.337,32.430,9.377,-31.648,-37.900,105.885,50.794,-56.654
'[19:30:05.324 24/07/2074]',-43.370,114.090,-62.515,16.801,5.079,3.126,23.443,-7.033,14.847,5.470,-6.252,6.252,33.602,76.190,-94.945,3.516,28.523,11.331,63.297,-108.620,108.620,68.767,-94.945
'[19:30:05.328 24/07/2074]',-36.337,104.713,-63.687,12.503,10.549,3.516,18.364,-16.801,21.099,10.940,-4.689,-26.178,35.165,-14.457,21.490,-41.807,29.695,8.205,64.469,-87.912,86.740,-21.880,21.490
'[19:30:05.332 24/07/2074]',-35.165,93.773,-50.794,15.238,11.331,4.689,12.894,-7.424,26.569,19.145,-7.814,-12.112,38.291,-59.780,77.753,-31.648,33.993,6.252,51.575,-69.548,83.223,-73.846,77.753
'[19:30:05.336 24/07/2074]',-38.681,-33.993,102.369,-14.847,12.894,12.894,4.689,-18.755,30.476,21.099,-7.424,-19.145,33.211,-87.131,104.713,-26.960,35.165,10.940,-101.587,56.264,66.422,-91.038,104.713
'[19:30:05.340 24/07/2074]',-32.821,-71.111,139.878,-16.801,19.145,17.192,2.735,-23.053,26.178,25.788,-1.563,-50.794,29.304,-63.687,95.336,-61.343,32.039,12.112,-139.096,73.455,54.310,-43.370,95.336
'[19:30:05.344 24/07/2074]',-29.695,-46.496,127.375,-12.894,24.225,16.410,11.722,-16.801,25.788,29.304,4.689,-48.449,32.430,0.781,32.821,-54.310,32.430,14.457,-126.593,39.853,80.488,5.861,32.821
'[19:30:05.348 24/07/2074]',-32.039,-40.244,101.197,6.642,17.582,1.172,20.708,-6.642,21.490,28.523,5.470,-14.066,33.602,68.376,-42.589,-18.364,29.695,19.536,-100.415,44.933,97.680,44.933,-42.589
'[19:30:05.352 24/07/2074]',-35.556,41.026,-6.642,42.589,8.987,-15.238,36.728,8.987,19.145,20.317,12.894,9.377,32.430,56.654,-55.092,27.741,24.615,24.615,7.424,-7.814,74.237,27.741,-55.092
'[19:30:05.355 24/07/2074]',-43.761,50.012,-16.410,59.780,5.079,-16.410,46.105,12.894,21.490,20.317,19.927,23.053,42.589,55.873,-42.979,30.476,21.490,26.178,17.192,-22.662,102.369,18.755,-42.979
'[19:30:05.359 24/07/2074]',-25.006,11.722,11.722,49.231,7.814,-18.755,45.714,11.722,29.304,22.662,30.476,29.304,48.449,47.277,12.894,3.126,23.834,31.258,-10.940,-1.954,99.243,7.814,12.894
'[19:30:05.363 24/07/2074]',-35.165,31.648,47.668,4.298,3.907,-5.861,48.840,1.172,29.695,19.536,35.556,14.066,50.403,58.217,-3.907,-4.298,20.708,40.635,-46.886,-2.735,58.999,50.794,-3.907
'[19:30:05.367 24/07/2074]',0.391,27.350,41.416,-9.768,23.834,4.689,35.556,-5.079,32.039,21.490,37.118,8.987,47.277,104.713,-38.681,-10.940,17.582,43.370,-40.635,-75.800,67.985,125.812,-38.681
'[19:30:05.371 24/07/2074]',-2.735,-8.205,64.860,0.000,19.927,1.954,35.165,-4.298,35.556,20.708,30.476,10.940,46.105,85.177,-46.105,13.284,16.801,39.072,-64.078,-17.582,53.138,99.243,-46.105
