'Time and date','FP1-F7','F7-T7','T7-P7','P7-O1','FP1-F3','F3-C3','C3-P3','P3-O1','FP2-F4','F4-C4','C4-P4','P4-O2','FP2-F8','F8-T8','T8-P8','P8-O2','FZ-CZ','CZ-PZ','P7-T7','T7-FT9','FT9-FT10','FT10-T8','T8-P8'
'hh:mm:ss.mmm dd/mm/yyyy','uV','uV','uV','uV','uV','uV','uV','uV','uV','uV','uV','uV','uV','uV','uV','uV','uV','uV','uV','uV','uV','uV','uV'
'[08:22:35.000 14/03/2059]',129.719,-61.343,-16.410,-37.509,39.853,-31.648,-5.470,11.722,69.939,-50.012,-23.443,72.674,-10.159,36.337,8.987,33.993,-59.780,15.238,17.192,24.225,-100.806,-1.954,8.987
'[08:22:35.004 14/03/2059]',0.391,0.391,0.391,0.391,0.391,0.391,0.391,0.391,0.391,0.391,0.391,0.391,0.391,0.391,0.391,0.391,0.391,0.391,0.391,0.391,0.391,0.391,0.391
'[08:22:35.008 14/03/2059]',0.391,0.391,0.391,0.391,0.391,0.391,0.391,0.391,0.391,0.391,0.391,0.391,0.391,0.391,0.391,0.391,0.391,0.391,0.391,0.391,0.391,0.391,0.391
'[08:22:35.012 14/03/2059]',0.391,0.391,0.391,0.391,0.391,0.391,0.391,0.391,0.391,0.391,0.391,0.391,0.391,0.391,0.391,0.391,0.391,0.391,0.391,1.172,0.391,-0.781,0.391
'[08:22:35.016 14/03/2059]',0.781,0.391,0.391,0.391,0.391,0.391,0.391,0.391,0.781,0.391,0.391,0.391,0.391,0.391,0.391,0.391,0.000,0.391,0.391,-1.172,0.391,1.954,0.391
'[08:22:35.020 14/03/2059]',1.563,0.000,-0.391,0.391,0.781,0.391,0.391,0.391,1.172,0.391,0.391,0.391,0.391,0.781,0.391,0.391,-0.391,0.781,1.172,-4.298,0.000,5.079,0.391
'[08:22:35.023 14/03/2059]',0.391,0.000,-0.391,1.172,0.391,0.000,0.000,1.172,0.391,0.391,0.391,0.391,-0.391,0.391,0.781,0.391,0.391,0.391,1.172,0.391,0.391,0.391,0.781
'[08:22:35.027 14/03/2059]',-1.172,0.391,0.391,1.563,0.000,0.000,0.000,1.563,-0.781,0.391,0.391,0.781,0.000,-0.391,0.781,0.391,1.563,0.000,0.391,6.642,0.781,-6.252,0.781
'[08:22:35.031 14/03/2059]',0.000,0.391,0.391,0.391,0.781,0.391,1.172,-0.781,0.391,0.781,0.391,0.000,0.781,0.391,0.391,0.391,1.172,-0.391,0.391,1.954,0.000,0.000,0.391
'[08:22:35.035 14/03/2059]',1.172,0.391,-0.391,0.391,1.563,0.000,1.563,-1.954,1.172,0.781,0.781,-1.172,0.391,1.563,0.000,0.391,-0.391,1.172,1.172,-6.642,-0.391,8.205,0.000
'[08:22:35.039 14/03/2059]',2.344,-1.172,-3.126,2.735,1.172,-1.563,-0.391,1.563,1.563,0.391,-0.391,1.563,-1.172,0.781,0.781,1.563,-1.954,2.735,3.907,-12.894,-0.391,12.503,0.781
'[08:22:35.043 14/03/2059]',10.159,-6.642,-10.549,5.861,4.689,-5.079,-1.954,2.735,5.861,-1.954,-2.344,4.689,-5.079,1.954,2.344,5.861,-7.424,5.861,11.331,-33.993,-5.861,33.993,2.344
'[08:22:35.047 14/03/2059]',6.642,-6.642,-16.801,12.503,3.126,-8.596,-3.516,4.298,2.735,0.391,-0.781,0.781,-7.814,1.563,6.642,1.954,-4.689,4.298,17.582,-24.225,-6.642,25.397,6.642
'[08:22:35.051 14/03/2059]',-0.391,-7.033,-24.225,23.834,2.344,-14.457,-5.861,8.987,-1.954,2.344,-1.954,3.907,-10.549,-2.344,9.768,4.689,0.000,3.516,25.006,-5.470,-6.642,6.642,9.768
'[08:22:35.055 14/03/2059]',-8.205,-4.689,-31.648,31.258,1.954,-17.973,-2.735,4.298,-3.907,5.861,-0.781,-0.781,-12.112,-1.954,8.987,3.516,4.298,2.735,32.430,-10.549,-7.424,14.457,8.987
'[08:22:35.059 14/03/2059]',-16.801,0.391,-37.900,37.509,1.563,-21.099,1.954,-1.172,-7.814,12.503,1.563,-8.596,-10.940,-0.781,6.642,2.735,7.424,1.563,38.681,-7.814,-6.252,16.020,6.642
'[08:22:35.063 14/03/2059]',-26.960,5.079,-47.668,45.714,-1.954,-25.006,1.563,1.954,-13.675,13.284,2.344,-7.814,-12.112,-5.861,3.126,8.987,10.159,2.344,48.449,-0.391,-5.470,4.298,3.126
'[08:22:35.066 14/03/2059]',-37.900,10.159,-61.343,55.092,-10.159,-28.913,0.000,5.861,-18.755,10.159,1.954,-6.642,-15.629,-11.331,-0.781,15.629,8.987,4.689,62.125,-9.377,-3.516,6.642,-0.781
'[08:22:35.070 14/03/2059]',-46.105,14.066,-71.111,58.999,-16.020,-30.867,0.391,3.907,-21.490,8.205,4.689,-10.940,-14.457,-16.410,-5.079,17.582,4.298,3.907,71.893,-3.126,-4.689,2.344,-5.079
'[08:22:35.074 14/03/2059]',-53.138,18.755,-82.833,66.032,-21.099,-32.821,-1.563,5.079,-22.271,2.344,8.596,-15.629,-10.940,-24.225,-6.642,15.629,0.781,4.689,83.614,14.066,-4.689,-15.629,-6.642
'[08:22:35.078 14/03/2059]',-60.562,21.099,-93.773,73.846,-25.788,-33.211,-5.079,5.861,-23.053,-3.126,7.033,-18.755,-12.503,-28.523,-10.549,14.457,-3.126,10.159,94.554,8.596,-1.172,-12.112,-10.549
'[08:22:35.082 14/03/2059]',-62.125,19.536,-98.462,79.316,-27.350,-30.867,-5.470,3.126,-19.927,-4.689,8.596,-24.615,-10.549,-26.960,-14.457,11.331,-4.689,11.722,99.243,4.298,-1.563,0.391,-14.457
'[08:22:35.086 14/03/2059]',-61.343,21.099,-103.541,80.098,-27.741,-26.960,-8.205,0.781,-21.099,-3.907,10.549,-31.258,-7.033,-28.913,-19.145,8.987,-0.781,6.642,104.322,23.834,-3.907,-15.238,-19.145
'[08:22:35.090 14/03/2059]',-67.204,19.145,-109.792,83.614,-33.993,-27.350,-13.675,3.126,-28.132,-2.735,8.205,-34.774,-8.205,-33.211,-25.788,10.159,4.689,4.298,110.574,34.383,-5.079,-25.788,-25.788
'[08:22:35.094 14/03/2059]',-71.502,16.020,-116.044,86.349,-37.118,-31.258,-17.973,3.516,-33.602,-0.391,5.470,-38.681,-11.722,-31.258,-33.993,10.159,5.470,1.954,116.825,22.271,-5.079,-10.940,-33.993
'[08:22:35.098 14/03/2059]',-69.548,14.847,-119.170,82.442,-33.993,-32.039,-23.053,0.391,-36.337,1.954,3.516,-43.370,-9.768,-30.476,-40.244,7.814,4.689,-5.470,119.951,27.741,-5.861,-14.457,-40.244
'[08:22:35.102 14/03/2059]',-66.813,14.066,-121.514,82.442,-30.085,-34.774,-27.350,1.954,-38.681,1.954,0.391,-39.853,-8.596,-31.258,-44.542,9.377,5.861,-9.768,122.295,41.026,-4.689,-27.741,-44.542
'[08:22:35.105 14/03/2059]',-63.687,13.675,-122.295,85.958,-23.443,-37.118,-30.867,6.252,-38.681,1.954,-4.689,-38.681,-8.987,-28.132,-51.966,8.987,5.079,-10.159,123.077,30.867,1.172,-18.364,-51.966
'[08:22:35.109 14/03/2059]',-62.515,13.675,-117.607,87.912,-18.364,-33.993,-32.821,8.987,-36.728,4.689,-2.344,-36.728,-4.689,-25.788,-50.012,8.987,6.642,-15.629,118.388,23.834,6.252,-9.768,-50.012
'[08:22:35.113 14/03/2059]',-60.562,9.768,-107.448,86.349,-17.582,-29.695,-37.900,14.847,-36.728,6.642,0.391,-39.072,0.391,-26.569,-50.794,8.205,12.112,-19.536,108.230,45.714,8.987,-26.178,-50.794
'[08:22:35.117 14/03/2059]',-60.952,5.079,-101.197,88.303,-19.536,-27.350,-44.933,25.006,-36.728,10.549,0.781,-41.026,2.344,-24.225,-50.794,6.252,17.582,-18.755,101.978,53.919,14.847,-31.648,-50.794
'[08:22:35.121 14/03/2059]',-58.608,1.172,-97.289,85.568,-18.755,-25.006,-49.621,25.397,-33.993,14.457,1.563,-45.324,3.126,-19.927,-51.575,5.079,17.582,-19.536,98.071,37.118,19.145,-12.503,-51.575
'[08:22:35.125 14/03/2059]',-51.575,0.391,-91.429,77.363,-15.238,-20.317,-55.092,25.788,-28.523,19.927,0.781,-51.184,7.033,-16.801,-52.357,3.126,18.755,-22.662,92.210,43.370,19.145,-13.675,-52.357
'[08:22:35.129 14/03/2059]',-49.621,3.126,-94.164,73.455,-16.801,-20.708,-59.780,31.258,-25.397,21.490,-5.861,-46.496,7.814,-13.284,-54.310,2.735,19.536,-21.880,94.945,39.072,19.536,-14.066,-54.310
'[08:22:35.133 14/03/2059]',-48.449,2.344,-87.912,65.641,-18.364,-20.317,-62.515,33.993,-20.317,20.317,-13.284,-39.072,8.987,-10.940,-55.873,5.079,15.629,-21.880,88.694,23.443,22.271,0.391,-55.873
'[08:22:35.137 14/03/2059]',-42.979,0.391,-74.628,53.138,-19.145,-15.629,-59.389,30.476,-17.192,18.364,-12.503,-38.291,13.675,-9.377,-55.092,0.781,13.675,-26.569,75.409,33.602,18.364,-1.563,-55.092
'[08:22:35.141 14/03/2059]',-39.463,0.781,-62.515,40.244,-21.880,-11.722,-53.919,28.132,-18.755,15.629,-12.894,-33.211,17.973,-11.331,-53.529,-2.735,15.629,-29.304,63.297,48.059,18.364,-16.020,-53.529
'[08:22:35.145 14/03/2059]',-38.291,1.172,-53.138,30.476,-25.397,-9.768,-51.184,28.132,-23.053,12.503,-14.847,-28.132,17.192,-12.112,-55.873,-2.344,14.457,-25.006,53.919,33.993,22.271,-6.252,-55.873
'[08:22:35.148 14/03/2059]',-34.774,6.642,-45.324,17.973,-25.006,-4.298,-47.668,22.662,-27.741,11.331,-10.549,-33.993,15.629,-12.894,-57.045,-6.642,14.457,-26.178,46.105,19.927,22.271,4.298,-57.045
'[08:22:35.152 14/03/2059]',-32.039,15.238,-38.681,5.079,-26.178,0.781,-44.933,21.099,-31.648,12.112,-8.205,-35.165,17.192,-12.112,-57.827,-9.768,20.708,-28.523,39.463,28.913,21.099,-7.424,-57.827
'[08:22:35.156 14/03/2059]',-33.993,21.490,-33.211,-0.781,-30.085,3.907,-44.933,24.615,-34.774,10.549,-7.033,-26.569,13.675,-10.940,-57.045,-3.126,24.225,-21.880,33.993,24.615,18.364,-8.205,-57.045
'[08:22:35.160 14/03/2059]',-29.304,24.615,-25.397,-7.814,-27.350,8.987,-44.542,24.225,-32.430,10.159,-2.735,-25.788,12.112,-7.424,-53.919,-1.172,22.662,-17.192,26.178,6.642,16.410,5.079,-53.919
'[08:22:35.164 14/03/2059]',-20.317,28.132,-12.503,-19.927,-21.490,16.020,-41.026,20.708,-28.132,12.503,1.172,-29.695,14.066,-1.954,-50.403,-4.298,23.834,-17.973,13.284,8.596,11.722,3.516,-50.403
'[08:22:35.168 14/03/2059]',-13.284,26.569,-2.735,-23.834,-16.020,16.801,-39.072,24.615,-25.397,14.066,2.735,-28.132,14.066,-0.781,-46.496,-2.344,27.350,-13.675,3.516,16.801,10.940,-9.377,-46.496
'[08:22:35.172 14/03/2059]',-7.424,24.615,3.516,-27.350,-10.159,15.629,-36.728,25.397,-21.880,15.629,0.391,-33.211,12.503,-0.781,-44.151,-5.470,25.788,-10.549,-2.735,-1.172,13.284,2.735,-44.151
'[08:22:35.176 14/03/2059]',-1.563,30.867,9.768,-35.165,-2.735,19.927,-31.258,18.755,-20.708,20.708,-1.172,-41.807,12.112,0.391,-43.761,-12.112,27.350,-13.284,-8.987,-13.284,13.284,10.940,-43.761
'[08:22:35.180 14/03/2059]',-2.344,34.774,12.894,-38.681,-3.907,19.927,-26.960,18.755,-21.880,22.271,-4.689,-39.072,11.722,-1.172,-41.807,-11.722,32.430,-12.894,-12.112,-4.298,14.457,-3.126,-41.807
'[08:22:35.184 14/03/2059]',-5.861,39.853,17.582,-42.198,-6.252,23.443,-24.225,17.192,-23.834,22.662,-5.861,-30.476,8.596,-0.391,-33.993,-10.940,32.430,-7.424,-16.801,-13.675,18.364,-1.172,-33.993
'[08:22:35.188 14/03/2059]',-4.298,50.794,20.317,-49.621,-2.735,29.695,-20.708,10.549,-22.271,25.006,-6.642,-28.132,8.987,0.391,-29.695,-10.940,30.476,-10.549,-19.536,-30.867,17.192,8.205,-29.695
'[08:22:35.191 14/03/2059]',-1.954,50.012,29.695,-57.045,0.391,33.211,-19.145,5.470,-20.317,26.569,-7.033,-31.258,8.205,0.391,-24.615,-16.020,31.258,-16.020,-28.913,-23.053,16.801,0.000,-24.615
'[08:22:35.195 14/03/2059]',0.000,42.198,37.900,-60.171,4.689,31.258,-21.880,5.470,-20.708,28.132,-10.159,-32.039,4.298,-1.172,-18.755,-17.973,31.648,-15.238,-37.118,-23.834,20.708,-1.954,-18.755
'[08:22:35.199 14/03/2059]',-1.172,37.118,42.198,-63.687,8.596,30.085,-26.569,1.954,-20.317,32.430,-12.894,-39.072,0.391,-1.563,-15.238,-22.662,32.430,-17.192,-41.416,-41.416,24.615,10.159,-15.238
'[08:22:35.203 14/03/2059]',-0.781,31.258,46.496,-69.548,10.940,27.741,-27.350,-3.907,-17.973,35.946,-12.503,-48.840,0.391,-1.954,-8.205,-32.821,36.337,-25.006,-45.714,-32.821,21.490,5.470,-8.205
'[08:22:35.207 14/03/2059]',-3.516,25.006,50.403,-71.502,10.549,24.615,-28.913,-5.079,-18.755,35.946,-10.549,-46.886,-1.172,-0.781,-1.563,-35.946,39.072,-25.397,-49.621,-20.708,23.443,-5.079,-1.563
'[08:22:35.211 14/03/2059]',-6.252,24.225,51.575,-69.158,10.159,25.397,-27.741,-7.033,-14.847,35.946,-10.940,-43.370,-1.172,1.563,0.781,-35.165,39.072,-23.053,-50.794,-38.291,27.350,10.940,0.781
'[08:22:35.215 14/03/2059]',-4.298,23.053,56.654,-68.767,13.284,27.741,-23.053,-10.940,-5.470,37.509,-12.894,-41.807,2.735,5.861,2.735,-35.946,37.900,-25.397,-55.873,-44.542,26.960,22.271,2.735
'[08:22:35.219 14/03/2059]',-0.781,18.755,62.906,-66.032,17.192,27.350,-16.801,-11.331,0.391,35.946,-15.238,-40.244,5.470,7.814,2.344,-36.728,36.728,-24.225,-62.125,-29.304,30.085,10.159,2.344
'[08:22:35.223 14/03/2059]',-0.391,16.020,62.125,-58.217,21.490,23.053,-12.112,-10.940,6.642,34.383,-21.099,-36.337,5.079,7.814,0.781,-31.648,32.821,-18.364,-61.343,-35.946,34.774,13.675,0.781
'[08:22:35.227 14/03/2059]',1.563,15.238,62.125,-55.482,30.867,19.536,-8.596,-16.020,14.847,34.774,-26.178,-41.807,3.126,8.987,1.172,-33.211,28.523,-19.536,-61.343,-49.231,32.821,30.085,1.172
'[08:22:35.230 14/03/2059]',5.079,15.238,61.734,-56.654,39.072,17.582,-6.642,-21.880,20.708,33.602,-28.523,-48.059,1.954,8.596,4.689,-38.291,28.913,-26.569,-60.952,-39.072,29.695,21.099,4.689
'[08:22:35.234 14/03/2059]',3.126,19.536,57.436,-51.966,41.807,16.020,-6.252,-21.490,21.099,32.039,-32.430,-46.886,0.000,6.252,3.516,-35.556,32.821,-30.476,-56.654,-32.821,29.695,10.940,3.516
'[08:22:35.238 14/03/2059]',3.907,17.582,60.562,-48.059,46.496,18.755,-5.470,-23.443,22.662,33.211,-36.337,-48.449,-2.344,7.424,3.516,-37.118,31.648,-30.867,-59.780,-44.542,31.258,25.788,3.516
'[08:22:35.242 14/03/2059]',1.172,12.112,67.204,-47.277,42.198,23.443,-2.735,-27.350,20.317,33.602,-33.993,-48.059,-5.079,10.940,5.079,-38.681,29.304,-32.430,-66.422,-41.416,30.867,30.085,5.079
'[08:22:35.246 14/03/2059]',-6.642,10.940,68.376,-43.370,32.039,23.053,-1.172,-23.053,14.066,31.648,-29.695,-46.105,-8.987,12.894,5.470,-39.463,25.397,-27.741,-67.595,-28.523,29.695,20.317,5.470
'[08:22:35.250 14/03/2059]',-10.549,7.424,70.720,-38.291,28.132,21.099,-0.781,-18.364,10.940,30.476,-28.913,-42.589,-14.847,16.020,6.252,-37.900,18.755,-22.662,-69.939,-33.993,28.523,28.132,6.252
'[08:22:35.254 14/03/2059]',-11.331,8.205,73.065,-41.026,26.960,21.490,1.563,-21.490,13.675,28.913,-24.615,-48.449,-15.238,19.927,7.814,-42.589,14.457,-26.960,-72.283,-37.900,21.880,36.728,7.814
'[08:22:35.258 14/03/2059]',-10.940,12.894,71.111,-39.072,28.523,19.927,5.470,-20.708,17.582,25.788,-21.490,-48.449,-12.112,20.708,8.596,-44.151,14.066,-33.602,-70.330,-27.350,16.020,27.350,8.596
'[08:22:35.262 14/03/2059]',-10.159,8.596,69.548,-28.913,30.867,16.801,2.735,-11.722,22.271,20.708,-26.569,-44.151,-9.768,18.755,5.079,-41.416,10.940,-32.430,-68.767,-28.913,19.145,26.569,5.079
'[08:22:35.266 14/03/2059]',-8.596,5.079,69.939,-22.662,35.165,14.066,2.735,-8.987,28.913,17.973,-28.132,-41.026,-5.470,18.755,6.252,-41.416,3.516,-30.085,-69.158,-40.635,21.490,38.291,6.252
'[08:22:35.270 14/03/2059]',-6.642,7.424,69.939,-20.317,36.728,14.457,6.252,-7.033,26.569,16.801,-24.615,-35.165,-4.298,19.536,7.814,-39.072,-1.172,-27.741,-69.158,-29.695,20.317,28.132,7.814
'[08:22:35.273 14/03/2059]',-5.079,10.940,71.111,-14.066,37.509,14.066,9.377,0.391,22.271,13.675,-20.708,-30.476,-4.689,15.238,12.112,-37.900,-3.516,-19.536,-70.330,-22.662,17.582,16.410,12.112
'[08:22:35.277 14/03/2059]',-4.689,15.238,73.065,-14.066,38.291,13.675,14.457,1.563,16.801,13.675,-17.192,-25.788,-9.377,14.847,16.801,-34.774,-6.252,-10.159,-72.283,-40.244,15.629,27.350,16.801
'[08:22:35.281 14/03/2059]',-5.470,24.225,75.018,-20.708,35.556,14.066,19.536,1.563,11.331,12.503,-12.112,-26.960,-10.159,15.238,16.410,-35.556,-5.470,-13.284,-74.237,-46.496,10.549,30.476,16.410
'[08:22:35.285 14/03/2059]',-7.033,21.490,82.442,-22.271,29.695,12.894,19.145,10.940,9.377,7.814,-8.205,-24.615,-5.861,11.331,16.020,-35.946,-3.907,-14.847,-81.661,-26.178,7.814,12.503,16.020
'[08:22:35.289 14/03/2059]',-8.987,12.894,85.958,-20.708,23.053,8.596,14.847,19.927,6.642,4.689,-9.768,-16.410,-3.907,7.814,12.894,-31.648,-6.642,-12.894,-85.177,-21.490,7.814,10.549,12.894
'[08:22:35.293 14/03/2059]',-10.549,8.596,84.396,-22.271,17.192,5.470,9.768,24.615,6.252,1.563,-11.331,-13.675,0.000,7.814,3.907,-28.913,-13.675,-17.582,-83.614,-29.695,8.596,23.053,3.907
'[08:22:35.297 14/03/2059]',-7.033,7.033,85.958,-25.006,11.722,7.424,7.814,31.648,2.735,0.391,-7.033,-8.987,5.079,7.033,1.172,-27.741,-16.801,-17.192,-85.177,-10.159,5.079,9.377,1.172
'[08:22:35.301 14/03/2059]',-5.079,9.377,84.005,-23.443,7.424,8.596,5.861,40.635,-1.954,-0.781,-2.735,-0.781,8.205,7.033,0.000,-22.662,-18.755,-8.205,-83.223,-2.735,5.861,0.391,0.000
'[08:22:35.305 14/03/2059]',-2.344,13.675,82.833,-21.880,5.861,10.549,9.768,43.370,-7.033,0.391,2.344,6.252,7.814,11.331,-2.344,-15.629,-21.099,0.781,-82.051,-19.536,10.159,15.629,-2.344
'[08:22:35.309 14/03/2059]',-3.907,17.973,87.521,-19.536,-1.172,16.410,16.801,48.059,-9.768,2.344,13.284,7.814,12.894,14.847,0.391,-13.675,-18.755,8.987,-86.740,-14.457,10.549,13.675,0.391
'[08:22:35.313 14/03/2059]',-7.424,19.536,87.521,-10.549,-8.987,20.317,20.317,55.873,-16.020,5.861,21.099,16.410,14.847,14.847,3.516,-5.079,-13.284,21.880,-86.740,-1.563,11.722,1.563,3.516
'[08:22:35.316 14/03/2059]',-13.675,21.880,80.098,-1.172,-18.364,22.662,23.053,58.608,-20.317,8.205,23.834,18.755,14.066,16.020,2.735,-1.563,-9.377,30.476,-79.316,-7.424,14.847,7.814,2.735
'[08:22:35.320 14/03/2059]',-17.973,23.834,73.846,2.735,-27.350,27.741,28.913,53.138,-19.145,13.284,28.913,13.284,17.973,18.364,4.689,-4.298,-3.907,29.695,-73.065,-2.344,14.457,10.549,4.689
'[08:22:35.324 14/03/2059]',-19.145,27.741,70.330,3.907,-30.476,33.602,34.774,45.324,-18.755,16.020,34.774,10.159,19.536,22.271,8.205,-6.252,1.954,31.258,-69.548,14.847,12.503,0.000,8.205
'[08:22:35.328 14/03/2059]',-23.443,30.867,62.906,13.675,-33.993,36.337,38.291,44.151,-17.582,14.457,35.165,17.973,14.847,25.397,13.284,-3.126,3.907,39.853,-62.125,5.861,17.582,6.642,13.284
'[08:22:35.332 14/03/2059]',-29.695,25.788,65.641,21.490,-38.681,39.072,42.589,39.853,-16.410,12.894,40.244,19.927,12.112,31.648,15.629,-2.344,4.298,46.105,-64.860,-1.172,25.006,19.927,15.629
'[08:22:35.336 14/03/2059]',-31.648,22.662,69.548,25.006,-40.244,42.589,46.105,37.118,-17.973,14.847,47.277,23.053,14.847,33.602,17.192,0.391,7.424,50.794,-68.767,17.192,28.913,8.205,17.192
'[08:22:35.340 14/03/2059]',-33.602,17.973,65.641,35.165,-41.416,44.542,45.324,36.728,-22.271,17.192,48.059,30.476,15.238,32.430,16.020,7.424,12.112,57.436,-64.860,26.569,33.211,0.391,16.020
'[08:22:35.344 14/03/2059]',-33.993,11.331,61.734,42.979,-40.244,47.277,43.761,31.258,-24.615,21.490,51.184,26.178,16.801,33.993,14.457,8.596,16.410,59.780,-60.952,14.847,39.463,14.847,14.457
'[08:22:35.348 14/03/2059]',-31.648,7.424,59.389,43.370,-38.291,53.138,42.979,21.099,-26.569,32.430,53.529,16.410,19.536,36.728,12.503,5.079,20.317,54.310,-58.608,20.708,40.635,16.020,12.503
'[08:22:35.352 14/03/2059]',-32.039,4.298,55.482,51.575,-39.072,57.827,42.589,18.364,-28.132,41.026,54.701,16.020,20.708,38.681,19.927,3.126,25.006,56.264,-54.701,34.774,41.807,3.516,19.927
'[08:22:35.355 14/03/2059]',-38.681,-0.391,51.184,64.078,-44.542,57.827,40.244,21.880,-27.350,44.542,53.529,13.284,19.536,41.026,19.145,3.516,26.178,63.297,-50.403,25.397,50.012,11.722,19.145
'[08:22:35.359 14/03/2059]',-42.198,-3.907,51.575,71.111,-45.714,58.217,42.589,20.708,-23.834,49.621,56.654,4.298,21.490,45.714,20.317,-1.172,27.350,66.422,-50.794,17.582,56.654,24.615,20.317
'[08:22:35.363 14/03/2059]',-42.589,-3.516,51.575,78.144,-44.151,56.654,43.761,26.960,-19.927,50.794,59.389,3.516,25.788,48.059,22.662,-3.516,32.821,65.641,-50.794,32.430,61.734,10.940,22.662
'[08:22:35.367 14/03/2059]',-43.370,-6.642,46.886,89.084,-40.635,49.231,39.072,36.337,-17.192,47.668,55.873,3.126,24.615,49.621,16.801,-1.954,37.118,62.906,-46.105,33.993,69.548,8.987,16.801
'[08:22:35.371 14/03/2059]',-42.589,-11.331,43.761,92.601,-31.648,42.589,36.337,34.774,-15.629,45.714,54.310,-1.954,21.880,51.575,15.238,-7.814,38.681,51.966,-42.979,24.225,73.846,23.834,15.238
'[08:22:35.375 14/03/2059]',-37.118,-12.503,39.853,91.429,-19.536,39.072,30.867,30.476,-10.940,45.324,48.840,-3.516,23.443,51.575,14.457,-11.722,38.681,40.244,-39.072,30.867,76.190,18.755,14.457
'[08:22:35.379 14/03/2059]',-37.900,-16.410,30.085,98.462,-13.675,32.821,20.317,33.993,-10.549,42.979,40.635,-1.954,21.490,50.012,8.596,-10.159,37.509,36.337,-29.304,33.211,80.488,13.675,8.596
'[08:22:35.383 14/03/2059]',-39.853,-19.145,21.880,102.759,-10.549,30.085,13.284,31.258,-7.033,43.370,37.118,-0.781,19.927,49.621,10.159,-8.596,36.728,34.774,-21.099,16.020,87.521,23.834,10.159
'[08:22:35.387 14/03/2059]',-33.211,-16.410,17.192,100.806,-0.781,31.258,12.112,22.662,-2.344,48.840,34.774,0.000,23.443,50.794,12.503,-5.470,36.728,28.523,-16.410,14.847,85.958,23.053,12.503
'[08:22:35.391 14/03/2059]',-32.039,-12.894,7.424,100.806,1.954,29.695,8.596,19.145,0.391,50.012,33.211,-2.735,26.960,49.231,7.424,-2.735,37.118,25.397,-6.642,20.708,85.177,11.722,7.424
'[08:22:35.395 14/03/2059]',-35.556,-20.317,2.735,104.713,1.172,28.523,3.907,13.675,2.735,50.794,28.523,-3.126,24.615,48.840,0.781,3.126,37.509,24.615,-1.954,8.596,89.475,23.053,0.781
'[08:22:35.398 14/03/2059]',-31.648,-26.178,1.172,99.634,10.549,31.258,-1.172,-0.391,10.549,49.231,22.271,-8.596,27.350,48.840,-5.861,2.735,37.509,17.192,-0.391,0.000,91.429,33.602,-5.861
'[08:22:35.402 14/03/2059]',-28.132,-29.304,-3.516,94.554,17.582,36.337,-10.940,-11.331,20.317,43.761,16.410,-13.675,31.258,44.933,-12.894,2.344,41.416,7.033,4.298,14.457,91.038,19.536,-12.894
'[08:22:35.406 14/03/2059]',-28.132,-35.556,-9.377,91.819,21.099,37.509,-21.880,-19.927,23.443,35.165,5.861,-17.582,25.788,41.416,-22.662,1.954,43.761,0.781,10.159,15.238,94.554,14.847,-22.662
'[08:22:35.410 14/03/2059]',-22.662,-37.118,-16.020,83.614,30.476,42.589,-30.085,-36.728,27.350,29.304,-3.126,-20.708,17.582,38.681,-24.615,0.391,43.370,-8.205,16.801,-3.126,93.382,28.132,-24.615
'[08:22:35.414 14/03/2059]',-19.145,-35.165,-23.443,70.720,38.291,44.542,-37.900,-53.529,32.039,25.006,-10.940,-30.867,14.066,35.165,-29.695,-5.079,42.589,-21.490,24.225,-1.172,89.084,23.834,-29.695
'[08:22:35.418 14/03/2059]',-21.490,-37.509,-28.132,61.343,39.072,42.589,-46.496,-63.297,32.821,18.755,-20.317,-34.383,9.377,29.304,-35.946,-6.252,41.807,-30.085,28.913,6.252,89.475,10.549,-35.946
'[08:22:35.422 14/03/2059]',-20.317,-41.807,-33.602,54.310,43.370,42.198,-55.092,-75.409,35.946,14.457,-28.523,-32.821,4.689,25.397,-37.118,-3.907,39.463,-34.383,34.383,-8.987,88.694,21.099,-37.118
'[08:22:35.426 14/03/2059]',-16.020,-44.151,-36.337,41.416,51.184,42.589,-63.297,-87.912,40.635,13.675,-32.430,-33.993,5.079,23.053,-31.258,-8.987,36.337,-39.853,37.118,-15.629,82.051,29.695,-31.258
'[08:22:35.430 14/03/2059]',-13.675,-47.277,-38.291,30.867,53.529,39.463,-71.111,-92.601,42.198,8.596,-36.337,-33.602,3.126,17.192,-28.523,-10.940,33.211,-46.105,39.072,-1.563,76.972,11.722,-28.523
'[08:22:35.434 14/03/2059]',-13.675,-46.886,-42.589,23.443,53.138,39.072,-78.926,-94.945,42.198,2.735,-39.072,-31.258,-2.344,13.284,-26.569,-8.987,30.867,-46.496,43.370,-7.424,71.893,9.768,-26.569
'[08:22:35.438 14/03/2059]',-10.940,-41.416,-44.151,11.331,58.999,38.681,-82.442,-103.932,46.496,0.000,-38.681,-38.291,-6.252,12.894,-25.788,-11.331,25.788,-51.966,44.933,-23.834,63.687,20.708,-25.788
'[08:22:35.441 14/03/2059]',-10.549,-37.900,-42.979,1.563,61.734,35.946,-85.177,-105.885,50.794,-7.033,-39.463,-44.933,-7.814,9.377,-30.085,-12.112,21.880,-59.780,43.761,-20.317,59.389,10.940,-30.085
'[08:22:35.445 14/03/2059]',-12.112,-35.946,-44.542,-1.563,62.906,29.695,-89.475,-100.806,51.184,-14.847,-42.979,-40.635,-13.675,2.735,-32.430,-4.298,16.801,-58.999,45.324,-27.350,57.045,8.987,-32.430
'[08:22:35.449 14/03/2059]',-10.549,-34.774,-42.198,-7.814,66.422,25.397,-92.210,-98.852,50.012,-18.364,-46.496,-38.291,-19.145,-0.391,-34.774,0.391,10.159,-59.780,42.979,-45.324,54.310,21.490,-34.774
'[08:22:35.453 14/03/2059]',-7.424,-38.291,-32.821,-17.973,69.939,21.099,-91.038,-100.024,49.231,-20.708,-48.059,-42.198,-20.708,-6.252,-34.383,-0.391,3.126,-63.297,33.602,-33.602,49.231,13.675,-34.383
'[08:22:35.457 14/03/2059]',-10.549,-41.807,-26.569,-22.662,65.641,15.238,-88.303,-97.680,45.714,-22.271,-50.403,-41.416,-23.834,-12.503,-32.039,0.391,2.344,-65.641,27.350,-19.927,48.059,-1.563,-32.039
'[08:22:35.461 14/03/2059]',-13.675,-41.026,-22.662,-26.569,62.515,11.722,-87.131,-95.726,43.370,-21.099,-51.575,-39.853,-28.523,-12.112,-32.039,3.126,4.689,-66.032,23.443,-36.337,47.668,9.377,-32.039
'[08:22:35.465 14/03/2059]',-14.847,-39.853,-19.927,-30.867,61.343,6.252,-84.396,-92.601,44.542,-23.053,-50.794,-42.979,-28.523,-12.894,-32.821,2.735,2.735,-72.674,20.708,-45.324,49.231,13.675,-32.821
'[08:22:35.469 14/03/2059]',-14.847,-41.416,-18.755,-31.258,58.608,0.000,-82.833,-85.177,42.979,-25.788,-48.840,-40.244,-30.085,-14.066,-27.741,0.781,2.344,-78.144,19.536,-32.430,48.840,-2.735,-27.741
'[08:22:35.473 14/03/2059]',-15.238,-40.635,-19.145,-29.695,54.701,-5.079,-81.661,-75.800,40.244,-28.523,-45.714,-34.383,-32.430,-14.847,-26.569,5.470,0.391,-75.018,19.927,-36.728,48.059,-4.298,-26.569
'[08:22:35.477 14/03/2059]',-14.066,-36.337,-16.020,-31.648,54.310,-3.126,-77.363,-74.628,37.509,-26.178,-38.681,-41.416,-35.556,-14.457,-23.053,3.907,-1.954,-70.720,16.801,-50.794,43.370,6.252,-23.053
'[08:22:35.480 14/03/2059]',-9.768,-32.039,-11.331,-37.509,54.701,0.391,-73.455,-75.018,36.337,-21.099,-31.258,-51.966,-38.681,-12.112,-12.503,-3.126,0.391,-70.720,12.112,-41.416,33.602,0.000,-12.503
'[08:22:35.484 14/03/2059]',-11.722,-26.569,-7.424,-37.900,49.231,4.689,-71.893,-69.939,34.774,-16.801,-28.523,-51.184,-42.198,-12.112,-5.861,-0.391,7.033,-66.422,8.205,-32.430,26.960,-9.377,-5.861
'[08:22:35.488 14/03/2059]',-14.847,-17.973,-6.252,-39.853,47.668,6.252,-68.376,-67.985,35.165,-13.284,-29.304,-58.217,-44.933,-12.112,-4.689,-2.344,9.377,-65.250,7.033,-51.966,24.615,5.470,-4.689
'[08:22:35.492 14/03/2059]',-13.675,-11.331,-5.079,-40.635,48.449,3.516,-62.906,-64.078,39.853,-12.503,-28.913,-58.999,-41.026,-13.675,-0.391,-4.689,8.205,-67.595,5.861,-59.780,23.443,12.112,-0.391
'[08:22:35.496 14/03/2059]',-14.066,-8.205,-1.954,-38.291,47.277,0.391,-58.999,-54.310,40.635,-15.238,-32.039,-50.403,-35.946,-17.582,0.000,-2.735,9.377,-69.158,2.735,-48.059,26.178,-1.172,0.000
'[08:22:35.500 14/03/2059]',-14.457,-1.172,-3.516,-35.556,48.059,-3.907,-55.873,-46.105,41.026,-16.801,-36.337,-43.761,-30.085,-20.317,-3.907,-0.391,11.331,-67.985,4.298,-56.654,29.304,0.781,-3.907
'[08:22:35.504 14/03/2059]',-9.377,5.079,-0.781,-39.072,53.919,-2.735,-51.966,-45.714,41.026,-14.066,-33.211,-44.542,-25.788,-17.192,0.391,-8.205,13.675,-70.330,1.563,-63.297,29.304,8.596,0.391
'[08:22:35.508 14/03/2059]',-8.205,6.642,6.252,-42.979,53.138,1.172,-49.231,-44.151,37.118,-10.940,-30.085,-41.416,-21.490,-13.284,3.516,-13.675,17.582,-70.720,-5.470,-46.105,27.350,0.781,3.516
'[08:22:35.512 14/03/2059]',-10.549,10.940,7.424,-43.761,46.496,3.516,-46.886,-41.026,31.648,-7.814,-29.695,-37.509,-21.880,-7.814,3.126,-16.801,22.271,-64.469,-6.642,-47.277,26.960,3.126,3.126
'[08:22:35.516 14/03/2059]',-10.549,14.457,8.205,-44.542,38.681,8.205,-41.026,-39.853,28.132,-3.516,-25.397,-39.463,-19.536,-0.781,4.689,-23.834,25.006,-57.045,-7.424,-60.952,24.615,20.317,4.689
'[08:22:35.520 14/03/2059]',-9.377,19.145,11.331,-44.542,28.132,14.066,-30.867,-36.337,24.225,1.563,-18.364,-31.648,-11.331,2.735,9.377,-25.006,30.867,-51.966,-10.549,-47.668,20.708,12.894,9.377
'[08:22:35.523 14/03/2059]',-7.033,25.788,10.940,-41.026,19.927,17.582,-20.708,-28.523,20.708,4.689,-15.238,-24.615,-4.689,1.954,9.768,-21.490,39.072,-42.198,-10.159,-39.463,19.145,0.391,9.768
'[08:22:35.527 14/03/2059]',-2.735,32.430,7.424,-34.383,20.708,17.192,-14.847,-21.099,19.927,5.470,-14.066,-20.708,-1.172,-0.391,7.424,-14.847,41.026,-30.476,-6.642,-57.045,19.536,12.503,7.424
'[08:22:35.531 14/03/2059]',0.000,37.509,8.596,-33.993,25.788,16.020,-12.503,-17.582,21.099,7.033,-14.066,-20.708,3.516,-1.954,4.689,-12.894,39.072,-28.523,-7.814,-61.343,21.490,16.410,4.689
'[08:22:35.535 14/03/2059]',-0.781,41.416,9.377,-33.602,28.132,11.331,-12.503,-11.722,23.053,6.252,-15.238,-21.099,8.205,-5.861,3.907,-13.675,38.291,-28.523,-8.596,-45.714,22.662,0.391,3.907
'[08:22:35.539 14/03/2059]',-1.954,42.979,7.033,-29.304,32.039,5.470,-14.847,-4.689,23.443,4.298,-16.801,-19.536,7.814,-7.424,3.907,-12.894,32.821,-21.099,-6.252,-48.059,22.662,2.735,3.907
'[08:22:35.543 14/03/2059]',-5.079,46.496,4.689,-30.476,28.913,4.689,-16.801,-2.735,21.490,8.205,-17.192,-20.708,9.377,-3.907,7.033,-19.536,26.960,-18.364,-3.907,-61.343,25.397,17.973,7.033
'[08:22:35.547 14/03/2059]',-10.549,51.575,5.861,-33.211,18.364,7.424,-14.066,0.000,17.582,12.894,-12.112,-17.582,12.503,-0.391,13.284,-24.615,26.569,-16.410,-5.079,-46.105,23.443,8.596,13.284
'[08:22:35.551 14/03/2059]',-13.284,60.171,3.516,-31.648,12.112,10.549,-12.894,5.470,12.894,13.284,-12.112,-7.424,12.112,0.391,13.284,-18.364,27.741,-8.596,-2.735,-41.807,21.880,0.391,13.284
'[08:22:35.555 14/03/2059]',-14.066,65.250,5.861,-30.085,12.894,12.503,-9.377,8.596,12.503,13.284,-15.629,2.735,8.987,1.563,13.675,-10.159,25.397,-5.079,-5.079,-57.827,22.662,14.457,13.675
'[08:22:35.559 14/03/2059]',-12.112,63.687,16.020,-30.085,16.410,11.722,-5.470,12.112,16.020,8.987,-15.629,5.079,7.814,3.126,11.331,-7.033,23.834,-8.205,-15.238,-51.966,22.271,13.284,11.331
'[08:22:35.563 14/03/2059]',-10.159,61.343,21.490,-26.178,20.317,7.424,-5.079,21.099,18.755,2.735,-16.020,11.331,6.642,0.391,10.940,-1.172,21.099,-2.735,-20.708,-38.291,20.317,1.172,10.940
'[08:22:35.566 14/03/2059]',-8.987,56.264,26.178,-18.755,23.053,3.126,-5.470,31.258,18.755,-3.126,-15.629,18.364,2.735,0.000,10.549,5.470,16.020,4.689,-25.397,-43.370,22.271,7.424,10.549
'[08:22:35.570 14/03/2059]',-9.377,56.264,30.085,-18.755,20.317,1.563,-3.907,37.509,17.973,-4.689,-8.205,14.066,3.126,1.172,10.549,2.735,10.159,7.814,-29.304,-41.416,22.662,8.596,10.549
'[08:22:35.574 14/03/2059]',-8.596,59.389,33.211,-19.145,14.847,4.689,-3.126,45.324,14.066,-5.861,-1.954,16.410,5.079,0.781,12.112,2.735,9.768,10.159,-32.430,-26.960,18.364,-3.516,12.112
'[08:22:35.578 14/03/2059]',-10.159,62.515,33.602,-8.596,10.549,7.424,-3.126,59.389,10.549,-8.596,-1.563,27.350,1.172,0.391,13.284,11.722,9.768,16.020,-32.821,-33.602,15.238,-0.391,13.284
'[08:22:35.582 14/03/2059]',-9.377,68.767,33.993,-2.735,8.596,12.112,-1.172,68.767,7.424,-8.987,0.000,32.039,-0.391,0.000,14.457,15.629,10.549,15.238,-33.211,-50.794,12.503,10.940,14.457
'[08:22:35.586 14/03/2059]',-6.642,72.674,34.774,-1.172,4.689,19.145,1.954,70.330,6.642,-11.722,2.735,34.774,1.563,0.391,13.675,17.582,13.675,12.112,-33.993,-38.681,4.298,1.172,13.675
'[08:22:35.590 14/03/2059]',-5.861,70.720,35.556,7.814,1.954,24.225,6.252,73.065,3.126,-12.503,3.907,44.151,0.391,-1.563,12.112,28.523,14.457,17.582,-34.774,-29.304,0.781,-6.252,12.112
'[08:22:35.594 14/03/2059]',-5.470,71.502,34.383,13.284,1.954,25.397,10.549,72.674,1.954,-12.503,5.079,44.933,-1.172,0.391,7.424,33.211,12.503,22.662,-33.602,-47.277,5.079,7.814,7.424
'[08:22:35.598 14/03/2059]',-4.298,73.846,31.648,13.284,1.172,26.178,14.847,69.158,4.298,-12.112,12.503,40.244,1.563,3.907,5.470,32.430,9.768,21.490,-30.867,-50.403,9.377,9.768,5.470
'[08:22:35.602 14/03/2059]',-6.252,74.237,27.741,19.145,0.391,23.443,17.973,71.502,5.861,-10.549,16.410,43.370,4.689,4.298,4.689,40.244,10.549,20.317,-26.960,-38.291,13.675,-4.689,4.689
'[08:22:35.605 14/03/2059]',-5.470,76.972,18.364,27.741,2.735,18.364,17.582,76.972,6.252,-9.377,16.020,44.933,3.907,6.252,0.781,45.714,8.987,22.662,-17.582,-51.966,20.708,0.781,0.781
'[08:22:35.609 14/03/2059]',-6.252,78.926,8.205,29.695,1.954,15.238,17.582,73.455,7.424,-7.424,17.192,37.900,4.298,8.987,-2.344,44.151,4.689,19.145,-7.424,-67.985,23.443,13.284,-2.344
'[08:22:35.613 14/03/2059]',-8.987,68.767,12.112,32.039,-0.781,14.066,17.973,71.111,4.689,-5.861,20.317,35.946,4.689,6.642,-1.563,45.714,3.907,17.192,-11.331,-46.105,23.443,-1.172,-1.563
'[08:22:35.617 14/03/2059]',-9.768,57.827,15.238,36.728,0.000,11.722,16.020,71.111,3.126,-5.470,17.973,36.337,1.172,6.642,-7.424,51.966,4.298,20.317,-14.457,-36.337,24.615,-7.033,-7.424
'[08:22:35.621 14/03/2059]',-9.377,48.840,15.238,41.416,1.954,7.424,17.582,66.032,3.516,-5.079,18.364,31.258,-1.954,5.470,-8.596,53.919,3.516,18.755,-14.457,-45.714,23.834,5.861,-8.596
'[08:22:35.625 14/03/2059]',-7.814,38.681,16.801,42.979,5.861,2.344,21.880,57.827,5.861,-4.689,21.099,27.741,-1.172,3.516,-7.814,57.045,5.470,15.629,-16.020,-35.946,22.662,3.126,-7.814
'[08:22:35.629 14/03/2059]',-9.377,32.039,12.112,49.621,7.814,-2.344,21.880,55.092,5.079,-5.861,17.973,33.602,-3.907,-0.391,-10.549,66.813,9.377,17.582,-11.331,-26.569,22.662,-6.642,-10.549
'[08:22:35.633 14/03/2059]',-10.159,26.569,4.689,54.701,10.159,-7.033,18.755,51.575,1.563,-6.642,14.066,33.211,-8.596,-2.735,-14.847,70.720,8.205,17.973,-3.907,-37.118,25.006,1.172,-14.847
'[08:22:35.637 14/03/2059]',-10.159,20.708,3.126,52.357,13.675,-7.814,19.536,39.463,1.563,-3.126,19.536,25.006,-4.689,-4.298,-10.549,65.250,7.814,15.629,-2.344,-30.476,25.006,0.391,-10.549
'[08:22:35.641 14/03/2059]',-12.503,14.066,4.298,52.747,14.457,-7.424,16.801,32.821,0.000,0.781,21.490,21.099,-2.344,-5.470,-7.814,62.515,9.377,15.238,-3.516,-8.987,25.788,-14.066,-7.814
'[08:22:35.645 14/03/2059]',-16.020,5.861,0.391,56.654,16.020,-13.284,8.596,32.430,0.391,2.344,17.582,14.847,-4.689,-5.861,-8.987,57.827,8.205,14.066,0.391,-14.847,31.648,-5.470,-8.987
'[08:22:35.648 14/03/2059]',-13.284,-0.391,-4.689,53.919,19.927,-17.582,5.861,24.225,6.252,4.689,19.145,7.424,-3.516,-1.954,-1.172,47.668,6.642,10.940,5.470,-21.099,30.085,9.377,-1.172
'[08:22:35.652 14/03/2059]',-12.894,-3.126,-10.549,51.966,18.364,-17.582,1.563,20.317,10.549,3.516,21.490,6.252,-4.689,-1.563,6.642,43.370,9.377,4.689,11.331,-4.298,25.397,-1.563,6.642
'[08:22:35.656 14/03/2059]',-12.112,-4.298,-14.457,51.575,16.410,-16.801,-3.126,21.490,9.377,0.781,23.053,8.205,-8.987,-2.344,10.940,43.761,14.066,5.079,15.238,-0.391,23.834,-5.861,10.940
'[08:22:35.660 14/03/2059]',-8.596,-1.954,-15.238,48.449,15.238,-8.205,-4.298,17.582,7.424,0.781,32.039,2.735,-11.722,-0.781,16.020,42.198,18.364,9.377,16.020,-16.410,18.755,9.377,16.020
'[08:22:35.664 14/03/2059]',-3.907,0.781,-14.066,44.151,15.629,0.391,-7.033,15.238,4.689,4.689,42.589,-1.954,-8.205,-2.344,20.708,41.807,24.615,9.768,14.847,-14.066,17.192,5.470,20.708
'[08:22:35.668 14/03/2059]',-5.861,-6.642,-7.814,42.589,12.503,-1.172,-13.675,21.490,1.563,6.252,43.761,-7.033,-5.470,-6.252,17.192,41.026,31.258,6.642,8.596,5.470,20.317,-10.940,17.192
'[08:22:35.672 14/03/2059]',-5.861,-16.020,-7.033,39.853,13.675,-7.033,-23.053,24.225,0.391,7.814,39.463,-7.814,-4.689,-9.377,14.847,41.026,31.648,5.861,7.814,-0.391,22.271,-2.735,14.847
'[08:22:35.676 14/03/2059]',-1.954,-21.099,-9.768,31.648,20.317,-13.284,-30.085,19.536,3.126,9.768,37.509,-10.159,-0.391,-9.768,12.503,39.853,28.132,0.391,10.549,-4.298,19.927,3.907,12.503
'[08:22:35.680 14/03/2059]',0.391,-19.927,-13.675,22.271,21.099,-18.364,-35.556,19.536,3.907,11.331,35.165,-10.940,1.172,-8.987,14.066,35.165,26.569,-3.126,14.457,10.159,15.629,-10.940,14.066
'[08:22:35.684 14/03/2059]',4.298,-15.629,-16.801,14.847,21.099,-17.192,-38.681,20.317,3.126,11.722,34.774,-7.814,-0.391,-7.424,15.629,35.556,24.615,3.126,17.582,3.907,8.987,-11.722,15.629
'[08:22:35.688 14/03/2059]',10.549,-6.252,-14.457,2.344,24.225,-8.987,-33.993,9.377,5.470,13.675,40.244,-13.284,0.000,-3.126,18.755,32.039,21.490,8.987,15.238,-13.675,2.735,0.000,18.755
'[08:22:35.691 14/03/2059]',16.801,3.126,-6.642,-9.377,24.225,0.391,-25.006,3.516,4.298,14.847,46.496,-17.973,0.391,-2.344,23.443,27.350,19.536,13.675,7.424,-12.503,-1.954,-8.205,23.443
'[08:22:35.695 14/03/2059]',14.847,13.284,1.172,-15.238,19.145,5.470,-18.364,5.470,0.391,10.549,46.886,-14.066,-3.126,-7.033,26.960,28.523,18.755,21.880,-0.391,-17.973,-4.298,-15.629,26.960
'[08:22:35.699 14/03/2059]',10.549,25.397,4.689,-24.225,15.238,8.596,-13.284,3.907,-0.391,6.642,44.151,-12.112,-7.424,-10.549,26.960,30.085,13.675,27.741,-3.907,-40.635,-6.252,-6.642,26.960
'[08:22:35.703 14/03/2059]',11.331,41.026,6.642,-36.337,12.894,9.377,-3.516,2.735,-3.516,4.298,47.277,-15.238,-7.814,-12.503,30.476,24.225,8.205,25.788,-5.861,-43.370,-12.894,-13.675,30.476
'[08:22:35.707 14/03/2059]',9.768,57.045,4.298,-45.324,6.642,6.252,3.126,7.033,-5.079,3.516,50.012,-11.722,-6.252,-14.847,37.900,21.490,6.642,29.304,-3.516,-42.198,-19.145,-27.741,37.900
'[08:22:35.711 14/03/2059]',8.987,63.297,9.768,-51.575,2.735,6.642,8.987,8.987,-5.470,4.689,53.138,-8.596,-5.079,-12.112,42.198,19.927,1.563,38.291,-8.987,-59.780,-21.490,-14.457,42.198
'[08:22:35.715 14/03/2059]',11.331,68.767,21.099,-60.171,3.126,12.112,16.801,5.861,-3.516,6.642,61.734,-8.987,0.391,-10.159,52.747,13.675,-1.563,43.761,-20.317,-71.111,-23.834,-5.861,52.747
'[08:22:35.719 14/03/2059]',14.847,76.972,30.085,-65.641,2.735,19.145,26.178,5.470,-5.470,10.159,68.376,-3.907,4.298,-9.768,62.906,11.722,-1.563,53.529,-29.304,-60.562,-26.960,-20.708,62.906
'[08:22:35.723 14/03/2059]',10.549,83.614,36.337,-65.641,-0.781,25.006,32.039,6.252,-7.814,11.331,70.330,5.861,4.689,-8.987,67.595,16.801,-2.735,67.595,-35.556,-64.860,-27.350,-21.880,67.595
'[08:22:35.727 14/03/2059]',8.987,94.164,39.072,-68.376,-1.954,28.913,41.026,4.298,-7.033,12.503,72.674,5.861,3.126,-5.861,70.720,16.801,-9.377,77.753,-38.291,-83.223,-31.258,-8.596,70.720
'[08:22:35.730 14/03/2059]',10.549,105.495,36.337,-72.674,-2.735,27.741,51.575,1.954,-6.642,12.894,75.409,2.344,3.516,-1.954,71.502,11.331,-14.066,76.972,-35.556,-79.316,-36.728,-13.675,71.502
'[08:22:35.734 14/03/2059]',9.768,110.965,33.602,-70.330,-5.470,21.880,58.608,7.424,-4.689,9.768,74.237,7.033,5.470,0.391,70.330,10.549,-14.847,78.926,-32.821,-69.158,-40.244,-21.490,70.330
'[08:22:35.738 14/03/2059]',8.596,114.090,30.867,-67.204,-6.252,17.192,66.813,8.205,-4.689,7.814,71.893,4.689,4.298,3.126,66.032,6.252,-19.536,81.270,-30.085,-84.786,-42.589,-3.907,66.032
'[08:22:35.742 14/03/2059]',8.596,117.607,26.569,-65.641,-7.814,14.457,73.065,5.861,-5.470,7.033,73.065,3.126,3.126,6.642,66.422,1.563,-21.490,76.972,-25.788,-90.647,-45.714,3.516,66.422
'[08:22:35.746 14/03/2059]',6.642,115.263,24.615,-61.343,-12.112,13.675,74.628,7.814,-8.987,6.642,71.893,9.377,1.954,7.033,66.813,2.735,-16.801,76.972,-23.834,-76.190,-48.059,-5.079,66.813
'[08:22:35.750 14/03/2059]',2.735,110.183,23.443,-56.264,-17.973,12.503,75.409,8.596,-14.066,4.298,69.158,11.331,-3.516,6.642,64.469,3.907,-15.629,77.753,-22.662,-78.535,-48.059,-2.344,64.469
'[08:22:35.754 14/03/2059]',5.470,107.057,20.708,-56.654,-20.317,13.675,76.581,3.907,-14.847,3.126,69.548,7.033,-5.079,6.642,62.906,1.563,-16.801,73.065,-19.927,-81.270,-51.966,4.298,62.906
'[08:22:35.758 14/03/2059]',8.987,106.276,16.801,-56.654,-21.880,13.675,80.488,2.344,-13.675,4.298,68.376,2.344,-2.735,6.642,61.734,-3.516,-15.629,68.767,-16.020,-69.158,-55.092,-4.689,61.734
'[08:22:35.762 14/03/2059]',9.768,104.713,8.987,-49.621,-22.271,8.596,80.488,6.252,-15.629,7.033,63.297,3.126,-3.907,4.298,59.389,-0.781,-12.894,70.720,-8.205,-73.846,-52.357,-6.252,59.389
'[08:22:35.766 14/03/2059]',7.814,104.713,-1.563,-45.324,-23.053,3.126,78.535,5.079,-15.629,10.940,56.654,0.391,-6.252,4.298,56.264,-0.781,-15.238,68.376,2.344,-91.819,-50.794,6.252,56.264
'[08:22:35.770 14/03/2059]',3.126,100.806,-6.642,-46.886,-26.178,-0.391,76.190,0.781,-14.847,13.675,52.357,-1.172,-6.642,4.298,58.217,-5.079,-13.675,56.264,7.424,-80.879,-54.701,-0.781,58.217
'[08:22:35.773 14/03/2059]',1.172,87.912,-6.642,-44.151,-27.741,-4.689,70.720,0.391,-17.582,10.549,46.496,6.252,-10.940,1.563,58.999,-1.563,-11.331,49.231,7.424,-61.343,-57.436,-13.675,58.999
'[08:22:35.777 14/03/2059]',2.344,75.800,-9.377,-41.807,-28.132,-6.642,63.687,-2.344,-18.755,5.470,38.681,11.331,-16.020,-2.344,55.873,0.781,-14.066,42.979,10.159,-65.641,-63.297,-3.907,55.873
'[08:22:35.781 14/03/2059]',7.424,69.939,-12.112,-46.105,-29.304,-3.907,61.734,-9.377,-19.145,1.172,33.211,8.987,-16.020,-3.907,50.794,-3.907,-17.973,35.165,12.894,-64.860,-69.158,0.391,50.794
'[08:22:35.785 14/03/2059]',14.847,68.767,-16.410,-46.496,-26.960,-2.735,58.999,-8.596,-21.490,0.391,29.695,12.112,-12.503,-8.205,44.933,-2.344,-16.410,30.867,17.192,-48.449,-72.283,-16.410,44.933
'[08:22:35.789 14/03/2059]',18.364,69.548,-24.615,-42.979,-25.788,-3.516,58.608,-7.814,-28.523,2.344,25.006,13.284,-9.768,-12.503,37.900,-0.391,-13.675,30.476,25.397,-53.138,-72.674,-16.410,37.900
'[08:22:35.793 14/03/2059]',19.145,70.330,-31.258,-43.761,-27.741,-3.907,58.217,-11.331,-33.602,9.768,21.490,7.424,-8.596,-10.159,31.258,-4.689,-14.066,27.741,32.039,-70.330,-68.376,-1.563,31.258
'[08:22:35.797 14/03/2059]',17.973,70.330,-32.430,-46.496,-32.430,-1.172,58.999,-14.847,-34.774,16.410,23.834,2.344,-4.298,-9.377,32.821,-8.596,-7.424,21.880,33.211,-55.482,-71.502,-10.549,32.821
'[08:22:35.801 14/03/2059]',16.801,66.813,-35.946,-40.635,-37.900,0.391,58.999,-12.894,-36.337,22.662,19.927,2.735,-3.126,-11.331,30.476,-3.516,0.391,22.271,36.728,-40.244,-72.674,-23.834,30.476
'[08:22:35.805 14/03/2059]',19.536,64.469,-44.151,-33.211,-38.681,1.563,59.780,-16.801,-32.821,26.178,14.066,1.954,-4.298,-10.159,26.569,0.391,2.735,20.708,44.933,-53.529,-72.283,-9.768,26.569
'[08:22:35.809 14/03/2059]',25.006,66.032,-53.138,-28.523,-37.118,5.470,62.125,-21.880,-25.788,28.523,13.284,-0.781,-3.126,-8.205,26.569,1.563,8.596,14.457,53.919,-51.184,-78.535,-8.205,26.569
'[08:22:35.813 14/03/2059]',29.695,60.952,-64.078,-17.582,-35.556,4.298,58.999,-19.536,-23.834,28.523,8.596,1.172,-3.516,-10.159,24.615,5.861,15.238,11.331,64.860,-35.165,-82.051,-21.490,24.615
'[08:22:35.816 14/03/2059]',29.695,53.529,-75.018,-8.205,-35.165,0.391,54.701,-19.927,-25.006,25.788,4.689,3.516,-10.159,-10.940,24.615,7.814,16.410,8.596,75.800,-38.681,-80.098,-15.238,24.615
'[08:22:35.820 14/03/2059]',28.913,46.105,-79.707,-6.252,-35.556,0.391,51.575,-27.350,-23.443,25.397,5.470,-0.781,-10.549,-9.768,25.397,3.516,14.066,4.298,80.488,-32.821,-80.098,-9.768,25.397
'[08:22:35.824 14/03/2059]',21.880,30.085,-74.237,-3.907,-44.933,1.563,46.886,-29.304,-23.834,23.834,3.516,-3.516,-8.205,-16.801,22.662,3.907,15.629,3.516,75.018,-1.954,-78.144,-25.397,22.662
'[08:22:35.828 14/03/2059]',16.801,15.238,-71.893,5.470,-50.012,0.781,39.853,-24.615,-26.569,20.708,-0.781,2.344,-7.814,-24.225,17.192,10.940,16.801,7.033,72.674,5.470,-69.939,-22.662,17.192
'[08:22:35.832 14/03/2059]',11.331,6.252,-72.283,11.722,-54.310,0.781,36.337,-24.615,-25.397,21.099,-5.470,3.516,-3.516,-28.523,8.596,17.192,16.801,7.814,73.065,0.391,-59.780,-11.722,8.596
'[08:22:35.836 14/03/2059]',6.642,0.391,-71.111,16.020,-59.780,0.781,32.821,-21.880,-25.788,20.708,-6.642,0.000,1.563,-34.774,4.298,16.020,22.662,1.954,71.893,21.490,-55.092,-26.178,4.298
'[08:22:35.840 14/03/2059]',2.344,-7.424,-69.939,25.788,-58.608,-0.391,25.397,-14.847,-27.350,18.755,-6.252,6.642,4.298,-38.681,3.126,22.271,28.913,-2.735,70.720,39.463,-47.668,-35.946,3.126
'[08:22:35.844 14/03/2059]',-0.781,-13.675,-69.939,33.211,-53.138,-2.735,20.317,-14.847,-26.569,17.582,-6.642,3.907,1.563,-37.900,2.344,22.271,29.695,-7.033,70.720,30.476,-39.463,-21.099,2.344
'[08:22:35.848 14/03/2059]',-2.344,-13.675,-68.376,35.165,-47.668,0.391,14.457,-17.582,-23.834,20.317,-3.907,-3.516,1.172,-33.993,3.516,17.582,31.258,-13.675,69.158,32.821,-35.556,-18.755,3.516
'[08:22:35.852 14/03/2059]',-2.735,-15.238,-66.422,37.509,-40.244,1.954,7.814,-17.192,-22.662,21.490,-4.298,-7.033,-0.781,-32.039,5.079,14.066,33.602,-16.410,67.204,50.012,-35.946,-28.523,5.079
'[08:22:35.855 14/03/2059]',-5.079,-15.238,-68.376,43.370,-33.602,0.391,1.172,-15.238,-21.880,24.225,-9.377,-11.722,-7.424,-26.960,2.735,12.112,33.993,-10.940,69.158,40.244,-31.648,-18.364,2.735
'[08:22:35.859 14/03/2059]',-9.377,-8.205,-72.283,42.979,-31.258,1.172,0.391,-18.755,-17.582,30.476,-13.284,-19.536,-11.331,-17.192,1.172,7.033,32.430,-9.377,73.065,22.271,-28.132,-1.954,1.172
'[08:22:35.863 14/03/2059]',-12.112,-10.549,-64.860,43.761,-30.476,3.126,0.391,-17.582,-12.503,34.774,-14.847,-26.960,-9.768,-11.722,0.391,1.954,36.337,-9.377,65.641,42.979,-26.960,-12.112,0.391
'[08:22:35.867 14/03/2059]',-14.847,-14.457,-57.045,49.231,-30.867,5.470,0.391,-12.503,-8.987,39.072,-19.927,-25.397,-8.987,-6.252,-0.781,1.172,41.807,-5.861,57.827,54.701,-23.834,-13.675,-0.781
'[08:22:35.871 14/03/2059]',-12.503,-12.503,-53.138,51.184,-29.304,8.596,5.470,-12.112,-5.470,41.807,-20.317,-32.039,-7.033,-1.172,-4.689,-0.781,42.979,-2.735,53.919,39.853,-17.192,2.344,-4.689
'[08:22:35.875 14/03/2059]',-8.987,-8.596,-49.621,50.403,-28.132,11.722,10.940,-11.722,-2.344,44.151,-17.192,-35.946,-3.126,-1.563,-3.516,-1.954,44.151,-2.344,50.403,44.542,-20.708,0.781,-3.516
'[08:22:35.879 14/03/2059]',-7.814,-2.735,-50.403,52.357,-27.350,10.159,11.331,-3.907,-4.298,43.761,-14.847,-32.039,-2.735,-6.642,-0.781,2.344,46.886,2.735,51.184,48.449,-25.006,-6.642,-0.781
'[08:22:35.883 14/03/2059]',-8.205,3.516,-56.264,55.092,-27.350,7.033,10.940,1.954,-7.424,40.244,-13.675,-27.350,-5.470,-8.987,-1.172,7.814,47.277,6.642,57.045,31.648,-24.615,-1.172,-1.172
'[08:22:35.887 14/03/2059]',-7.033,9.377,-56.264,48.449,-26.960,8.596,13.675,-0.781,-4.298,39.463,-7.814,-28.913,-1.954,-9.768,1.172,7.033,47.277,3.907,57.045,31.258,-31.258,-0.781,1.172
'[08:22:35.891 14/03/2059]',-6.642,10.549,-50.012,44.933,-26.960,9.377,12.112,3.516,-4.298,38.681,-5.079,-27.741,1.563,-9.768,4.298,3.907,50.794,1.954,50.794,49.621,-34.383,-15.238,4.298
'[08:22:35.895 14/03/2059]',-5.861,7.814,-47.668,42.979,-30.085,9.377,8.596,7.814,-5.470,35.946,-7.814,-26.569,0.781,-5.470,0.391,0.000,48.840,5.861,48.449,41.026,-30.476,-6.252,0.391
'[08:22:35.898 14/03/2059]',-3.516,12.503,-48.059,36.337,-32.039,10.940,9.377,7.814,-4.689,36.728,-8.596,-33.211,0.781,0.000,-3.126,-7.033,43.761,6.642,48.840,25.788,-29.695,8.596,-3.126
'[08:22:35.902 14/03/2059]',-1.563,17.192,-48.059,30.476,-35.556,8.987,11.722,10.549,-6.642,41.026,-7.814,-35.556,3.126,3.126,-4.298,-12.503,42.589,5.470,48.840,38.681,-30.867,-1.563,-4.298
'[08:22:35.906 14/03/2059]',-0.391,18.364,-48.840,28.132,-37.900,3.516,13.284,17.973,-12.894,42.198,-11.722,-32.039,1.954,4.689,-9.768,-11.722,43.370,8.987,49.621,42.589,-28.523,-7.033,-9.768
'[08:22:35.910 14/03/2059]',1.172,23.053,-53.529,23.443,-40.244,1.172,15.238,18.364,-18.364,42.198,-12.112,-31.258,-1.172,6.642,-13.675,-12.112,40.244,7.814,54.310,22.662,-27.350,6.252,-13.675
'[08:22:35.914 14/03/2059]',3.907,19.927,-44.151,14.066,-39.072,-1.172,15.238,20.317,-19.536,44.542,-10.940,-27.350,2.735,7.814,-8.987,-15.629,34.774,0.391,44.933,30.085,-28.913,3.516,-8.987
'[08:22:35.918 14/03/2059]',4.298,16.801,-36.337,6.642,-40.635,-4.689,12.503,25.788,-17.582,42.198,-14.066,-20.317,5.079,8.205,-6.642,-17.192,32.430,-5.470,37.118,47.668,-32.821,-12.503,-6.642
'[08:22:35.922 14/03/2059]',5.470,17.973,-34.774,2.735,-40.635,-8.596,11.722,30.085,-14.457,39.072,-19.145,-14.066,3.516,10.159,-5.079,-17.973,23.443,-5.079,35.556,31.648,-34.774,-2.735,-5.079
'[08:22:35.926 14/03/2059]',7.424,25.397,-30.085,0.000,-36.337,-9.377,16.020,32.039,-9.768,41.416,-18.755,-8.987,4.689,16.020,1.563,-19.536,15.629,-4.298,30.867,19.536,-37.900,7.814,1.563
'[08:22:35.930 14/03/2059]',4.689,32.039,-23.834,0.781,-34.383,-9.768,20.317,38.681,-9.377,39.853,-14.066,-2.344,3.516,21.099,5.861,-18.755,19.536,-3.126,24.615,33.211,-39.853,-5.079,5.861
'[08:22:35.934 14/03/2059]',-0.391,33.993,-19.927,7.814,-35.946,-11.331,22.271,46.496,-13.675,35.556,-8.205,8.987,0.391,25.006,9.377,-13.675,21.880,1.563,20.708,32.821,-35.165,-5.079,9.377
'[08:22:35.938 14/03/2059]',-3.126,36.728,-19.145,7.814,-33.602,-12.503,24.225,43.761,-17.582,32.821,-2.344,12.112,-1.172,29.304,10.940,-14.847,22.271,-1.563,19.927,21.490,-31.648,8.205,10.940
'[08:22:35.941 14/03/2059]',-5.861,37.118,-17.582,3.907,-32.821,-16.020,27.350,38.681,-19.145,28.913,0.781,13.675,2.344,28.913,10.549,-17.192,22.271,-10.159,18.364,28.913,-27.741,3.516,10.549
'[08:22:35.945 14/03/2059]',-12.112,31.648,-18.755,4.298,-37.900,-22.662,27.350,38.291,-21.099,25.006,-1.172,14.847,3.907,25.788,4.298,-17.192,20.317,-10.159,19.536,32.039,-19.927,-1.172,4.298
'[08:22:35.949 14/03/2059]',-12.894,33.602,-24.225,5.079,-36.337,-26.960,30.085,35.556,-19.927,25.006,-5.079,14.457,5.861,23.443,1.172,-16.801,14.066,-6.642,25.006,14.066,-13.675,9.377,1.172
'[08:22:35.953 14/03/2059]',-16.410,30.476,-14.066,3.516,-37.118,-26.960,37.509,29.695,-17.192,27.741,-1.954,8.987,11.331,22.662,3.516,-20.317,11.331,-4.689,14.847,23.834,-10.159,5.079,3.516
'[08:22:35.957 14/03/2059]',-23.834,22.662,-1.563,8.596,-39.072,-28.132,42.589,32.039,-14.847,28.523,4.298,8.205,13.675,22.662,10.549,-21.490,13.284,1.172,2.344,41.416,-1.172,-7.033,10.549
'[08:22:35.961 14/03/2059]',-26.569,15.629,4.298,17.192,-37.118,-27.741,43.761,33.602,-13.675,28.523,7.814,13.284,11.722,24.225,19.536,-19.927,13.675,6.642,-3.516,28.132,9.768,5.079,19.536
'[08:22:35.965 14/03/2059]',-29.695,10.549,9.377,21.099,-34.774,-27.350,42.589,32.430,-10.549,29.695,9.768,17.192,11.722,26.960,27.350,-19.536,13.675,4.689,-8.596,19.927,20.708,14.457,27.350
'[08:22:35.969 14/03/2059]',-34.774,5.079,10.549,20.708,-36.728,-30.476,37.900,32.039,-9.377,28.523,8.987,16.020,12.112,26.569,32.039,-26.960,15.629,-1.954,-9.768,32.821,27.350,1.954,32.039
'[08:22:35.973 14/03/2059]',-39.072,1.954,5.470,24.225,-38.291,-32.430,30.476,33.602,-12.112,26.569,5.861,19.145,7.033,26.569,33.211,-26.569,14.066,0.000,-4.689,32.821,32.430,0.781,33.211
'[08:22:35.977 14/03/2059]',-42.589,-0.781,7.033,23.443,-35.946,-35.165,26.178,31.258,-14.457,25.006,2.735,20.317,1.954,26.960,33.602,-28.913,5.861,2.344,-6.252,22.271,36.337,13.284,33.602
'[08:22:35.980 14/03/2059]',-43.370,-5.079,15.238,19.927,-30.867,-37.118,28.132,26.960,-12.894,19.927,4.298,19.536,1.954,27.741,37.900,-35.946,1.172,-1.563,-14.457,31.258,37.900,12.894,37.900
'[08:22:35.984 14/03/2059]',-42.198,-8.596,21.880,20.708,-24.225,-39.853,30.085,26.178,-12.503,14.066,5.079,25.788,0.391,27.350,39.072,-34.774,1.172,-0.391,-21.099,40.635,43.370,4.298,39.072
'[08:22:35.988 14/03/2059]',-40.635,-12.112,28.523,24.225,-14.066,-43.761,33.211,24.615,-12.112,10.549,1.954,34.774,-2.735,26.569,41.026,-28.913,-0.781,0.391,-27.741,22.662,51.184,17.192,41.026
'[08:22:35.992 14/03/2059]',-41.416,-12.894,35.556,20.317,-7.424,-43.761,35.946,16.801,-7.814,9.377,1.954,32.039,-0.391,26.569,41.807,-31.258,-0.781,-5.470,-34.774,12.894,55.092,25.788,41.807
'[08:22:35.996 14/03/2059]',-45.324,-8.205,34.774,18.364,-8.596,-42.979,34.383,16.410,-5.079,8.987,0.781,33.211,-0.391,26.178,42.979,-29.695,0.391,-5.079,-33.993,18.364,57.045,13.675,42.979
'[08:22:36.000 14/03/2059]',-51.184,-12.112,37.118,17.973,-12.503,-42.198,28.913,16.410,-3.907,5.079,-3.516,35.946,-4.298,24.225,41.807,-27.350,-5.861,-0.781,-36.337,17.973,56.654,13.675,41.807
'[08:22:36.004 14/03/2059]',-54.310,-13.675,38.681,12.894,-15.238,-39.853,27.741,10.549,0.781,-1.172,-4.298,32.430,-4.689,24.615,42.979,-34.383,-16.020,-1.954,-37.900,10.549,57.436,25.006,42.979
'[08:22:36.008 14/03/2059]',-55.092,-15.238,36.337,7.814,-17.973,-39.463,25.397,5.470,6.642,-7.424,-6.642,28.523,-3.126,24.225,42.589,-42.979,-19.927,-5.470,-35.556,19.536,56.264,19.145,42.589
'[08:22:36.012 14/03/2059]',-58.608,-21.880,34.774,9.377,-23.053,-41.026,22.662,5.079,5.470,-14.066,-10.549,29.695,-7.424,20.708,41.416,-44.933,-19.927,-2.344,-33.993,20.708,58.999,17.192,41.416
'[08:22:36.016 14/03/2059]',-55.873,-26.960,34.383,12.503,-19.145,-41.416,21.099,3.126,3.126,-15.238,-11.331,26.569,-11.722,18.364,41.416,-45.324,-20.708,0.000,-33.602,5.079,63.687,29.695,41.416
'[08:22:36.020 14/03/2059]',-53.529,-29.304,36.337,10.940,-14.457,-39.072,20.708,-1.954,2.344,-12.503,-9.377,20.708,-10.549,17.582,44.542,-50.794,-16.410,-1.563,-35.556,10.549,65.250,22.662,44.542
'[08:22:36.023 14/03/2059]',-52.357,-33.211,39.072,12.112,-9.768,-37.900,18.364,-4.298,-1.954,-12.894,-6.642,20.708,-14.066,14.457,47.277,-49.231,-13.284,-1.172,-38.291,22.271,63.687,9.768,47.277
'[08:22:36.027 14/03/2059]',-48.059,-33.993,39.463,14.066,-1.954,-33.993,16.020,-7.814,-9.377,-12.112,-0.391,17.582,-21.490,15.629,49.621,-49.621,-15.238,3.126,-38.681,6.252,65.250,21.490,49.621
'[08:22:36.031 14/03/2059]',-43.761,-29.695,38.291,12.503,0.781,-25.006,15.238,-12.894,-9.768,-10.159,8.596,15.238,-20.708,21.099,53.529,-50.403,-17.192,4.298,-37.509,-7.033,64.469,32.430,53.529
'[08:22:36.035 14/03/2059]',-41.807,-23.053,34.383,10.159,-2.735,-16.801,13.675,-13.675,-8.596,-10.940,16.410,12.112,-17.582,22.271,52.357,-49.231,-14.457,8.205,-33.602,1.563,59.389,17.973,52.357
'[08:22:36.039 14/03/2059]',-36.728,-16.020,26.178,13.675,-3.907,-10.549,12.503,-10.159,-8.987,-12.503,21.880,12.894,-18.364,23.443,51.575,-44.151,-14.847,19.145,-25.397,-6.252,55.482,17.973,51.575
'[08:22:36.043 14/03/2059]',-32.039,-10.940,20.708,16.801,-2.344,-7.033,11.331,-7.814,-0.391,-13.284,21.490,18.364,-16.020,26.569,52.357,-37.118,-17.192,25.397,-19.927,-29.304,53.919,35.556,52.357
'[08:22:36.047 14/03/2059]',-30.085,-9.377,22.662,14.066,-1.172,-4.689,12.503,-8.596,8.205,-17.973,20.708,12.503,-12.112,26.569,47.277,-37.900,-17.192,22.271,-21.880,-18.755,48.449,26.178,47.277
'[08:22:36.051 14/03/2059]',-28.132,-12.503,25.397,16.801,0.781,-7.424,12.894,-4.689,12.112,-23.443,15.238,18.364,-13.284,25.006,41.026,-29.695,-12.894,20.317,-24.615,-8.205,46.496,16.410,41.026
'[08:22:36.055 14/03/2059]',-23.834,-16.410,27.350,17.973,7.033,-9.377,11.722,-4.689,17.192,-28.132,8.987,18.755,-13.675,25.788,31.258,-25.006,-12.503,14.847,-26.569,-21.880,45.714,33.602,31.258
'[08:22:36.059 14/03/2059]',-17.973,-17.192,28.913,14.847,11.722,-10.159,13.284,-6.252,21.880,-32.821,7.424,16.410,-11.722,24.615,23.834,-23.053,-13.675,5.470,-28.132,-21.880,39.853,36.728,23.834
'[08:22:36.063 14/03/2059]',-12.112,-17.973,27.350,14.847,14.457,-13.675,11.722,-0.391,17.192,-37.900,2.735,22.662,-12.894,18.364,17.192,-17.192,-13.675,3.516,-26.569,-7.424,33.993,19.536,17.192
'[08:22:36.066 14/03/2059]',-7.424,-17.973,25.397,17.192,16.410,-14.066,11.722,3.126,12.894,-41.416,0.000,33.211,-14.847,12.894,14.457,-8.205,-16.410,6.642,-24.615,-15.629,30.867,21.099,14.457
'[08:22:36.070 14/03/2059]',-3.516,-14.847,26.569,11.722,14.847,-12.503,15.238,1.563,10.549,-44.542,0.391,32.039,-12.503,7.033,11.331,-7.424,-19.927,3.516,-25.788,-20.317,25.006,20.317,11.331
'[08:22:36.074 14/03/2059]',-1.563,-13.675,32.430,7.424,12.503,-8.987,19.536,1.954,7.424,-46.886,3.516,30.867,-9.768,0.391,10.940,-4.689,-17.192,1.172,-31.648,-5.470,17.192,3.907,10.940
'[08:22:36.078 14/03/2059]',0.781,-17.973,39.072,9.768,9.377,-6.252,20.708,5.861,2.344,-48.449,5.861,32.821,-11.722,-5.079,6.252,3.907,-14.066,4.689,-38.291,-5.861,15.238,2.344,6.252
'[08:22:36.082 14/03/2059]',2.344,-18.755,42.979,8.987,7.814,-3.516,20.317,10.159,1.172,-47.277,9.768,27.741,-10.549,-7.033,2.344,6.252,-14.847,5.470,-42.198,-17.582,14.066,11.722,2.344
'[08:22:36.086 14/03/2059]',6.252,-12.894,44.933,7.424,8.987,-0.391,22.662,13.675,0.391,-44.542,16.410,21.880,-5.470,-8.205,0.391,7.814,-12.112,5.079,-44.151,-7.033,11.331,-1.563,0.391
'[08:22:36.090 14/03/2059]',5.861,-11.722,50.403,8.987,7.814,-0.391,26.960,17.582,-0.391,-42.979,16.410,19.927,-2.344,-10.159,-4.298,10.159,-10.940,8.596,-49.621,2.344,14.066,-13.675,-4.298
'[08:22:36.094 14/03/2059]',2.735,-8.596,55.873,7.814,7.814,-1.172,31.648,18.755,1.172,-41.807,14.066,17.973,1.563,-13.284,-10.549,13.284,-13.284,13.675,-55.092,-16.801,21.099,-1.172,-10.549
'[08:22:36.098 14/03/2059]',1.172,-3.126,64.860,1.172,10.159,1.172,39.463,10.940,4.689,-42.198,14.066,8.205,4.689,-15.629,-12.894,9.768,-13.675,12.894,-64.078,-19.145,21.099,1.563,-12.894
'[08:22:36.102 14/03/2059]',1.172,-17.582,91.429,-2.344,14.847,4.298,45.324,5.861,7.814,-45.324,12.112,9.377,5.079,-20.708,-10.940,12.112,-13.284,12.112,-90.647,8.987,21.490,-10.549,-10.940
'[08:22:36.105 14/03/2059]',-0.391,-28.132,107.057,-1.954,16.801,5.861,43.761,5.861,1.954,-47.277,9.377,15.629,-1.954,-22.271,-10.549,17.192,-17.192,18.755,-106.276,10.940,25.006,-7.033,-10.549
'[08:22:36.109 14/03/2059]',0.391,-32.821,117.216,-5.861,21.880,10.159,42.198,2.344,-0.391,-46.105,11.722,15.238,-6.642,-19.927,-7.424,16.020,-22.662,20.317,-116.435,3.126,24.615,5.861,-7.424
'[08:22:36.113 14/03/2059]',3.126,-34.774,125.031,-10.940,26.569,12.503,39.853,0.391,-0.781,-46.496,14.066,17.582,-5.079,-17.973,-6.642,16.020,-24.225,16.801,-124.249,18.364,23.053,-7.033,-6.642
'[08:22:36.117 14/03/2059]',1.954,-34.383,124.640,-10.549,26.178,10.549,36.337,5.079,-3.126,-48.840,10.549,25.397,-5.079,-19.927,-14.066,25.397,-24.225,14.457,-123.858,19.927,25.397,-17.192,-14.066
'[08:22:36.121 14/03/2059]',0.391,-30.085,125.812,-13.284,30.085,8.987,39.072,1.563,-0.391,-49.621,7.033,24.225,-3.907,-21.099,-19.536,27.350,-22.662,8.205,-125.031,1.563,28.523,-3.516,-19.536
'[08:22:36.125 14/03/2059]',1.172,-27.350,133.626,-16.020,35.946,8.596,45.324,-0.781,2.344,-48.449,5.470,23.834,-0.391,-24.615,-21.099,31.258,-18.364,0.781,-132.845,4.298,30.476,-5.861,-21.099
'[08:22:36.129 14/03/2059]',-1.172,-27.350,139.878,-12.112,38.291,6.252,50.012,0.391,-1.172,-46.496,0.391,27.350,-2.344,-30.085,-20.317,34.774,-14.066,0.391,-139.096,13.284,37.900,-19.145,-20.317
'[08:22:36.133 14/03/2059]',-2.735,-21.880,141.050,-8.205,41.807,5.470,55.092,1.172,-3.516,-39.853,-0.391,26.178,-6.252,-30.085,-15.238,34.383,-10.940,5.079,-140.269,-0.391,45.324,-12.503,-15.238
'[08:22:36.137 14/03/2059]',1.172,-13.675,144.957,-13.284,51.184,10.159,60.171,-5.079,0.000,-30.476,3.516,20.317,-2.735,-28.132,-5.861,31.648,-9.377,7.033,-144.176,-4.689,43.761,-11.331,-5.861
'[08:22:36.141 14/03/2059]',0.781,-5.079,143.004,-17.973,53.138,14.066,60.562,-9.768,4.298,-26.178,6.642,17.973,0.391,-27.350,0.391,30.476,-8.205,8.987,-142.222,2.735,39.463,-25.788,0.391
'[08:22:36.145 14/03/2059]',0.000,-1.954,141.441,-19.145,55.482,15.238,58.217,-12.112,10.549,-23.443,1.563,17.973,0.000,-25.006,0.391,32.821,-8.987,11.331,-140.659,-9.768,37.118,-17.582,0.391
'[08:22:36.148 14/03/2059]',-0.391,-3.907,147.302,-23.834,58.999,17.582,57.827,-17.582,17.582,-21.490,-0.781,16.801,0.781,-22.662,4.298,30.085,-10.549,8.987,-146.520,-21.099,31.648,-1.172,4.298
'[08:22:36.152 14/03/2059]',1.563,-5.079,150.427,-26.178,61.734,19.536,58.217,-21.099,18.755,-19.927,-1.954,16.410,1.172,-23.053,5.861,28.913,-7.033,4.298,-149.646,-6.252,25.397,-10.549,5.861
'[08:22:36.156 14/03/2059]',2.735,-7.814,151.600,-21.490,63.687,17.192,61.734,-20.317,15.238,-16.410,-6.642,17.582,-1.954,-23.834,7.424,28.913,-2.344,5.861,-150.818,-0.391,25.006,-15.629,7.424
'[08:22:36.160 14/03/2059]',3.907,-7.424,150.818,-18.364,66.813,16.020,65.250,-21.099,14.847,-11.331,-4.298,13.284,-6.252,-21.880,10.940,30.085,0.000,8.596,-150.037,-17.192,21.880,1.954,10.940
'[08:22:36.164 14/03/2059]',7.033,-4.298,146.129,-17.582,70.720,15.629,67.595,-24.615,14.457,-4.298,0.781,5.861,-7.424,-20.317,13.284,33.211,1.172,5.861,-145.348,-17.582,14.457,4.298,13.284
'[08:22:36.168 14/03/2059]',9.377,-4.689,139.878,-16.020,69.939,14.066,66.422,-24.615,14.066,-0.781,2.344,4.298,-6.642,-20.708,12.112,37.900,4.689,6.642,-139.096,-3.516,10.159,-10.940,12.112
'[08:22:36.172 14/03/2059]',10.159,-10.940,135.189,-12.112,69.158,11.722,63.687,-24.225,16.801,-0.781,0.000,2.735,-6.642,-21.490,7.033,41.416,5.079,10.549,-134.408,-11.722,7.033,-0.781,7.033
'[08:22:36.176 14/03/2059]',13.675,-11.722,130.501,-14.066,71.502,13.284,61.343,-30.085,21.880,-0.781,0.000,3.126,-3.126,-21.490,6.642,42.589,4.298,10.159,-129.719,-21.099,2.735,8.205,6.642
'[08:22:36.180 14/03/2059]',14.457,-8.205,123.858,-12.894,71.502,16.020,57.827,-30.085,25.397,-2.344,-2.735,5.079,1.954,-21.490,6.642,38.291,8.596,9.377,-123.077,-7.424,0.781,-6.252,6.642
'[08:22:36.184 14/03/2059]',10.159,-6.252,120.733,-8.987,67.204,16.410,56.264,-25.788,27.350,-3.516,-8.596,10.549,3.516,-22.662,7.814,35.946,13.675,10.940,-119.951,-7.033,1.563,-8.205,7.814
'[08:22:36.188 14/03/2059]',7.814,3.516,111.746,-8.205,66.422,19.536,55.482,-28.132,28.523,-1.954,-10.940,8.596,4.298,-22.271,8.596,32.821,15.629,4.689,-110.965,-25.788,0.781,5.079,8.596
'[08:22:36.191 14/03/2059]',5.470,5.861,108.230,-9.377,62.906,21.490,52.747,-28.913,27.350,0.391,-12.112,5.470,4.689,-22.662,11.331,28.132,18.755,-3.516,-107.448,-17.582,-1.563,0.781,11.331
'[08:22:36.195 14/03/2059]',0.391,-0.781,109.402,-7.033,55.482,20.317,49.231,-26.178,22.271,1.563,-14.457,5.861,1.172,-23.834,10.940,28.132,21.880,-3.516,-108.620,-8.596,1.172,-4.298,10.940
'[08:22:36.199 14/03/2059]',-1.172,-3.126,105.495,-3.126,54.310,19.927,44.151,-23.834,16.410,3.907,-14.066,7.033,-3.126,-23.834,9.377,31.258,18.755,-1.172,-104.713,-19.536,3.516,4.298,9.377
'[08:22:36.203 14/03/2059]',1.563,-4.689,101.587,-4.689,54.310,21.490,40.635,-24.615,12.894,7.033,-8.987,6.252,0.391,-23.834,10.940,31.258,14.847,-1.172,-100.806,-12.503,1.172,0.781,10.940
'[08:22:36.207 14/03/2059]',3.126,-5.470,95.726,-0.781,51.184,18.755,42.198,-21.490,5.079,9.768,-3.126,10.159,2.344,-23.443,10.159,32.821,12.112,5.079,-94.945,1.954,2.344,-12.894,10.159
'[08:22:36.211 14/03/2059]',1.954,-3.516,87.521,7.033,48.059,12.894,44.933,-14.066,-3.907,11.331,0.000,15.629,0.000,-24.225,7.814,39.072,5.470,16.410,-86.740,-9.768,5.079,-5.470,7.814
'[08:22:36.215 14/03/2059]',2.344,-3.126,83.223,10.549,44.542,9.768,47.668,-10.159,-8.987,11.722,3.126,15.238,0.391,-26.178,7.424,41.026,0.391,20.708,-82.442,-16.410,5.470,1.172,7.424
'[08:22:36.219 14/03/2059]',-1.172,-4.689,81.661,14.066,37.900,2.735,52.747,-5.470,-12.894,12.894,7.424,15.238,0.000,-25.397,9.377,39.072,1.563,20.317,-80.879,2.735,5.079,-12.894,9.377
'[08:22:36.223 14/03/2059]',-10.940,-4.689,79.707,23.053,28.523,-3.907,55.873,3.907,-14.847,11.722,5.470,19.536,-2.735,-25.788,7.424,44.151,3.907,23.443,-78.926,10.159,6.252,-17.582,7.424
'[08:22:36.227 14/03/2059]',-16.020,-1.563,73.455,29.304,23.834,-5.470,55.873,7.424,-12.503,10.940,3.907,21.880,-1.563,-26.178,7.424,46.105,2.735,21.880,-72.674,0.000,7.814,-7.814,7.424
'[08:22:36.230 14/03/2059]',-16.020,1.954,66.422,28.523,21.099,-4.689,57.827,5.079,-7.814,10.940,3.516,18.364,3.126,-24.615,2.735,45.324,3.907,16.410,-65.641,5.861,6.252,-9.768,2.735
'[08:22:36.234 14/03/2059]',-18.755,3.126,61.343,32.430,16.410,-8.205,59.389,8.987,-7.033,10.940,0.391,18.755,3.126,-23.834,-0.781,45.714,7.033,17.973,-60.562,19.536,8.596,-22.662,-0.781
'[08:22:36.238 14/03/2059]',-22.271,2.344,55.482,37.118,16.410,-10.940,58.217,8.205,-7.814,8.987,-3.516,24.225,-0.781,-23.053,-1.172,48.449,3.907,22.662,-54.701,6.252,14.066,-10.159,-1.172
'[08:22:36.242 14/03/2059]',-22.662,-6.252,57.436,37.118,14.457,-13.675,58.608,4.689,-9.768,7.033,-1.172,20.317,-4.298,-19.927,-2.344,44.933,1.172,24.615,-56.654,7.033,16.410,-1.172,-2.344
'[08:22:36.246 14/03/2059]',-28.523,-14.457,58.608,36.728,8.205,-19.927,57.827,5.079,-15.629,3.907,0.781,26.960,-9.377,-17.973,2.735,41.416,1.954,25.006,-57.827,29.695,16.801,-15.238,2.735
'[08:22:36.250 14/03/2059]',-33.993,-18.755,53.529,41.026,1.172,-23.443,54.310,8.596,-18.755,-0.391,1.563,40.244,-10.159,-19.536,6.642,46.105,-1.563,28.913,-52.747,32.039,18.364,-15.238,6.642
'[08:22:36.254 14/03/2059]',-35.165,-19.927,49.231,39.853,-4.298,-23.443,54.310,6.252,-16.410,-5.861,3.907,36.728,-4.689,-21.099,4.689,40.244,-8.987,29.304,-48.449,26.178,17.192,-3.907,4.689
'[08:22:36.258 14/03/2059]',-34.774,-17.192,43.370,37.118,-8.205,-25.788,55.482,5.861,-11.722,-7.814,4.689,31.648,1.172,-20.317,2.735,33.211,-11.722,25.397,-42.589,35.946,16.020,-8.596,2.735
'[08:22:36.262 14/03/2059]',-41.807,-16.410,35.556,44.542,-16.020,-30.867,54.701,12.894,-9.377,-10.549,0.781,32.039,2.344,-23.443,0.391,33.993,-15.629,30.085,-34.774,36.337,19.927,-10.159,0.391
'[08:22:36.266 14/03/2059]',-45.714,-19.145,28.913,51.184,-19.145,-35.946,53.919,16.020,-10.940,-10.940,0.391,25.006,-0.781,-20.317,-3.907,29.304,-20.317,34.383,-28.132,23.834,27.350,4.689,-3.907
'[08:22:36.270 14/03/2059]',-44.542,-23.443,26.960,51.184,-19.145,-39.463,54.310,12.503,-13.675,-7.424,4.689,15.629,-1.954,-14.847,-3.907,21.490,-18.755,33.602,-26.178,35.946,32.039,-0.781,-3.907
'[08:22:36.273 14/03/2059]',-44.933,-27.741,22.662,52.357,-20.317,-41.807,50.012,13.284,-22.271,-5.470,7.814,13.675,-5.470,-13.675,-2.735,17.192,-14.457,34.383,-21.880,53.529,35.165,-16.410,-2.735
'[08:22:36.277 14/03/2059]',-44.151,-30.476,17.192,51.966,-19.927,-43.761,44.933,12.112,-27.350,-7.424,11.722,11.331,-10.549,-11.331,-2.344,14.847,-14.066,34.383,-16.410,41.026,38.291,-6.252,-2.344
'[08:22:36.281 14/03/2059]',-41.026,-28.913,13.284,45.324,-18.364,-46.105,42.589,9.377,-29.304,-8.596,13.284,7.814,-12.112,-12.112,0.391,8.205,-13.284,27.741,-12.503,32.821,36.337,-2.344,0.391
'[08:22:36.285 14/03/2059]',-41.807,-27.350,10.549,42.198,-21.490,-50.012,41.026,12.894,-31.648,-10.549,9.377,11.722,-14.457,-16.801,3.126,7.033,-11.331,16.801,-9.768,49.621,30.085,-20.317,3.126
'[08:22:36.289 14/03/2059]',-46.886,-24.615,5.079,44.151,-25.788,-55.092,39.853,18.364,-33.211,-14.847,0.391,21.099,-19.145,-21.099,3.516,10.549,-11.722,11.722,-4.298,49.231,24.225,-23.834,3.516
'[08:22:36.293 14/03/2059]',-50.403,-27.741,5.470,46.886,-28.523,-57.827,37.509,21.880,-31.648,-16.801,-5.861,25.788,-21.490,-22.271,3.516,10.940,-14.847,7.814,-4.689,36.728,22.662,-9.768,3.516
'[08:22:36.297 14/03/2059]',-51.575,-32.039,10.159,44.933,-29.304,-55.482,34.383,21.490,-32.039,-16.410,-6.252,25.397,-20.708,-22.271,5.079,8.205,-14.066,0.391,-9.377,54.310,18.364,-17.973,5.079
'[08:22:36.301 14/03/2059]',-50.403,-35.556,11.331,47.668,-29.695,-52.747,28.132,26.569,-35.946,-19.536,-5.861,28.913,-23.053,-23.834,3.126,10.549,-9.768,0.000,-10.549,68.376,16.410,-28.913,3.126
'[08:22:36.305 14/03/2059]',-48.840,-39.072,10.159,50.012,-28.523,-51.966,24.615,26.178,-38.291,-20.708,-4.689,32.821,-24.615,-23.443,1.954,14.066,-12.112,2.735,-9.377,53.138,19.536,-14.066,1.954
'[08:22:36.309 14/03/2059]',-48.059,-40.244,9.377,48.449,-29.304,-49.231,24.615,23.443,-42.979,-16.801,-1.563,28.913,-25.006,-21.880,0.391,14.066,-13.284,4.298,-8.596,49.231,21.880,-10.549,0.391
'[08:22:36.313 14/03/2059]',-50.012,-41.026,7.424,53.919,-32.821,-51.184,25.006,28.132,-47.277,-14.066,-1.954,32.430,-26.178,-21.880,-0.391,17.582,-11.722,7.424,-6.642,59.389,26.569,-25.788,-0.391
'[08:22:36.316 14/03/2059]',-57.045,-43.370,5.079,62.125,-35.946,-56.264,22.662,35.165,-48.840,-12.894,-4.298,41.026,-29.304,-20.708,0.781,24.615,-12.503,9.768,-4.298,51.184,34.774,-23.053,0.781
'[08:22:36.320 14/03/2059]',-57.436,-46.496,7.424,62.125,-33.993,-57.045,21.490,33.602,-50.012,-9.377,-1.172,38.681,-30.085,-19.536,4.689,23.443,-12.503,3.516,-6.642,44.933,37.118,-18.364,4.689
'[08:22:36.324 14/03/2059]',-55.482,-49.231,10.940,62.906,-28.523,-57.045,19.145,34.774,-48.449,-6.252,3.516,38.681,-27.350,-19.145,12.112,23.053,-6.642,-3.907,-10.159,58.608,37.509,-31.258,12.112
'[08:22:36.328 14/03/2059]',-53.529,-53.919,10.940,67.595,-24.225,-56.654,12.112,39.072,-46.105,-6.252,3.126,45.324,-25.788,-21.099,15.629,27.741,-2.735,-5.079,-10.159,53.529,40.635,-30.476,15.629
'[08:22:36.332 14/03/2059]',-51.575,-58.999,9.377,69.548,-22.271,-54.701,7.033,38.291,-42.198,-4.689,3.126,42.979,-24.615,-22.271,16.410,29.695,-2.735,-5.470,-8.596,39.853,41.416,-19.145,16.410
'[08:22:36.336 14/03/2059]',-50.403,-60.562,9.377,69.548,-21.880,-52.747,2.735,39.072,-34.383,-1.563,3.907,34.383,-16.410,-21.880,14.847,25.788,-1.172,-7.424,-8.596,52.747,42.198,-30.085,14.847
'[08:22:36.340 14/03/2059]',-51.966,-63.687,8.205,73.455,-24.615,-53.919,0.391,44.151,-33.602,-0.391,3.516,29.695,-17.582,-23.443,16.410,23.443,1.172,-3.516,-7.424,64.078,44.151,-40.244,16.410
'[08:22:36.344 14/03/2059]',-56.654,-68.376,7.424,79.707,-28.913,-55.873,-4.298,51.966,-34.383,0.000,2.735,27.350,-23.443,-23.443,19.927,23.053,0.391,0.391,-6.642,50.403,46.886,-25.788,19.927
'[08:22:36.348 14/03/2059]',-57.827,-66.422,7.424,79.707,-29.304,-55.873,-5.861,54.310,-35.165,3.907,6.642,18.755,-26.960,-21.099,26.178,16.801,1.954,-1.563,-6.642,46.496,47.277,-21.490,26.178
'[08:22:36.352 14/03/2059]',-60.562,-64.860,8.596,82.442,-30.476,-54.701,-7.424,58.999,-36.337,7.424,12.894,21.490,-28.132,-18.364,41.026,12.894,7.424,0.000,-7.814,57.827,46.496,-32.039,41.026
'[08:22:36.355 14/03/2059]',-64.469,-63.687,5.079,91.038,-34.383,-52.747,-10.940,66.422,-37.509,7.424,13.284,31.258,-30.476,-17.582,45.324,19.145,10.159,7.424,-4.298,49.231,47.668,-28.132,45.324
'[08:22:36.359 14/03/2059]',-63.297,-57.436,0.781,89.084,-35.165,-44.933,-12.503,62.125,-32.821,7.424,16.410,30.085,-27.741,-11.331,43.370,18.364,6.642,12.112,0.000,34.383,46.105,-12.894,43.370
'[08:22:36.363 14/03/2059]',-63.297,-55.482,5.470,85.958,-36.728,-38.681,-11.331,59.780,-29.695,10.159,21.880,27.741,-21.099,-4.298,42.589,14.847,6.252,17.192,-4.689,50.403,46.496,-20.708,42.589
'[08:22:36.367 14/03/2059]',-64.469,-55.482,7.424,87.521,-40.635,-34.383,-13.675,64.469,-29.695,10.549,23.053,29.304,-17.973,0.000,36.728,16.020,5.079,26.960,-6.642,59.389,47.277,-25.397,36.728
'[08:22:36.371 14/03/2059]',-61.343,-51.575,4.689,84.786,-39.853,-31.648,-13.284,62.906,-27.350,14.066,24.225,23.834,-14.066,5.861,31.258,12.503,1.954,32.039,-3.907,43.370,50.794,-8.205,31.258
'[08:22:36.375 14/03/2059]',-60.171,-48.840,5.470,80.098,-41.026,-29.695,-10.159,58.608,-25.788,21.490,29.695,16.020,-7.424,10.940,32.039,6.252,1.954,33.993,-4.689,43.370,53.919,-6.252,32.039
'[08:22:36.379 14/03/2059]',-62.906,-48.059,1.563,82.442,-49.621,-28.913,-10.159,62.515,-25.006,26.569,32.039,17.973,-1.172,12.894,34.383,5.470,3.516,41.416,-0.781,50.403,57.045,-16.410,34.383
'[08:22:36.383 14/03/2059]',-64.469,-45.714,-3.126,81.270,-55.482,-26.960,-9.377,59.389,-21.490,28.132,32.039,18.755,3.516,14.847,34.383,4.689,1.954,50.403,3.907,37.900,62.125,-6.642,34.383
'[08:22:36.387 14/03/2059]',-67.204,-39.463,-5.470,74.237,-61.343,-18.755,-7.033,48.840,-18.364,29.695,39.072,10.549,9.768,19.145,37.509,-4.298,0.000,52.357,6.252,36.337,63.687,-1.954,37.509
'[08:22:36.391 14/03/2059]',-69.158,-32.039,-7.814,70.720,-63.687,-9.377,-9.377,43.370,-16.020,30.085,44.151,7.424,14.457,21.880,41.416,-11.331,0.391,54.701,8.596,50.794,62.515,-13.284,41.416
'[08:22:36.395 14/03/2059]',-69.548,-23.834,-16.020,70.720,-65.250,0.000,-17.582,43.370,-16.801,29.304,42.589,8.205,14.066,23.443,40.635,-14.847,2.344,57.827,16.801,39.072,63.687,-5.079,40.635
'[08:22:36.398 14/03/2059]',-63.687,-17.973,-23.053,67.204,-60.171,10.940,-26.569,37.509,-14.457,31.648,40.244,3.516,18.364,26.178,36.728,-19.927,3.907,53.529,23.834,23.053,67.204,8.205,36.728
'[08:22:36.402 14/03/2059]',-53.919,-16.410,-29.304,63.687,-52.357,20.317,-37.509,32.430,-11.331,36.337,33.993,1.563,22.271,28.523,30.476,-20.708,9.377,45.324,30.085,35.946,63.687,-1.563,30.476
'[08:22:36.406 14/03/2059]',-46.886,-19.536,-39.463,63.297,-48.449,22.271,-48.449,30.867,-11.722,38.681,24.615,0.000,23.443,26.569,20.708,-19.927,14.066,41.416,40.244,42.979,61.734,-8.205,20.708
'[08:22:36.410 14/03/2059]',-41.026,-25.397,-50.794,62.515,-43.761,23.443,-58.217,21.880,-8.596,35.946,16.801,-5.861,20.317,24.615,11.331,-18.755,13.284,35.946,51.575,29.695,61.343,5.470,11.331
'[08:22:36.414 14/03/2059]',-39.072,-32.430,-61.734,60.562,-40.635,21.880,-67.595,12.112,-4.298,30.867,10.159,-15.238,17.973,19.145,6.252,-22.271,10.940,21.880,62.515,36.728,55.873,2.735,6.252
'[08:22:36.418 14/03/2059]',-43.370,-39.853,-73.846,61.343,-46.886,17.192,-75.018,7.814,-2.344,22.271,7.424,-17.582,14.457,11.722,5.861,-23.443,9.768,11.331,74.628,58.217,48.840,-15.629,5.861
'[08:22:36.422 14/03/2059]',-44.933,-45.714,-89.866,62.125,-50.794,13.284,-81.661,0.391,1.172,14.066,1.172,-21.099,11.722,3.126,4.298,-23.053,7.033,6.252,90.647,51.184,45.714,-12.894,4.298
'[08:22:36.426 14/03/2059]',-38.681,-48.449,-103.541,56.654,-45.714,12.894,-87.912,-13.284,7.814,7.033,-2.735,-21.490,9.377,-2.344,5.470,-22.271,2.735,-1.954,104.322,44.542,34.774,-6.252,5.470
'[08:22:36.430 14/03/2059]',-33.211,-49.231,-117.607,50.012,-42.979,11.722,-96.117,-23.053,9.768,1.563,-7.033,-23.443,7.424,-8.596,7.424,-25.006,1.563,-11.331,118.388,61.734,20.708,-23.053,7.424
'[08:22:36.434 14/03/2059]',-24.225,-51.184,-134.799,48.449,-36.728,7.424,-104.713,-27.741,11.331,-5.470,-15.238,-18.364,2.344,-14.066,5.470,-21.880,0.391,-14.457,135.580,63.687,13.675,-30.476,5.470
'[08:22:36.438 14/03/2059]',-16.020,-60.952,-144.176,42.589,-30.476,2.735,-112.918,-38.291,15.238,-10.159,-25.397,-22.662,0.391,-17.582,0.391,-26.178,-6.252,-23.443,144.957,58.608,6.642,-17.973,0.391
'[08:22:36.441 14/03/2059]',-12.503,-72.283,-147.302,37.900,-28.523,-1.563,-115.653,-48.059,19.536,-15.629,-33.211,-23.834,0.391,-22.271,-0.781,-29.695,-12.503,-33.211,148.083,73.455,3.907,-23.443,-0.781
'[08:22:36.445 14/03/2059]',-11.722,-81.661,-149.646,38.291,-28.913,-8.987,-117.607,-48.449,17.973,-19.927,-41.807,-23.834,-3.516,-25.788,-8.987,-27.741,-15.238,-33.602,150.427,82.833,7.424,-32.821,-8.987
'[08:22:36.449 14/03/2059]',-12.894,-88.303,-148.864,35.165,-27.741,-12.894,-119.170,-53.919,16.801,-23.443,-48.840,-26.960,-7.424,-29.695,-16.801,-26.569,-18.755,-35.165,149.646,71.893,10.549,-24.615,-16.801
'[08:22:36.453 14/03/2059]',-13.284,-86.349,-145.348,23.834,-25.397,-11.331,-117.216,-66.422,16.801,-26.960,-48.059,-31.258,-8.987,-32.821,-18.755,-26.960,-18.755,-44.542,146.129,71.893,7.814,-27.741,-18.755
'[08:22:36.457 14/03/2059]',-10.549,-79.316,-144.176,14.457,-19.927,-8.596,-119.170,-71.502,13.675,-30.867,-47.277,-33.993,-11.331,-33.993,-21.880,-28.523,-13.284,-53.919,144.957,77.363,5.079,-40.635,-21.880
'[08:22:36.461 14/03/2059]',-10.940,-74.628,-143.785,7.424,-17.192,-8.205,-123.077,-73.065,14.066,-37.118,-50.403,-31.258,-14.847,-35.946,-24.615,-28.132,-11.331,-59.780,144.567,56.264,3.516,-30.476,-24.615
'[08:22:36.465 14/03/2059]',-9.768,-69.548,-140.659,-0.781,-14.066,-4.689,-124.640,-77.363,16.020,-38.681,-52.747,-32.821,-17.973,-33.993,-23.053,-31.648,-11.331,-67.985,141.441,39.463,0.000,-16.801,-23.053
'[08:22:36.469 14/03/2059]',-1.954,-61.734,-135.971,-4.298,-7.033,-1.563,-121.514,-73.846,17.192,-34.774,-56.264,-32.039,-19.927,-30.476,-19.536,-34.383,-5.861,-74.628,136.752,46.105,-3.516,-26.960,-19.536
'[08:22:36.473 14/03/2059]',3.907,-58.999,-129.719,-2.344,0.000,-4.298,-119.560,-63.297,19.927,-32.039,-62.125,-27.741,-21.099,-30.085,-17.973,-31.258,-3.516,-72.674,130.501,43.370,-3.907,-29.304,-17.973
'[08:22:36.477 14/03/2059]',8.205,-57.045,-124.640,-0.781,7.424,-4.298,-116.825,-60.562,25.006,-28.132,-65.641,-28.523,-22.271,-30.085,-16.020,-27.350,-4.298,-71.893,125.421,24.225,-4.298,-14.066,-16.020
'[08:22:36.480 14/03/2059]',15.238,-50.794,-123.077,-2.735,18.755,-3.516,-115.263,-60.562,32.039,-24.225,-65.250,-33.602,-17.582,-29.695,-13.675,-29.304,-5.861,-77.363,123.858,24.225,-7.424,-14.457,-13.675
'[08:22:36.484 14/03/2059]',15.238,-47.277,-123.077,-3.126,21.490,-7.033,-117.607,-55.482,36.728,-26.178,-66.422,-32.430,-14.066,-32.039,-12.112,-28.132,-6.642,-79.707,123.858,32.430,-9.377,-26.178,-12.112
'[08:22:36.488 14/03/2059]',10.940,-46.105,-125.421,0.781,23.834,-10.940,-118.779,-52.747,38.291,-29.695,-67.595,-28.913,-17.582,-33.602,-12.503,-23.053,-10.159,-78.535,126.203,16.410,-10.940,-13.675,-12.503
'[08:22:36.492 14/03/2059]',11.331,-40.244,-127.766,2.344,27.741,-14.066,-114.481,-52.357,39.463,-28.132,-64.860,-33.993,-19.927,-29.304,-11.722,-24.615,-10.159,-81.661,128.547,7.033,-15.629,-2.735,-11.722
'[08:22:36.496 14/03/2059]',14.847,-41.416,-122.686,6.642,30.867,-18.755,-110.183,-43.370,38.291,-25.788,-64.078,-30.476,-21.490,-27.350,-6.642,-23.834,-7.814,-80.879,123.468,23.834,-17.973,-14.847,-6.642
'[08:22:36.500 14/03/2059]',16.410,-48.449,-113.700,14.457,33.602,-24.225,-106.276,-33.602,37.509,-26.178,-66.422,-22.662,-25.006,-28.132,-8.205,-14.457,-7.814,-76.972,114.481,28.523,-19.927,-13.284,-8.205
'[08:22:36.504 14/03/2059]',22.271,-51.184,-107.057,16.020,42.979,-25.788,-102.759,-32.430,41.026,-25.397,-69.548,-26.960,-24.615,-27.741,-13.675,-12.894,-10.940,-78.926,107.839,20.708,-22.271,0.391,-13.675
'[08:22:36.508 14/03/2059]',25.788,-51.966,-98.462,14.457,48.449,-25.788,-100.024,-31.258,44.151,-26.569,-74.237,-22.662,-21.099,-30.085,-14.066,-11.331,-10.549,-84.786,99.243,28.132,-25.006,-4.298,-14.066
'[08:22:36.512 14/03/2059]',24.615,-51.966,-93.773,15.238,50.794,-27.741,-101.587,-25.788,43.761,-33.211,-80.098,-12.894,-21.880,-37.118,-19.927,-1.563,-12.112,-87.131,94.554,25.788,-28.132,-8.987,-19.927
'[08:22:36.516 14/03/2059]',27.350,-50.012,-90.256,16.801,57.045,-26.960,-100.415,-23.834,43.761,-39.072,-81.661,-6.252,-24.615,-41.026,-22.662,5.861,-14.066,-88.694,91.038,8.987,-30.867,1.172,-22.662
'[08:22:36.520 14/03/2059]',31.258,-45.324,-84.005,12.112,59.780,-25.397,-94.164,-23.443,43.761,-41.416,-75.018,-6.642,-23.443,-39.853,-17.192,1.954,-13.284,-92.601,84.786,12.894,-37.118,-2.344,-17.192
'[08:22:36.523 14/03/2059]',33.211,-41.416,-78.144,10.549,57.436,-24.615,-89.084,-17.582,39.853,-41.807,-68.376,-5.861,-23.443,-39.463,-13.284,1.563,-12.112,-90.647,78.926,26.960,-42.979,-15.629,-13.284
'[08:22:36.527 14/03/2059]',30.476,-39.853,-72.674,9.768,53.138,-25.397,-83.614,-13.675,35.946,-41.807,-64.078,-7.424,-28.523,-37.900,-11.331,1.954,-14.457,-82.442,73.455,15.238,-45.714,-3.126,-11.331
'[08:22:36.531 14/03/2059]',26.178,-33.602,-69.939,3.907,48.449,-27.350,-78.535,-14.066,33.993,-41.026,-62.906,-13.675,-30.867,-33.211,-12.503,-5.470,-16.801,-82.833,70.720,7.424,-46.496,7.033,-12.503
'[08:22:36.535 14/03/2059]',21.880,-26.178,-70.330,0.391,42.589,-30.476,-74.237,-10.940,34.383,-42.589,-64.469,-10.159,-28.132,-34.383,-13.284,-6.252,-16.020,-85.177,71.111,19.145,-51.184,-7.424,-13.284
'[08:22:36.539 14/03/2059]',16.801,-21.490,-70.330,0.781,37.509,-33.211,-70.720,-6.252,34.383,-50.012,-65.641,-4.298,-25.788,-37.900,-15.629,-2.735,-17.582,-84.005,71.111,17.192,-53.138,-10.940,-15.629
'[08:22:36.543 14/03/2059]',17.973,-14.457,-72.674,0.000,40.635,-34.774,-69.939,-3.126,33.993,-55.092,-67.204,-1.954,-27.350,-37.509,-21.099,-2.735,-25.397,-82.833,73.455,-2.735,-51.966,3.516,-21.099
'[08:22:36.547 14/03/2059]',22.662,-5.470,-70.720,-7.814,41.416,-32.430,-69.158,-1.172,33.993,-59.389,-62.906,-1.563,-22.271,-36.337,-24.615,-4.298,-29.695,-86.349,71.502,1.954,-55.092,-1.563,-24.615
'[08:22:36.551 14/03/2059]',23.834,-6.252,-63.297,-16.020,37.509,-30.476,-69.939,1.563,26.569,-62.906,-55.092,-0.781,-21.099,-35.946,-29.304,-2.735,-35.556,-78.535,64.078,15.629,-55.092,-12.894,-29.304
'[08:22:36.555 14/03/2059]',25.397,-4.689,-60.562,-23.834,33.993,-30.085,-70.330,3.126,19.536,-62.906,-50.794,-0.391,-22.271,-32.821,-36.337,-0.781,-45.714,-67.204,61.343,1.172,-53.138,3.126,-36.337
'[08:22:36.559 14/03/2059]',21.490,0.781,-57.827,-35.556,23.834,-32.039,-66.813,4.689,14.066,-62.515,-41.807,-3.126,-18.755,-27.741,-40.635,-3.907,-50.403,-64.078,58.608,-3.126,-55.092,9.377,-40.635
'[08:22:36.563 14/03/2059]',20.317,4.298,-57.827,-42.198,13.284,-34.774,-64.078,11.331,7.814,-62.906,-32.821,-0.781,-12.503,-26.178,-41.026,-6.252,-48.449,-58.217,58.608,8.596,-58.999,-2.735,-41.026
'[08:22:36.566 14/03/2059]',19.536,10.159,-59.389,-43.370,4.689,-37.118,-60.171,20.708,2.344,-60.562,-27.350,6.642,-9.768,-22.271,-37.900,-5.470,-46.886,-51.184,60.171,0.391,-59.780,0.781,-37.900
'[08:22:36.570 14/03/2059]',23.834,19.536,-57.827,-50.794,1.563,-36.337,-53.529,23.834,0.391,-54.701,-20.317,6.642,-4.298,-17.192,-33.602,-10.549,-45.324,-51.966,58.608,-9.768,-61.734,9.768,-33.602
'[08:22:36.574 14/03/2059]',32.039,25.397,-55.092,-62.515,-1.563,-31.258,-49.231,23.443,-3.516,-49.231,-11.722,5.079,0.781,-12.112,-30.867,-15.629,-42.979,-49.231,55.873,0.391,-65.641,0.391,-30.867
'[08:22:36.578 14/03/2059]',31.258,26.178,-51.575,-67.985,-12.894,-27.350,-48.059,27.350,-8.205,-46.886,-8.596,9.377,2.344,-12.112,-29.695,-13.284,-46.105,-37.118,52.357,-3.126,-62.906,-0.391,-29.695
'[08:22:36.582 14/03/2059]',30.476,30.085,-48.840,-74.237,-19.145,-24.225,-42.979,26.178,-10.549,-45.714,-5.861,7.033,1.563,-9.768,-30.085,-14.847,-48.840,-29.695,49.621,-20.317,-59.389,12.503,-30.085
'[08:22:36.586 14/03/2059]',30.867,36.337,-46.496,-82.442,-25.006,-21.490,-37.900,24.615,-12.112,-44.542,-0.391,0.781,3.126,-8.987,-30.085,-18.755,-45.324,-28.913,47.277,-13.284,-60.171,4.298,-30.085
'[08:22:36.590 14/03/2059]',29.304,39.463,-45.324,-84.786,-27.350,-23.834,-35.165,27.350,-15.629,-42.198,0.781,0.391,4.689,-9.768,-30.867,-17.973,-40.635,-26.569,46.105,-5.079,-56.654,-6.252,-30.867
'[08:22:36.594 14/03/2059]',28.913,44.151,-44.933,-84.786,-23.443,-28.523,-30.476,28.523,-16.410,-36.337,0.391,-0.781,3.907,-7.033,-33.602,-15.629,-38.681,-25.006,45.714,-25.006,-51.575,9.377,-33.602
'[08:22:36.598 14/03/2059]',33.602,51.966,-44.933,-92.210,-18.364,-27.350,-28.913,25.397,-13.675,-28.523,0.000,-6.252,10.159,-2.735,-34.774,-20.708,-39.072,-27.350,45.714,-34.774,-50.012,17.192,-34.774
'[08:22:36.602 14/03/2059]',38.681,52.357,-39.072,-98.462,-15.238,-23.834,-29.695,24.615,-10.940,-21.880,-3.126,-7.814,17.582,-3.516,-36.728,-21.490,-39.463,-26.960,39.853,-19.927,-48.059,2.344,-36.728
'[08:22:36.605 14/03/2059]',38.681,48.059,-33.211,-98.462,-17.192,-21.490,-30.085,26.178,-10.940,-21.490,-8.205,-6.642,17.973,-4.689,-40.635,-19.927,-39.853,-19.927,33.993,-21.880,-44.933,3.907,-40.635
'[08:22:36.609 14/03/2059]',41.416,50.794,-28.523,-102.369,-16.410,-12.894,-27.741,21.099,-8.596,-21.099,-7.814,-11.722,19.927,-5.079,-42.198,-23.053,-42.198,-14.066,29.304,-34.774,-44.151,17.582,-42.198
'[08:22:36.613 14/03/2059]',42.979,53.919,-23.443,-104.713,-18.755,-5.861,-24.225,20.317,-9.377,-21.490,-5.470,-17.582,22.662,-7.814,-44.151,-24.615,-41.807,-7.814,24.225,-21.490,-46.105,5.079,-44.151
'[08:22:36.617 14/03/2059]',41.416,56.264,-21.880,-103.150,-24.615,-3.126,-21.099,23.443,-14.066,-25.006,-3.516,-17.973,23.053,-9.768,-51.966,-21.490,-43.370,3.126,22.662,-15.629,-45.324,-2.735,-51.966
'[08:22:36.621 14/03/2059]',42.198,59.780,-23.443,-103.150,-24.225,-0.781,-19.536,22.271,-14.457,-25.788,-1.172,-20.317,24.225,-7.814,-60.952,-17.582,-45.324,11.331,24.225,-34.383,-42.198,12.503,-60.952
'[08:22:36.625 14/03/2059]',45.714,61.343,-22.271,-107.839,-22.662,-0.391,-17.192,18.755,-14.066,-24.225,1.172,-29.304,27.350,-7.814,-64.860,-19.536,-43.761,10.940,23.053,-33.602,-44.933,12.503,-64.860
'[08:22:36.629 14/03/2059]',47.277,58.217,-22.271,-107.057,-23.834,-1.954,-18.755,22.662,-17.973,-21.880,1.172,-30.085,25.788,-7.814,-68.376,-17.192,-35.946,10.159,23.053,-22.271,-43.370,0.391,-68.376
'[08:22:36.633 14/03/2059]',45.324,53.919,-23.053,-103.541,-22.662,-5.861,-22.662,25.788,-20.708,-18.364,-0.781,-27.741,21.099,-7.424,-67.985,-13.675,-30.085,12.894,23.834,-30.476,-37.900,6.252,-67.985
'[08:22:36.637 14/03/2059]',49.621,51.184,-21.880,-105.495,-17.973,-1.563,-23.834,19.145,-19.536,-12.112,-1.563,-35.946,21.880,-6.642,-64.078,-20.708,-28.523,10.159,22.662,-28.913,-37.509,7.424,-64.078
'[08:22:36.641 14/03/2059]',51.575,47.277,-18.364,-107.448,-17.192,3.126,-28.132,16.020,-16.020,-8.596,-3.907,-41.807,25.788,-6.252,-59.389,-31.648,-26.178,8.987,19.145,-10.159,-37.118,-3.907,-59.389
'[08:22:36.645 14/03/2059]',46.886,44.542,-20.708,-103.541,-20.708,7.424,-33.993,14.847,-15.629,-7.814,-8.205,-35.946,25.006,-6.252,-55.092,-32.039,-27.350,15.629,21.490,-16.020,-31.648,-0.781,-55.092
'[08:22:36.648 14/03/2059]',45.324,45.714,-22.271,-106.276,-21.490,14.457,-35.556,6.252,-11.722,-7.814,-7.424,-41.807,24.615,-5.079,-54.701,-35.165,-26.178,15.629,23.053,-28.913,-30.085,11.722,-54.701
'[08:22:36.652 14/03/2059]',45.714,46.105,-21.099,-110.183,-21.490,17.973,-35.556,0.000,-10.940,-8.987,-5.079,-45.714,23.443,-5.079,-51.184,-38.681,-20.317,8.205,21.880,-13.675,-32.821,1.172,-51.184
'[08:22:36.656 14/03/2059]',41.807,48.840,-24.615,-109.402,-23.443,17.973,-32.821,-2.735,-14.066,-13.675,-3.516,-41.026,15.629,-5.470,-49.621,-34.383,-14.847,6.252,25.397,-9.377,-32.039,-7.424,-49.621
'[08:22:36.660 14/03/2059]',39.853,47.668,-26.569,-109.011,-20.708,17.582,-32.821,-9.377,-14.847,-17.582,-3.516,-44.542,7.033,-3.516,-51.966,-32.430,-17.582,5.861,27.350,-26.178,-31.258,7.424,-51.966
'[08:22:36.664 14/03/2059]',42.198,41.026,-20.708,-112.918,-13.284,19.145,-35.946,-17.582,-12.112,-20.708,-2.344,-46.496,5.079,-1.563,-48.059,-38.681,-23.443,-0.391,21.490,-18.755,-33.602,9.768,-48.059
'[08:22:36.668 14/03/2059]',41.416,37.118,-19.536,-112.918,-10.940,20.317,-40.635,-20.317,-11.331,-23.443,-0.781,-40.244,6.252,-0.781,-38.681,-43.370,-26.178,-3.907,20.317,-0.781,-34.774,-5.470,-38.681
'[08:22:36.672 14/03/2059]',39.463,30.085,-17.973,-107.057,-6.252,19.145,-45.714,-20.708,-14.847,-23.443,-2.344,-30.085,2.344,0.391,-37.900,-37.509,-28.523,-4.298,18.755,-7.424,-30.867,1.563,-37.900
'[08:22:36.676 14/03/2059]',35.946,25.006,-14.066,-106.276,-4.689,19.536,-47.668,-25.006,-16.801,-19.145,-0.391,-31.648,3.516,1.563,-37.118,-38.291,-27.350,-9.768,14.847,-12.112,-27.741,10.940,-37.118
'[08:22:36.680 14/03/2059]',33.211,22.662,-10.940,-105.885,-7.033,21.490,-48.059,-26.178,-20.708,-15.629,0.781,-32.430,5.079,2.735,-38.681,-38.681,-16.801,-19.536,11.722,6.642,-25.006,-5.079,-38.681
'[08:22:36.684 14/03/2059]',26.178,17.973,-9.768,-98.852,-11.722,18.755,-46.105,-23.443,-26.569,-12.112,1.172,-33.211,3.126,1.172,-43.761,-33.211,-8.596,-20.317,10.549,10.549,-19.145,-10.549,-43.761
'[08:22:36.688 14/03/2059]',22.662,14.066,-8.987,-96.899,-14.066,18.364,-43.761,-27.741,-27.350,-9.377,3.907,-41.416,3.516,1.172,-45.714,-34.383,-6.642,-21.880,9.768,1.172,-16.410,-0.391,-45.714
'[08:22:36.691 14/03/2059]',22.662,10.549,-8.596,-96.508,-14.066,20.708,-41.807,-34.383,-25.788,-7.033,8.987,-44.933,7.033,0.391,-38.681,-38.681,-5.861,-25.006,9.377,7.033,-15.238,-3.516,-38.681
'[08:22:36.695 14/03/2059]',19.927,4.298,-10.159,-92.210,-12.503,17.582,-44.151,-35.946,-27.350,-8.596,8.596,-42.979,3.126,-0.391,-35.946,-37.118,-5.861,-24.615,10.940,11.722,-11.722,-10.159,-35.946
'[08:22:36.699 14/03/2059]',16.020,-1.563,-10.940,-89.475,-9.377,13.675,-46.496,-41.807,-25.397,-10.159,6.642,-39.853,-1.954,0.391,-32.039,-35.946,-9.768,-26.178,11.722,1.172,-7.033,0.391,-32.039
'[08:22:36.703 14/03/2059]',16.801,-6.642,-8.596,-90.256,-2.735,12.894,-44.933,-51.966,-18.364,-11.722,4.689,-38.681,-3.907,3.126,-27.350,-36.728,-12.503,-34.383,9.377,7.033,-8.596,1.954,-27.350
'[08:22:36.707 14/03/2059]',18.364,-9.377,-8.205,-89.475,3.907,10.159,-44.542,-57.827,-12.503,-14.066,1.172,-41.416,-7.424,5.079,-27.741,-37.118,-13.675,-40.635,8.987,19.927,-10.159,-8.205,-27.741
'[08:22:36.711 14/03/2059]',19.927,-10.940,-9.768,-83.223,10.549,8.205,-42.589,-60.171,-5.079,-17.582,-1.563,-36.728,-11.331,6.642,-25.788,-32.039,-18.755,-38.291,10.549,6.642,-10.940,2.344,-25.788
'[08:22:36.715 14/03/2059]',21.099,-10.549,-10.549,-77.753,15.629,10.159,-38.291,-65.250,2.344,-21.099,-0.391,-33.211,-13.675,8.987,-21.490,-26.569,-23.053,-37.509,11.331,-7.424,-12.112,14.457,-21.490
'[08:22:36.719 14/03/2059]',22.271,-10.549,-7.033,-75.800,19.927,11.722,-32.430,-71.111,3.516,-20.708,1.954,-35.556,-16.410,11.331,-18.364,-27.350,-20.317,-38.681,7.814,3.516,-12.894,2.735,-18.364
'[08:22:36.723 14/03/2059]',16.801,-9.768,-3.907,-69.939,20.317,9.768,-25.397,-72.283,0.391,-20.708,4.689,-32.430,-22.271,13.675,-13.284,-26.178,-17.582,-33.602,4.689,1.954,-7.814,-0.391,-13.284
'[08:22:36.727 14/03/2059]',9.377,-14.066,5.861,-64.469,19.536,9.768,-15.629,-76.581,-2.344,-14.457,10.549,-30.476,-27.350,19.145,-4.298,-25.397,-15.629,-29.304,-5.079,-9.377,-3.907,17.582,-4.298
'[08:22:36.730 14/03/2059]',8.596,-14.457,15.238,-64.078,21.099,12.112,-6.252,-81.270,-5.470,-5.470,17.582,-37.900,-27.741,25.397,0.391,-30.476,-13.284,-28.523,-14.457,-3.126,-1.954,18.755,0.391
'[08:22:36.734 14/03/2059]',6.252,-11.331,19.927,-62.515,18.755,14.847,-0.781,-80.098,-8.205,0.781,22.662,-38.681,-26.960,28.523,5.861,-31.258,-8.205,-21.880,-19.145,5.861,-0.781,9.377,5.861
'[08:22:36.738 14/03/2059]',4.298,-12.112,23.443,-56.264,16.801,16.801,3.907,-78.535,-9.768,4.298,26.569,-35.556,-28.523,29.695,7.814,-24.225,-8.205,-12.112,-22.662,-6.642,-0.391,21.880,7.814
'[08:22:36.742 14/03/2059]',2.735,-10.159,26.960,-55.873,16.020,19.536,11.331,-83.223,-10.159,5.861,29.695,-39.463,-28.523,28.523,8.987,-23.834,-9.377,-7.814,-26.178,-14.066,0.000,28.523,8.987
'[08:22:36.746 14/03/2059]',1.172,-6.252,30.476,-54.310,14.847,18.364,18.364,-81.270,-8.596,5.861,30.085,-37.118,-26.569,24.615,12.503,-20.708,-8.596,-4.298,-29.695,-3.516,0.000,10.159,12.503
'[08:22:36.750 14/03/2059]',-0.781,-4.689,35.556,-49.621,16.410,14.457,26.960,-78.535,-7.814,3.516,27.741,-31.258,-26.569,20.317,11.331,-13.675,-10.549,1.172,-34.774,-6.252,1.954,6.252,11.331
'[08:22:36.754 14/03/2059]',1.172,-1.563,41.026,-49.231,22.662,15.238,37.900,-84.005,-4.689,0.781,30.867,-28.913,-26.569,19.145,18.364,-13.284,-15.238,3.907,-40.244,-21.099,3.126,16.410,18.364
'[08:22:36.758 14/03/2059]',7.814,0.781,44.151,-51.966,28.913,16.410,44.542,-88.303,-1.172,-1.172,33.602,-30.085,-25.006,18.364,21.099,-14.457,-16.020,1.563,-43.370,-18.755,-0.781,10.549,21.099
'[08:22:36.762 14/03/2059]',8.205,0.391,43.370,-46.886,30.476,14.457,45.324,-85.568,-0.391,-5.079,30.867,-24.615,-27.350,15.629,21.490,-10.549,-15.629,2.344,-42.589,-20.708,-1.954,6.642,21.490
'[08:22:36.766 14/03/2059]',2.735,-1.172,39.072,-44.542,26.569,13.675,43.370,-88.694,0.391,-7.424,27.741,-23.834,-32.430,16.020,23.053,-10.549,-17.582,1.563,-38.291,-36.728,-3.126,19.145,23.053
'[08:22:36.770 14/03/2059]',-1.563,-1.172,33.993,-44.151,24.615,10.940,42.979,-93.382,0.391,-5.861,25.397,-31.648,-32.821,16.410,20.317,-17.192,-18.364,-5.861,-33.211,-32.430,-2.735,15.238,20.317
'[08:22:36.773 14/03/2059]',-7.424,-1.954,29.695,-39.072,25.397,5.470,41.807,-93.382,0.781,-3.516,19.927,-32.430,-30.085,13.675,17.582,-16.801,-19.145,-9.377,-28.913,-18.755,0.000,1.563,17.582
'[08:22:36.777 14/03/2059]',-11.722,-1.954,25.397,-34.774,29.304,2.344,40.244,-97.289,0.000,-5.470,16.410,-28.523,-32.039,12.894,14.847,-14.457,-25.006,-6.252,-24.615,-32.430,6.252,13.284,14.847
'[08:22:36.781 14/03/2059]',-10.940,-0.781,24.225,-35.556,35.556,2.735,41.807,-104.713,-1.563,-4.689,16.410,-32.821,-29.695,14.457,9.768,-18.364,-30.085,-6.642,-23.443,-41.026,12.112,23.834,9.768
'[08:22:36.785 14/03/2059]',-10.549,-0.781,27.741,-34.383,35.946,8.205,42.589,-107.057,-1.563,-5.470,19.145,-30.867,-23.834,13.675,8.205,-18.755,-28.913,-4.689,-26.960,-23.053,13.284,10.940,8.205
'[08:22:36.789 14/03/2059]',-11.722,-0.391,27.350,-28.132,32.821,14.457,42.979,-105.104,-1.172,-6.642,20.708,-21.880,-21.099,14.066,9.768,-14.066,-24.615,0.391,-26.569,-20.317,14.457,8.987,9.768
'[08:22:36.793 14/03/2059]',-12.112,5.079,21.880,-22.662,32.821,17.973,43.370,-103.932,-1.172,-5.470,20.708,-23.053,-21.490,17.582,7.424,-14.066,-20.317,2.735,-21.099,-39.072,16.410,24.615,7.424
'[08:22:36.797 14/03/2059]',-8.987,8.987,18.364,-19.145,34.383,21.490,44.933,-103.932,1.563,-1.563,23.053,-27.741,-16.410,20.317,7.033,-16.801,-13.284,0.781,-17.582,-31.648,14.457,17.973,7.033
'[08:22:36.801 14/03/2059]',-5.861,9.377,11.722,-11.722,36.728,21.880,43.761,-100.415,3.126,-1.172,20.708,-26.178,-14.066,18.755,3.126,-12.112,-6.642,1.172,-10.940,-20.317,12.503,5.861,3.126
'[08:22:36.805 14/03/2059]',-1.563,8.205,3.516,-7.424,44.151,19.536,40.635,-102.369,2.735,-4.298,15.238,-24.615,-16.801,19.145,-3.126,-9.768,-9.768,3.516,-2.735,-35.556,12.112,20.708,-3.126
'[08:22:36.809 14/03/2059]',-1.172,-1.563,10.159,-7.424,42.979,22.662,39.072,-107.839,6.642,-3.516,12.112,-27.741,-14.066,21.880,-7.033,-12.894,-13.675,2.344,-9.377,-30.867,13.284,26.569,-7.033
'[08:22:36.813 14/03/2059]',-3.126,-12.112,17.582,-4.298,39.463,26.960,35.946,-107.448,9.377,-0.781,8.987,-26.960,-10.159,20.708,-10.159,-9.768,-10.159,2.344,-16.801,-7.814,15.238,12.894,-10.159
'[08:22:36.816 14/03/2059]',-5.861,-16.801,18.755,-2.344,37.509,28.913,32.821,-107.839,10.940,0.391,2.735,-27.350,-9.377,19.145,-15.238,-6.252,-7.033,3.907,-17.973,-8.987,20.317,12.894,-15.238
'[08:22:36.820 14/03/2059]',-6.642,-17.582,19.536,-4.298,36.728,31.648,33.211,-113.700,15.238,4.689,1.954,-36.728,-3.907,17.973,-16.410,-10.159,-2.735,0.000,-18.755,-16.020,25.006,19.145,-16.410
'[08:22:36.824 14/03/2059]',-5.470,-17.192,18.364,-7.424,36.337,32.430,33.993,-117.998,17.973,7.033,3.907,-46.886,1.954,14.847,-17.582,-16.020,4.689,-5.470,-17.582,-6.252,26.569,8.205,-17.582
'[08:22:36.828 14/03/2059]',-5.079,-15.238,11.331,-7.424,35.946,32.039,28.913,-116.435,17.973,3.907,1.563,-43.370,2.735,10.159,-17.582,-14.847,6.252,-1.172,-10.549,-11.331,26.960,7.424,-17.582
'[08:22:36.832 14/03/2059]',-3.907,-15.238,8.596,-8.596,35.556,34.383,23.834,-115.653,18.755,0.391,-0.391,-36.728,1.954,9.768,-13.675,-15.629,4.689,0.391,-7.814,-26.960,28.132,19.536,-13.675
'[08:22:36.836 14/03/2059]',-0.391,-12.894,9.377,-15.238,33.602,37.509,23.053,-116.044,21.490,0.391,0.000,-42.979,4.689,10.549,-14.847,-22.271,2.735,0.000,-8.596,-17.192,24.615,12.112,-14.847
'[08:22:36.840 14/03/2059]',3.907,-6.642,7.033,-17.973,33.602,41.416,22.271,-112.137,21.880,1.563,-3.516,-38.681,7.424,8.987,-16.410,-18.755,3.516,4.298,-6.252,-8.596,21.099,-0.391,-16.410
'[08:22:36.844 14/03/2059]',7.033,0.781,3.907,-17.582,32.430,45.324,23.834,-109.011,22.662,3.516,-7.033,-36.728,5.470,11.722,-19.145,-15.629,1.954,9.768,-3.126,-27.350,19.927,11.331,-19.145
'[08:22:36.848 14/03/2059]',10.159,6.642,1.172,-21.099,28.913,51.575,24.615,-108.620,21.880,6.252,-7.033,-38.681,5.470,15.629,-21.099,-17.582,2.344,8.596,-0.391,-37.509,16.801,16.020,-21.099
'[08:22:36.852 14/03/2059]',14.066,13.675,-2.344,-23.053,25.397,57.827,23.443,-105.885,18.364,7.814,-7.424,-26.960,8.205,14.066,-19.927,-10.159,8.987,5.079,3.126,-27.350,10.159,0.781,-19.927
'[08:22:36.855 14/03/2059]',16.410,11.722,-1.172,-21.490,24.225,61.343,18.755,-100.806,15.238,5.861,-10.549,-16.801,7.424,10.940,-21.099,-3.126,15.238,5.470,1.954,-30.867,8.596,-2.344,-21.099
'[08:22:36.859 14/03/2059]',23.053,9.768,2.735,-25.397,27.350,66.032,18.364,-102.759,12.894,8.596,-10.159,-14.066,7.814,11.331,-17.973,-3.907,19.536,2.735,-1.954,-44.151,6.252,9.768,-17.973
'[08:22:36.863 14/03/2059]',32.430,12.503,8.205,-30.867,35.165,70.330,17.973,-101.978,13.284,14.457,-7.814,-16.801,15.238,8.596,-17.192,-3.126,28.132,-0.391,-7.424,-32.039,0.391,-1.563,-17.192
'[08:22:36.867 14/03/2059]',37.900,14.457,12.112,-31.258,40.635,70.330,18.755,-96.899,12.894,20.317,-6.252,-15.238,17.973,9.768,-17.192,0.781,35.556,1.954,-11.331,-26.569,0.391,-8.987,-17.192
'[08:22:36.871 14/03/2059]',41.026,17.973,12.112,-30.867,42.198,71.111,19.145,-93.773,10.549,26.960,-4.689,-13.675,17.192,14.457,-16.410,3.126,38.681,7.424,-11.331,-45.714,1.563,8.596,-16.410
'[08:22:36.875 14/03/2059]',46.105,25.006,10.549,-35.556,42.979,73.455,21.490,-93.382,8.205,33.211,-0.391,-16.410,19.536,17.582,-15.629,3.126,39.853,11.331,-9.768,-50.794,-1.172,11.331,-15.629
'[08:22:36.879 14/03/2059]',48.449,28.913,10.159,-38.291,40.635,74.628,20.708,-87.912,4.689,33.993,1.954,-9.377,20.708,15.238,-12.894,8.205,43.370,18.755,-9.377,-44.542,-6.642,-0.391,-12.894
'[08:22:36.883 14/03/2059]',51.184,31.648,9.377,-39.463,39.463,75.018,19.536,-82.833,0.391,34.383,3.907,-3.907,16.801,15.238,-8.987,11.722,42.198,27.350,-8.596,-58.217,-8.987,3.907,-8.987
'[08:22:36.887 14/03/2059]',56.654,38.681,8.205,-49.621,43.761,76.581,21.099,-88.303,0.391,35.556,7.424,-7.033,18.755,15.238,-5.470,7.814,37.900,27.350,-7.424,-68.376,-15.629,9.377,-5.470
'[08:22:36.891 14/03/2059]',60.171,41.807,7.424,-57.436,44.933,75.800,18.755,-88.694,0.391,36.337,8.987,-9.768,19.145,14.847,-5.470,6.252,38.291,21.490,-6.642,-60.562,-25.006,1.563,-5.470
'[08:22:36.895 14/03/2059]',60.952,43.761,2.735,-61.734,44.933,69.158,15.238,-85.568,-1.563,34.774,1.563,-8.987,13.675,16.410,-10.549,5.470,37.900,17.973,-1.954,-71.893,-26.569,6.642,-10.549
'[08:22:36.898 14/03/2059]',63.687,47.668,-3.126,-67.595,46.886,64.469,13.675,-86.740,-0.391,35.946,-1.954,-9.377,10.940,21.880,-13.675,3.126,36.337,12.503,3.907,-90.256,-26.960,21.880,-13.675
'[08:22:36.902 14/03/2059]',71.502,53.529,-9.377,-74.237,49.621,62.125,12.894,-84.786,0.781,39.072,-3.126,-16.801,12.894,24.225,-17.973,-0.391,39.463,6.642,10.159,-82.442,-32.821,12.503,-17.973
'[08:22:36.906 14/03/2059]',74.628,54.701,-12.112,-76.581,47.668,57.045,13.675,-79.316,0.391,43.370,-6.252,-19.927,11.722,25.397,-18.364,-1.563,42.198,10.940,12.894,-75.409,-37.900,5.079,-18.364
'[08:22:36.910 14/03/2059]',75.018,57.827,-17.192,-76.190,46.886,51.966,15.629,-76.581,0.781,48.840,-5.861,-21.880,10.940,27.741,-13.675,-3.126,39.072,17.582,17.973,-96.117,-36.728,21.880,-13.675
'[08:22:36.914 14/03/2059]',77.363,58.608,-19.536,-81.661,43.761,49.231,18.755,-79.707,1.954,53.138,-5.470,-31.648,14.066,26.178,-16.410,-6.642,36.728,17.192,20.317,-96.508,-41.416,25.397,-16.410
'[08:22:36.918 14/03/2059]',77.753,52.747,-16.801,-85.177,39.463,45.324,20.708,-79.707,1.563,53.138,-7.033,-35.946,16.020,20.317,-15.238,-9.377,39.463,14.457,17.582,-74.237,-46.496,10.159,-15.238
'[08:22:36.922 14/03/2059]',76.972,47.668,-18.364,-82.833,39.072,36.728,23.053,-77.753,-0.781,49.621,-9.377,-32.039,15.238,15.629,-19.145,-5.079,39.853,15.238,19.145,-77.363,-45.324,14.066,-19.145
'[08:22:36.926 14/03/2059]',79.316,48.059,-20.708,-85.177,39.463,34.774,24.225,-79.707,-0.781,46.496,-8.205,-37.900,17.973,12.894,-24.615,-7.814,39.072,10.940,21.490,-85.958,-45.714,23.443,-24.615
'[08:22:36.930 14/03/2059]',78.926,49.621,-20.708,-89.866,39.463,32.821,23.443,-80.098,0.000,43.761,-5.861,-42.979,19.927,9.768,-24.615,-11.722,41.416,5.861,21.490,-70.330,-49.231,9.377,-24.615
'[08:22:36.934 14/03/2059]',76.190,50.012,-21.490,-89.866,39.072,28.132,22.271,-76.190,-1.172,39.072,-7.424,-41.416,18.364,7.814,-27.350,-11.331,42.198,3.907,22.271,-67.204,-46.105,1.563,-27.350
'[08:22:36.938 14/03/2059]',73.846,50.012,-26.178,-91.429,41.026,21.880,18.755,-77.753,0.391,33.211,-10.940,-41.026,15.238,7.424,-29.695,-12.503,36.728,-2.735,26.960,-83.614,-45.324,14.066,-29.695
'[08:22:36.941 14/03/2059]',72.283,48.449,-28.132,-95.726,42.589,14.847,17.192,-79.707,1.954,24.615,-11.722,-41.416,13.284,4.689,-28.913,-16.410,35.165,-17.582,28.913,-77.753,-49.231,10.940,-28.913
'[08:22:36.945 14/03/2059]',69.548,45.324,-29.695,-93.382,41.026,5.470,14.847,-71.502,-1.563,17.582,-14.847,-32.430,7.033,1.954,-28.132,-13.284,35.165,-24.225,30.476,-66.422,-51.966,0.000,-28.132
'[08:22:36.949 14/03/2059]',65.641,42.979,-32.821,-90.647,36.728,-1.563,14.457,-64.860,-5.861,14.457,-14.847,-28.523,3.907,0.391,-26.569,-11.722,34.774,-27.350,33.602,-73.065,-53.529,5.470,-26.569
'[08:22:36.953 14/03/2059]',66.813,43.761,-33.602,-91.429,35.556,-2.735,17.973,-66.032,-5.861,17.192,-8.205,-32.039,5.861,0.781,-21.099,-14.847,37.509,-33.602,34.383,-67.985,-59.780,5.470,-21.099
'[08:22:36.957 14/03/2059]',67.985,40.635,-30.085,-89.084,33.602,-1.172,20.317,-64.860,-8.205,21.099,-4.689,-29.304,8.205,0.391,-17.582,-12.894,40.244,-34.383,30.867,-49.231,-61.343,-8.596,-17.582
'[08:22:36.961 14/03/2059]',67.204,33.993,-28.523,-81.661,35.165,-1.954,19.927,-62.906,-8.987,23.443,-4.689,-27.741,5.861,0.781,-16.801,-9.377,38.291,-30.085,29.304,-55.092,-57.827,-1.563,-16.801
'[08:22:36.965 14/03/2059]',66.813,30.867,-29.304,-76.581,39.463,-1.954,17.582,-64.469,-7.424,25.397,-3.126,-23.443,5.861,2.344,-12.112,-6.252,34.383,-30.476,30.085,-62.906,-58.999,9.377,-12.112
'[08:22:36.969 14/03/2059]',64.469,33.602,-30.085,-75.018,40.635,-0.781,14.847,-63.687,-4.689,24.225,-0.781,-19.927,5.861,2.735,-5.470,-7.033,32.821,-31.648,30.867,-46.886,-64.078,-3.516,-5.470
'[08:22:36.973 14/03/2059]',57.827,38.291,-30.867,-68.376,39.072,-1.563,14.066,-55.873,-4.298,23.834,1.172,-14.457,5.079,3.126,1.563,-4.298,35.946,-28.913,31.648,-42.589,-66.032,-8.987,1.563
'[08:22:36.977 14/03/2059]',53.919,47.668,-32.430,-62.125,39.463,0.781,16.020,-51.575,-3.126,21.490,8.205,-11.722,1.954,5.079,9.768,-3.516,36.337,-23.834,33.211,-57.827,-68.376,4.298,9.768
'[08:22:36.980 14/03/2059]',51.966,57.045,-31.258,-57.827,39.463,5.861,18.364,-46.105,0.391,19.145,16.801,-14.847,4.298,7.814,15.238,-7.424,36.728,-24.225,32.039,-58.217,-68.376,5.861,15.238
'[08:22:36.984 14/03/2059]',50.403,55.092,-23.053,-47.668,37.118,8.987,21.099,-34.774,1.563,15.238,22.271,-10.549,6.252,9.377,19.145,-6.642,37.509,-21.099,23.834,-39.072,-62.515,-5.470,19.145
'[08:22:36.988 14/03/2059]',48.059,48.059,-16.020,-35.165,36.728,10.940,19.536,-25.006,2.735,13.284,23.443,-5.861,5.470,13.284,18.364,-3.907,32.430,-14.066,16.801,-41.807,-51.966,3.907,18.364
'[08:22:36.992 14/03/2059]',45.324,42.589,-14.066,-29.304,36.337,12.894,14.066,-20.708,5.861,11.331,23.834,-5.470,7.814,16.801,12.894,-2.344,25.397,-14.847,14.847,-42.198,-42.589,10.940,12.894
'[08:22:36.996 14/03/2059]',38.291,37.900,-12.894,-25.788,29.695,11.331,10.159,-16.020,5.079,10.940,21.099,-5.470,9.377,19.145,8.987,-6.252,23.443,-16.801,13.675,-19.927,-35.165,-3.516,8.987
'[08:22:37.000 14/03/2059]',28.913,37.900,-16.410,-22.271,21.880,9.768,5.470,-10.940,1.172,10.940,17.973,-3.516,7.033,18.755,7.033,-6.252,23.443,-17.192,17.192,-16.801,-30.476,-6.642,7.033
'[08:22:37.004 14/03/2059]',21.099,44.542,-23.834,-22.271,15.629,10.549,3.516,-12.894,-0.391,9.768,19.927,-7.424,3.907,21.099,3.907,-8.596,20.708,-19.536,24.615,-27.741,-32.821,7.033,3.907
'[08:22:37.008 14/03/2059]',16.801,51.575,-28.523,-23.053,9.377,12.894,5.470,-12.894,0.000,10.549,25.788,-12.503,5.470,23.834,12.503,-18.755,21.099,-19.927,29.304,-20.317,-40.244,6.642,12.503
'[08:22:37.012 14/03/2059]',15.238,55.482,-32.821,-17.582,1.172,17.582,4.298,-5.079,-1.563,9.377,32.039,-4.298,5.079,24.615,20.708,-16.410,21.880,-8.987,33.602,-14.847,-45.714,3.516,20.708
'[08:22:37.016 14/03/2059]',14.847,57.436,-37.509,-12.894,-3.516,22.271,3.516,-1.172,-3.516,8.987,36.337,0.781,6.252,26.569,20.708,-10.940,17.582,3.516,38.291,-24.615,-50.403,16.801,20.708
'[08:22:37.020 14/03/2059]',16.801,58.608,-36.728,-13.284,-7.424,25.397,7.033,-0.391,-3.907,10.159,40.244,0.781,11.331,26.960,19.536,-11.331,13.675,10.940,37.509,-16.801,-53.138,14.066,19.536
'[08:22:37.023 14/03/2059]',19.145,59.780,-33.602,-12.112,-11.722,26.569,13.284,3.516,-6.252,9.377,42.589,6.252,15.238,24.225,17.192,-5.861,15.238,17.973,34.383,-3.126,-51.184,0.781,17.192
'[08:22:37.027 14/03/2059]',18.755,62.125,-33.602,-10.549,-14.066,26.569,15.629,7.033,-14.066,8.987,41.807,9.377,10.940,24.615,11.331,-1.172,14.066,24.615,34.383,-14.066,-47.277,11.722,11.331
'[08:22:37.031 14/03/2059]',20.708,65.641,-33.993,-11.331,-13.284,27.350,16.801,8.205,-16.020,7.814,43.761,4.689,8.205,28.523,9.377,-6.642,12.112,25.006,34.774,-24.615,-44.542,23.443,9.377
'[08:22:37.035 14/03/2059]',20.317,66.813,-32.821,-11.331,-15.629,25.788,17.582,13.675,-16.020,4.689,49.231,4.689,10.940,29.695,12.894,-11.722,12.894,24.615,33.602,-8.596,-41.807,10.940,12.894
'[08:22:37.039 14/03/2059]',18.364,62.906,-33.602,-8.205,-20.708,22.271,15.629,19.927,-19.536,1.954,53.138,6.642,10.159,30.085,14.457,-13.675,8.205,34.383,34.383,-0.781,-39.463,5.861,14.457
'[08:22:37.043 14/03/2059]',10.940,60.171,-34.774,-5.861,-26.960,15.629,16.410,24.225,-18.755,3.516,51.184,7.424,10.159,30.867,16.410,-14.066,-1.563,44.151,35.556,-14.847,-33.993,17.973,16.410
'[08:22:37.047 14/03/2059]',5.470,57.436,-33.211,-5.079,-33.602,6.252,21.099,28.132,-17.582,6.642,53.529,3.126,12.894,31.648,17.973,-17.582,-8.596,48.059,33.993,-5.470,-26.960,11.722,17.973
'[08:22:37.051 14/03/2059]',0.781,53.529,-32.430,-1.172,-41.026,0.000,25.788,34.383,-22.271,9.377,52.747,5.861,12.112,29.695,16.801,-13.675,-12.112,56.264,33.211,8.205,-19.145,-1.563,16.801
'[08:22:37.055 14/03/2059]',-4.298,51.184,-36.337,7.424,-45.714,-6.642,28.132,41.026,-25.006,9.768,48.059,7.424,7.814,28.523,12.894,-10.159,-15.238,62.906,37.118,-6.252,-10.940,10.549,12.894
'[08:22:37.059 14/03/2059]',-7.033,48.840,-39.853,15.238,-48.059,-12.894,30.867,45.714,-24.615,8.205,47.668,1.172,7.814,30.085,8.205,-14.847,-14.847,59.780,40.635,-9.768,-3.516,19.536,8.205
'[08:22:37.063 14/03/2059]',-9.768,38.291,-34.383,21.880,-51.575,-17.192,30.085,53.919,-22.662,5.079,46.105,3.516,12.503,28.913,4.298,-14.457,-12.894,59.389,35.165,13.675,3.126,5.861,4.298
'[08:22:37.066 14/03/2059]',-10.940,31.648,-33.602,28.913,-53.529,-20.708,29.304,59.780,-21.880,3.907,37.118,6.252,14.066,28.132,-1.954,-14.066,-12.112,64.078,34.383,17.192,11.331,5.079,-1.954
'[08:22:37.070 14/03/2059]',-8.596,26.960,-30.085,31.258,-51.966,-20.317,32.821,57.827,-17.192,8.596,30.476,2.344,17.973,31.648,-6.252,-18.755,-12.894,60.171,30.867,14.066,17.582,14.847,-6.252
'[08:22:37.074 14/03/2059]',-5.079,21.490,-27.741,28.523,-50.794,-19.145,33.211,53.138,-14.457,13.675,25.006,-1.954,23.443,30.476,-11.331,-21.099,-12.894,53.529,28.523,28.913,18.755,6.252,-11.331
'[08:22:37.078 14/03/2059]',-6.252,17.192,-29.695,32.039,-53.138,-18.364,31.258,53.138,-15.238,14.847,18.364,0.000,23.834,26.960,-17.192,-15.629,-11.722,53.919,30.476,28.523,22.662,4.298,-17.192
'[08:22:37.082 14/03/2059]',-6.642,14.066,-32.821,36.728,-53.919,-19.927,30.867,53.138,-14.457,16.410,16.020,-1.954,23.053,25.006,-17.582,-15.238,-12.112,53.138,33.602,13.284,27.350,16.801,-17.582
'[08:22:37.086 14/03/2059]',-8.987,10.940,-35.946,35.165,-55.092,-24.225,27.741,51.575,-10.940,12.894,15.629,-7.033,25.397,21.490,-19.927,-16.801,-14.066,45.714,36.728,24.615,25.006,10.549,-19.927
'[08:22:37.090 14/03/2059]',-9.768,5.079,-36.728,37.900,-53.529,-32.039,26.178,55.873,-11.722,7.033,15.629,-3.516,25.006,15.238,-18.364,-14.457,-16.410,44.542,37.509,37.509,26.178,-3.516,-18.364
'[08:22:37.094 14/03/2059]',-9.768,0.391,-38.291,42.589,-51.184,-38.681,25.006,58.217,-13.284,1.172,13.675,-1.563,18.755,10.940,-19.145,-11.331,-21.880,47.277,39.072,21.099,32.430,6.252,-19.145
'[08:22:37.098 14/03/2059]',-7.033,-1.563,-36.337,43.761,-44.542,-42.198,26.178,58.217,-12.503,-3.907,11.722,-0.781,15.238,8.596,-20.317,-9.377,-26.569,41.807,37.118,16.801,29.695,12.894,-20.317
'[08:22:37.102 14/03/2059]',-5.470,-2.735,-32.430,44.151,-40.244,-43.761,26.178,58.999,-13.284,-8.987,12.894,1.954,13.675,5.470,-22.662,-4.689,-28.523,38.681,33.211,29.695,30.867,-0.391,-22.662
'[08:22:37.105 14/03/2059]',-11.331,-7.033,-28.132,48.840,-41.416,-45.714,25.397,62.906,-14.847,-10.940,12.112,5.861,11.331,2.344,-22.662,0.391,-28.913,44.542,28.913,27.350,37.900,-2.344,-22.662
'[08:22:37.109 14/03/2059]',-14.066,-8.205,-23.053,48.449,-38.681,-48.059,24.615,62.125,-10.549,-8.596,9.377,3.516,12.503,3.516,-22.662,0.000,-30.867,44.933,23.834,14.066,43.370,11.722,-22.662
'[08:22:37.113 14/03/2059]',-16.801,-7.814,-18.364,42.198,-35.556,-48.840,23.443,59.389,-3.516,-3.907,10.159,0.391,19.536,4.689,-19.536,-1.954,-29.304,38.681,19.145,24.615,46.105,4.298,-19.536
'[08:22:37.117 14/03/2059]',-17.973,-8.205,-19.145,39.853,-33.602,-53.138,19.927,59.389,-1.563,-2.735,6.642,1.172,21.490,0.781,-16.410,-2.735,-26.960,36.337,19.927,27.741,52.357,-6.252,-16.410
'[08:22:37.121 14/03/2059]',-17.192,-6.642,-19.927,38.291,-28.523,-53.529,19.536,55.482,1.172,-4.689,3.516,0.391,17.582,-0.781,-11.331,-3.516,-28.132,35.165,20.708,6.642,55.873,8.205,-11.331
'[08:22:37.125 14/03/2059]',-9.768,-5.470,-21.099,33.993,-18.364,-51.575,18.755,46.496,5.861,-9.377,1.954,-3.126,15.629,-1.563,-8.596,-8.596,-31.648,29.304,21.880,0.781,53.529,13.675,-8.596
'[08:22:37.129 14/03/2059]',-9.768,-8.205,-22.662,32.430,-18.364,-50.012,12.894,44.933,3.516,-16.801,0.391,-0.391,9.768,-8.987,-5.079,-8.205,-34.383,28.913,23.443,8.987,51.966,-0.391,-5.079
'[08:22:37.133 14/03/2059]',-15.238,-18.364,-16.020,34.383,-21.099,-47.668,6.642,44.151,3.126,-21.880,-3.907,1.172,2.735,-11.331,-7.814,-3.516,-36.728,32.039,16.801,7.424,52.357,2.735,-7.814
'[08:22:37.137 14/03/2059]',-14.066,-24.225,-9.377,29.304,-17.192,-42.589,2.735,36.728,7.424,-21.099,-5.079,-6.252,3.126,-12.112,-11.722,-4.298,-36.728,25.788,10.159,8.596,46.496,9.768,-11.722
'[08:22:37.141 14/03/2059]',-12.894,-24.225,-7.424,26.178,-16.020,-38.291,1.172,32.430,9.768,-18.364,-6.642,-9.377,4.689,-15.629,-10.940,-3.516,-30.476,17.192,8.205,21.880,39.853,-1.954,-10.940
'[08:22:37.145 14/03/2059]',-11.331,-23.053,-7.424,30.085,-14.457,-34.774,1.563,32.821,9.377,-17.192,-10.940,-8.596,3.516,-19.145,-12.503,0.391,-21.490,16.410,8.205,15.629,39.072,-0.781,-12.503
'[08:22:37.148 14/03/2059]',-5.470,-16.410,-9.377,31.258,-8.205,-29.304,4.298,31.258,13.675,-16.410,-13.675,-6.642,4.298,-21.099,-7.814,0.781,-16.020,14.457,10.159,-2.735,36.337,10.940,-7.814
'[08:22:37.152 14/03/2059]',-0.391,-8.987,-10.940,30.085,-5.079,-20.708,5.861,27.350,15.238,-17.582,-16.020,-1.954,6.252,-24.225,-4.298,1.563,-9.377,8.205,11.722,4.689,27.350,1.563,-4.298
'[08:22:37.156 14/03/2059]',-1.172,-6.252,-11.722,32.039,-7.033,-15.238,3.907,28.913,13.284,-17.192,-20.317,1.954,6.252,-26.960,-7.424,5.079,-1.172,5.861,12.503,14.066,23.053,-9.377,-7.424
'[08:22:37.160 14/03/2059]',-4.298,-5.861,-10.940,32.430,-8.205,-9.768,0.781,26.569,11.722,-14.847,-23.443,1.954,2.735,-24.225,-9.377,4.689,0.391,5.079,11.722,0.391,19.536,6.642,-9.377
'[08:22:37.164 14/03/2059]',-3.907,-4.298,-11.722,29.304,-7.033,-1.172,-2.344,18.755,11.722,-9.768,-26.178,-1.954,1.563,-20.708,-10.940,2.735,1.954,-1.563,12.503,-0.781,13.284,13.284,-10.940
'[08:22:37.168 14/03/2059]',-3.126,-3.126,-13.675,28.913,-5.861,0.391,-5.079,17.192,10.159,-3.126,-30.085,-6.252,0.781,-17.582,-14.847,1.172,8.987,-8.205,14.457,14.457,10.549,0.000,-14.847
'[08:22:37.172 14/03/2059]',-6.642,-3.516,-14.847,33.993,-5.470,1.172,-6.252,17.582,10.940,0.781,-33.602,-2.735,-1.954,-16.020,-8.596,2.344,14.457,-5.861,15.629,6.642,10.940,5.470,-8.596
'[08:22:37.176 14/03/2059]',-3.907,-1.954,-12.503,36.337,-0.391,7.033,-7.033,15.629,17.192,3.907,-32.430,-7.814,-0.781,-14.066,-7.033,4.298,17.192,-5.470,13.284,-6.642,8.596,18.755,-7.033
'[08:22:37.180 14/03/2059]',0.781,2.735,-10.940,35.946,4.689,14.457,-7.814,15.629,21.880,5.861,-29.304,-16.020,1.172,-13.675,-5.470,0.781,27.350,-7.814,11.722,2.735,4.689,6.252,-5.470
'[08:22:37.184 14/03/2059]',0.000,5.861,-9.377,40.635,4.298,21.099,-10.940,20.317,24.225,5.079,-26.960,-13.675,1.563,-14.847,-1.563,3.907,34.774,-6.252,10.159,2.735,7.424,0.391,-1.563
'[08:22:37.188 14/03/2059]',-0.781,10.159,-6.642,38.681,7.424,30.085,-15.238,16.801,24.615,1.954,-23.834,-20.317,-0.391,-14.847,-4.689,2.735,34.774,-7.033,7.424,-16.020,12.112,16.020,-4.689
'[08:22:37.191 14/03/2059]',0.000,16.020,-6.252,30.867,10.159,39.072,-18.755,8.596,23.443,0.781,-21.490,-28.913,-0.781,-15.629,-7.424,-0.781,37.118,-15.629,7.033,-19.536,17.582,13.675,-7.424
'[08:22:37.195 14/03/2059]',-11.722,16.801,-3.516,31.258,1.172,42.589,-21.490,7.814,17.973,0.000,-21.099,-29.695,-3.516,-17.973,-6.642,-3.516,42.589,-17.582,4.298,-10.549,23.443,3.126,-6.642
'[08:22:37.199 14/03/2059]',-21.099,9.377,4.298,32.821,-5.079,46.496,-23.053,6.252,12.503,2.344,-20.708,-34.383,-6.252,-19.536,-8.205,-3.907,46.496,-16.020,-3.516,-14.457,31.648,8.205,-8.205
'[08:22:37.203 14/03/2059]',-21.099,7.424,11.331,30.867,-7.814,54.701,-17.582,-1.172,11.331,9.377,-14.847,-44.933,-2.735,-19.927,-5.079,-8.987,52.357,-17.582,-10.549,-10.549,31.648,8.987,-5.079
'[08:22:37.207 14/03/2059]',-21.490,5.470,16.020,33.211,-11.722,59.389,-9.377,-3.516,8.596,16.410,-9.377,-44.933,-1.563,-18.755,1.563,-9.768,59.389,-14.066,-15.238,5.470,31.258,-1.563,1.563
'[08:22:37.211 14/03/2059]',-23.443,3.516,19.536,41.416,-14.457,62.125,-5.470,0.391,3.516,21.099,-7.424,-36.337,-3.516,-16.410,2.344,-0.781,62.515,-5.470,-18.755,-3.516,37.509,7.424,2.344
'[08:22:37.215 14/03/2059]',-23.053,5.470,19.927,44.151,-14.066,66.032,-3.907,0.000,4.298,23.443,-6.252,-33.602,-2.344,-12.112,0.781,2.344,63.297,-2.735,-19.145,-18.364,42.589,22.271,0.781
'[08:22:37.219 14/03/2059]',-24.225,7.033,21.490,44.542,-14.066,68.767,-5.079,0.391,4.689,23.834,-7.424,-30.867,0.391,-8.596,0.391,0.000,65.641,-4.298,-20.708,-6.252,46.886,12.503,0.391
'[08:22:37.223 14/03/2059]',-27.350,2.344,23.834,50.012,-15.629,66.422,-7.424,6.252,4.689,24.225,-13.675,-26.569,1.563,-7.814,-3.907,0.391,67.204,-2.735,-23.053,0.781,54.701,6.252,-3.907
'[08:22:37.227 14/03/2059]',-29.304,-2.344,22.271,51.966,-15.238,65.250,-10.940,3.516,10.159,22.271,-19.536,-28.132,3.126,-6.642,-7.814,-2.344,62.515,-3.516,-21.490,-10.159,60.952,19.536,-7.814
'[08:22:37.230 14/03/2059]',-25.006,-7.033,18.755,49.621,-10.159,62.515,-12.503,-4.298,15.238,20.708,-23.053,-35.946,7.814,-6.642,-12.112,-10.159,58.217,-13.675,-17.973,-6.252,63.297,20.317,-12.112
'[08:22:37.234 14/03/2059]',-25.788,-12.894,17.582,51.575,-7.033,57.045,-11.722,-7.814,15.238,22.662,-24.615,-36.728,9.377,-7.814,-9.768,-13.284,60.171,-18.364,-16.801,10.940,67.595,5.861,-9.768
'[08:22:37.238 14/03/2059]',-31.258,-17.582,12.112,60.952,-7.033,51.966,-11.331,-8.596,14.066,24.225,-25.006,-34.383,8.987,-7.424,-9.768,-10.940,60.952,-17.973,-11.331,1.954,73.065,16.410,-9.768
'[08:22:37.242 14/03/2059]',-35.946,-21.880,12.894,64.469,-5.470,48.059,-8.205,-14.457,11.722,30.085,-21.490,-41.416,10.159,-3.516,-9.768,-16.020,62.906,-20.317,-12.112,-1.563,80.098,26.178,-9.768
'[08:22:37.246 14/03/2059]',-43.370,-27.741,19.536,67.595,-10.549,45.324,-4.298,-13.675,7.424,39.072,-17.973,-42.979,11.722,-0.781,-3.126,-21.099,66.422,-17.582,-18.755,20.317,86.349,12.112,-3.126
'[08:22:37.250 14/03/2059]',-49.621,-35.165,21.490,76.190,-14.457,38.681,-3.516,-7.033,1.172,40.635,-16.801,-37.509,8.596,-0.781,-1.172,-18.755,65.250,-12.112,-20.708,27.741,93.382,6.642,-1.172
'[08:22:37.254 14/03/2059]',-48.059,-38.291,18.364,78.926,-12.503,34.774,-2.735,-8.205,-1.954,39.463,-12.894,-39.072,6.252,-0.781,0.000,-20.708,60.952,-12.894,-17.582,21.099,93.773,16.020,0.000
'[08:22:37.258 14/03/2059]',-43.761,-39.072,16.020,80.488,-8.987,33.211,-2.344,-7.814,-4.689,39.853,-6.642,-39.463,5.861,0.391,6.642,-24.615,60.952,-16.020,-15.238,28.132,91.429,10.940,6.642
'[08:22:37.262 14/03/2059]',-44.151,-44.542,11.331,89.866,-10.549,27.741,-5.470,0.781,-7.033,37.509,-3.516,-31.648,4.689,0.000,8.987,-19.145,66.422,-16.410,-10.549,35.946,90.256,4.298,8.987
'[08:22:37.266 14/03/2059]',-44.933,-46.105,5.470,92.991,-10.549,24.225,-7.814,0.781,-6.642,36.728,-1.954,-28.132,5.079,1.954,7.424,-16.020,69.939,-16.020,-4.689,24.225,92.210,14.847,7.424
'[08:22:37.270 14/03/2059]',-45.324,-53.919,11.722,91.038,-11.331,22.662,-5.861,-1.172,-1.563,41.416,-0.391,-28.913,12.894,7.033,6.252,-17.582,71.502,-18.364,-10.940,35.556,91.429,14.457,6.252
'[08:22:37.273 14/03/2059]',-46.886,-62.906,18.755,91.038,-13.284,17.973,-2.344,-1.563,-1.172,43.370,-3.126,-23.053,19.536,7.814,3.907,-16.410,68.376,-14.847,-17.973,59.389,92.601,0.781,3.907
'[08:22:37.277 14/03/2059]',-46.105,-69.939,21.099,96.117,-12.112,13.675,0.391,-1.954,-1.563,39.463,-3.126,-11.722,20.708,6.252,2.735,-9.768,57.827,-5.470,-20.317,55.092,95.336,6.642,2.735
'[08:22:37.281 14/03/2059]',-43.761,-74.237,22.271,99.634,-10.159,10.159,5.079,-2.735,-1.954,33.993,-0.781,-3.126,21.099,8.205,1.172,-5.470,46.105,0.000,-21.490,51.184,91.038,17.582,1.172
'[08:22:37.285 14/03/2059]',-43.370,-76.581,22.271,102.759,-10.159,5.079,8.596,0.000,-7.033,29.304,2.735,2.344,21.490,8.596,1.954,-5.079,41.416,1.954,-21.490,71.111,89.084,1.563,1.954
'[08:22:37.289 14/03/2059]',-44.933,-80.098,19.145,106.667,-10.940,-1.172,7.424,4.689,-14.457,20.317,5.079,9.377,15.629,6.642,0.000,-1.954,37.118,6.642,-18.364,78.926,85.177,-4.298,0.000
'[08:22:37.293 14/03/2059]',-48.059,-83.223,14.847,107.057,-12.894,-9.768,4.298,8.205,-17.192,12.503,2.735,8.596,9.768,4.689,-4.298,-3.126,29.695,8.596,-14.066,65.641,83.614,7.424,-4.298
'[08:22:37.297 14/03/2059]',-48.059,-83.223,14.457,101.587,-12.503,-16.020,3.126,9.377,-18.364,7.033,2.735,4.298,10.159,-0.391,-4.689,-7.424,21.490,6.252,-13.675,75.800,76.972,-1.172,-4.689
'[08:22:37.301 14/03/2059]',-47.668,-85.568,12.112,100.806,-8.596,-26.960,2.344,13.675,-26.569,1.172,0.391,11.331,6.252,-10.159,-8.596,-1.563,13.284,8.205,-11.331,91.429,71.893,-20.317,-8.596
'[08:22:37.305 14/03/2059]',-49.231,-91.038,8.596,103.541,-9.377,-34.774,1.172,14.847,-28.913,-6.642,-4.298,17.582,1.954,-17.973,-13.284,5.470,1.563,12.503,-7.814,79.316,68.767,-12.112,-13.284
'[08:22:37.309 14/03/2059]',-48.449,-97.680,11.331,101.978,-12.894,-38.291,5.079,12.503,-25.397,-16.020,-2.344,19.145,0.781,-19.536,-12.112,5.470,-5.861,12.112,-10.549,80.098,62.906,-7.033,-12.112
'[08:22:37.313 14/03/2059]',-51.575,-105.495,12.112,103.932,-23.053,-41.026,7.424,14.847,-43.761,-17.192,1.954,24.615,-9.768,-24.225,-9.768,9.377,-7.424,12.503,-11.331,100.415,56.654,-24.225,-9.768
'[08:22:37.316 14/03/2059]',-58.217,-113.309,8.987,109.011,-41.026,-41.416,8.205,20.708,-54.701,-25.006,5.470,27.741,-19.927,-29.304,-10.549,13.284,-10.159,17.192,-8.205,103.150,53.529,-27.350,-10.549
'[08:22:37.320 14/03/2059]',-57.045,-115.653,6.252,111.746,-48.059,-39.072,10.159,21.880,-62.515,-25.397,11.722,28.132,-21.099,-31.258,-7.033,12.112,-16.410,17.192,-5.470,98.462,50.012,-21.099,-7.033
'[08:22:37.324 14/03/2059]',-57.045,-110.183,6.252,111.746,-41.416,-43.761,11.722,23.053,-77.753,-21.880,17.192,33.211,-22.662,-35.165,-5.470,15.629,-18.755,15.629,-5.470,108.620,46.886,-30.867,-5.470
'[08:22:37.328 14/03/2059]',-48.449,-107.839,3.907,117.607,-24.225,-48.840,7.814,29.304,-80.098,-15.629,16.020,38.681,-16.410,-36.728,-10.159,22.662,-21.490,20.317,-3.126,109.402,49.231,-34.774,-10.159
'[08:22:37.332 14/03/2059]',-45.324,-109.011,6.642,121.514,-10.549,-54.701,7.424,31.648,-57.436,-22.662,15.238,41.807,-6.642,-28.523,-11.331,24.225,-27.741,23.053,-5.861,101.587,52.357,-19.536,-11.331
'[08:22:37.336 14/03/2059]',-47.668,-108.620,11.722,122.686,-7.033,-58.608,10.159,33.211,-39.463,-27.741,18.755,42.979,-2.344,-21.490,-5.079,25.006,-31.258,23.053,-10.940,113.309,50.403,-23.834,-5.079
'[08:22:37.340 14/03/2059]',-50.794,-107.448,11.331,124.640,-12.112,-58.608,12.112,36.337,-28.913,-31.648,22.662,41.416,-1.954,-19.145,1.172,23.053,-35.946,29.304,-10.549,127.375,47.668,-35.165,1.172
'[08:22:37.344 14/03/2059]',-60.562,-106.276,8.987,132.454,-23.834,-58.999,14.847,41.807,-25.397,-34.383,23.443,45.324,-7.424,-16.410,4.298,28.523,-42.589,39.072,-8.205,114.481,48.449,-22.662,4.298
'[08:22:37.348 14/03/2059]',-68.767,-99.243,9.377,133.236,-30.867,-55.873,18.364,42.589,-28.132,-31.648,26.960,43.370,-12.112,-14.066,10.159,26.178,-47.277,41.807,-8.596,105.495,46.105,-15.238,10.159
'[08:22:37.352 14/03/2059]',-65.641,-92.991,9.768,134.017,-29.304,-52.747,19.927,46.496,-33.602,-28.913,31.648,42.979,-13.675,-15.629,13.284,28.523,-45.714,42.979,-8.987,116.825,40.244,-27.741,13.284
'[08:22:37.355 14/03/2059]',-62.515,-90.647,9.768,140.269,-27.350,-52.747,20.317,55.482,-35.165,-26.569,30.867,47.277,-14.457,-12.894,8.987,34.774,-40.635,44.933,-8.987,116.435,39.463,-27.741,8.987
'[08:22:37.359 14/03/2059]',-61.734,-84.396,10.159,139.878,-26.178,-49.231,24.225,55.092,-29.695,-23.053,32.430,41.416,-13.675,-3.516,5.861,32.430,-35.946,43.761,-9.377,97.680,42.198,-10.940,5.861
'[08:22:37.363 14/03/2059]',-58.608,-79.316,9.377,134.799,-28.132,-40.635,21.880,52.747,-26.178,-15.238,37.118,31.648,-8.596,4.298,1.563,30.085,-29.695,39.853,-8.596,105.885,39.853,-14.847,1.563
'[08:22:37.367 14/03/2059]',-58.608,-80.488,9.768,130.110,-30.867,-36.728,16.801,51.966,-27.741,-6.642,35.556,28.523,-5.861,8.596,-3.907,30.867,-24.225,40.244,-8.987,117.216,42.589,-22.662,-3.907
'[08:22:37.371 14/03/2059]',-60.562,-78.926,5.470,125.031,-34.383,-31.648,10.549,46.496,-28.132,0.000,32.430,22.662,-6.252,13.675,-11.331,30.867,-25.397,40.635,-4.689,98.462,45.714,-4.689,-11.331
'[08:22:37.375 14/03/2059]',-58.999,-75.018,0.391,117.607,-33.993,-26.569,1.172,42.198,-26.960,1.172,33.602,14.066,-6.642,16.410,-14.066,26.960,-28.523,34.383,0.391,92.601,42.198,1.563,-14.066
'[08:22:37.379 14/03/2059]',-56.654,-74.237,0.000,113.700,-32.039,-25.397,-5.470,45.714,-28.132,-0.781,31.258,17.973,-8.596,13.284,-13.675,30.085,-29.304,31.648,0.781,102.759,40.635,-11.331,-13.675
'[08:22:37.383 14/03/2059]',-54.701,-67.204,-3.907,114.090,-30.867,-21.099,-8.596,47.668,-28.913,-0.781,27.350,19.536,-13.675,14.066,-15.629,32.821,-26.178,28.913,4.689,86.740,41.807,-6.252,-15.629
'[08:22:37.387 14/03/2059]',-53.138,-58.999,-0.781,107.448,-29.695,-11.331,-6.642,40.635,-26.960,5.470,29.304,10.549,-15.238,15.629,-11.722,30.867,-19.927,22.271,1.563,73.455,37.118,2.344,-11.722
'[08:22:37.391 14/03/2059]',-52.357,-59.780,8.205,100.415,-28.132,-1.172,-8.987,35.165,-25.397,12.503,32.821,3.516,-15.629,15.629,-6.252,30.867,-8.205,14.066,-7.424,85.958,32.430,-6.642,-6.252
'[08:22:37.395 14/03/2059]',-49.621,-62.515,11.331,97.289,-23.834,4.689,-19.927,35.165,-26.960,18.364,29.304,-1.563,-22.662,15.629,-8.596,34.383,2.344,7.814,-10.549,79.316,31.258,-3.907,-8.596
'[08:22:37.398 14/03/2059]',-45.714,-61.343,8.596,89.866,-15.238,10.159,-34.774,30.867,-23.443,21.490,25.397,-10.940,-25.788,16.410,-12.112,34.383,6.642,-1.563,-7.814,61.343,27.741,10.159,-12.112
'[08:22:37.402 14/03/2059]',-38.681,-58.217,7.033,80.098,-3.907,15.629,-49.231,27.741,-19.927,21.490,24.225,-13.675,-23.443,15.629,-12.894,32.821,12.894,-14.847,-6.252,67.985,24.225,0.781,-12.894
'[08:22:37.406 14/03/2059]',-32.039,-55.873,5.079,73.846,3.907,17.582,-60.171,27.741,-18.364,21.099,17.582,-10.549,-22.271,14.066,-16.020,35.556,17.192,-21.099,-4.298,71.502,23.834,-8.596,-16.020
'[08:22:37.410 14/03/2059]',-30.085,-48.449,1.563,66.422,7.033,20.708,-61.734,21.490,-15.238,22.271,10.940,-8.596,-21.880,13.675,-18.364,36.728,18.755,-21.099,-0.781,44.542,23.443,7.033,-18.364
'[08:22:37.414 14/03/2059]',-27.741,-43.370,4.298,55.873,5.470,27.350,-57.436,12.894,-12.503,25.788,9.377,-10.940,-20.708,14.066,-10.549,29.695,23.053,-24.225,-3.516,32.039,19.145,15.629,-10.549
