'Time and date','FP1-F7','F7-T7','T7-P7','P7-O1','FP1-F3','F3-C3','C3-P3','P3-O1','FP2-F4','F4-C4','C4-P4','P4-O2','FP2-F8','F8-T8','T8-P8','P8-O2','FZ-CZ','CZ-PZ','P7-T7','T7-FT9','FT9-FT10','FT10-T8','T8-P8','ECG'
'hh:mm:ss.mmm dd/mm/yyyy','uV','uV','uV','uV','uV','uV','uV','uV','uV','uV','uV','uV','uV','uV','uV','uV','uV','uV','uV','uV','uV','uV','uV','uV'
'[22:53:33.000 08/07/2079]',-8.205,-19.536,-117.216,-78.144,-145.348,21.099,-75.409,-23.443,-161.368,80.879,-21.880,22.662,1.172,-27.350,38.681,-92.210,43.370,-105.104,117.998,-7.033,-1.954,-12.503,38.681,-956.874
'[22:53:33.004 08/07/2079]',0.391,0.391,0.391,0.391,0.391,0.391,0.391,0.391,0.391,0.391,0.391,0.391,0.391,0.391,0.391,0.391,0.391,0.391,0.391,0.391,0.391,0.391,0.391,0.391
'[22:53:33.008 08/07/2079]',0.781,0.391,0.391,0.391,0.391,0.391,0.391,0.391,0.391,0.391,0.391,0.391,0.391,0.391,0.391,0.391,0.391,0.391,0.391,0.391,0.391,0.391,0.391,1.563
'[22:53:33.012 08/07/2079]',1.563,-0.391,0.391,0.781,1.563,0.391,0.781,0.000,0.391,0.391,0.781,0.391,0.391,0.391,0.391,1.172,0.391,0.781,0.391,0.391,0.391,0.781,0.391,0.000
'[22:53:33.016 08/07/2079]',-1.563,1.954,0.391,-0.391,-0.781,0.391,-0.781,1.954,0.391,0.391,-1.563,0.781,0.391,0.391,0.391,-0.781,0.391,-0.391,0.391,0.391,0.391,0.000,0.391,-5.079
'[22:53:33.020 08/07/2079]',-6.252,5.079,0.781,-1.954,-5.079,0.781,-1.563,3.126,-0.391,1.172,-1.954,0.000,0.781,0.000,0.781,-3.907,1.563,-0.781,0.000,1.172,0.391,-1.172,0.781,-6.252
'[22:53:33.023 08/07/2079]',0.391,0.000,0.781,0.391,-1.563,2.735,2.344,-2.344,-1.172,0.781,4.689,-1.563,0.391,0.391,0.391,0.391,0.781,1.172,0.000,0.391,1.563,0.000,0.391,0.391
'[22:53:33.027 08/07/2079]',9.768,-7.424,0.391,3.907,3.907,2.735,4.689,-5.079,-0.391,0.000,6.642,0.391,0.000,0.391,-0.781,7.033,-0.391,2.735,0.391,-1.172,1.563,1.172,-0.781,6.252
'[22:53:33.031 08/07/2079]',0.781,0.000,0.000,1.563,0.000,-0.391,-1.954,4.689,1.172,0.391,-4.298,3.907,0.000,0.391,0.000,1.563,0.391,-0.391,0.781,0.391,-0.391,0.781,0.000,-1.954
'[22:53:33.035 08/07/2079]',-9.768,11.331,0.391,-3.516,-3.907,-1.172,-5.470,8.596,0.781,1.563,-9.377,1.954,0.391,-0.391,2.735,-7.814,2.344,-3.126,0.391,2.735,-3.126,-0.391,2.735,-23.053
'[22:53:33.039 08/07/2079]',-10.159,12.503,1.563,-7.424,-7.033,1.954,-2.344,3.516,-2.344,0.781,-0.391,-3.126,2.344,-0.391,2.344,-9.768,3.516,-3.126,-0.781,3.126,0.781,-3.907,2.344,-62.515
'[22:53:33.043 08/07/2079]',-40.244,28.523,8.205,-18.364,-43.761,13.675,-9.768,17.582,-11.722,3.907,-6.252,-5.079,5.470,-3.907,0.391,-22.662,10.159,-10.940,-7.424,6.252,8.596,-16.410,0.391,-85.958
'[22:53:33.047 08/07/2079]',-45.324,21.880,11.331,-14.066,-63.297,26.960,0.781,8.987,-22.271,10.940,7.814,-12.894,5.079,-5.861,3.126,-19.145,11.722,-3.907,-10.549,5.079,11.331,-17.582,3.126,-93.382
'[22:53:33.051 08/07/2079]',-12.894,9.377,5.079,-9.377,-55.873,39.853,9.377,-0.781,-29.304,4.298,22.271,-11.722,5.861,-6.252,-5.079,-8.987,13.284,-1.172,-4.298,0.781,16.020,-15.629,-5.079,-76.190
'[22:53:33.055 08/07/2079]',-4.689,7.033,4.298,-7.033,-55.482,40.244,2.344,11.722,-26.960,8.596,3.907,-1.172,-7.033,-7.814,2.344,-1.563,13.675,-4.689,-3.516,5.470,3.126,-22.271,2.344,-57.436
'[22:53:33.059 08/07/2079]',-0.781,12.503,3.516,-3.126,-36.728,29.304,0.781,18.364,-18.364,7.424,0.391,13.675,-10.940,0.000,10.940,4.298,14.457,-4.689,-2.735,7.814,-8.987,-12.112,10.940,-52.357
'[22:53:33.063 08/07/2079]',29.695,14.847,-3.907,-10.940,-3.907,26.569,1.172,6.252,-23.443,5.079,4.298,10.549,-1.172,-15.238,11.331,2.735,11.722,-8.987,4.689,7.424,-19.536,-12.894,11.331,-46.886
'[22:53:33.066 08/07/2079]',4.689,10.940,6.252,-16.410,-16.410,14.847,1.954,5.470,-16.410,0.781,8.205,14.457,4.689,-17.192,11.331,8.596,5.079,-12.894,-5.470,5.470,-9.768,-17.582,11.331,-36.337
'[22:53:33.070 08/07/2079]',-13.675,14.847,14.066,-19.536,-32.039,18.364,1.954,7.033,-15.238,1.172,7.814,12.503,10.940,-14.457,2.344,7.814,3.516,-12.112,-13.284,8.987,-8.205,-18.364,2.344,-23.834
'[22:53:33.074 08/07/2079]',-20.317,13.675,6.252,-22.662,-41.807,17.192,0.391,1.172,-26.960,6.642,2.344,-1.954,39.853,-40.635,-5.079,-13.284,3.907,-12.112,-5.470,6.252,5.079,-21.490,-5.079,-12.503
'[22:53:33.078 08/07/2079]',-35.556,13.675,3.907,-19.536,-59.780,14.457,-1.172,8.987,-12.503,-4.298,-6.642,3.126,6.642,-8.596,-2.344,-15.238,2.344,-15.238,-3.126,8.987,6.252,-21.880,-2.344,-6.642
'[22:53:33.082 08/07/2079]',-17.192,12.503,5.470,-14.457,-38.291,12.894,-0.391,12.112,-8.987,4.298,-5.079,5.861,12.112,-2.735,-3.516,-8.987,6.252,-11.722,-4.689,17.192,3.907,-22.662,-3.516,-3.907
'[22:53:33.086 08/07/2079]',-5.079,1.954,-10.159,-2.735,-28.132,5.861,-5.079,11.722,-18.364,1.172,-6.252,7.814,1.172,-6.252,1.563,-10.940,2.735,-12.894,10.940,11.331,-0.781,-16.801,1.563,-5.079
'[22:53:33.090 08/07/2079]',-16.020,15.238,-12.503,-12.894,-40.635,7.424,-3.516,10.159,-26.569,-7.814,-6.642,15.238,-14.066,-5.861,0.000,-5.470,-1.172,-17.192,13.284,1.172,-7.033,-13.284,0.000,-7.033
'[22:53:33.094 08/07/2079]',-18.364,21.880,-1.954,-21.099,-39.072,9.768,-2.735,11.331,-26.960,-6.252,-4.689,4.689,-8.987,-8.596,0.391,-15.629,-1.172,-17.582,2.735,9.768,-10.940,-14.457,0.391,-5.079
'[22:53:33.098 08/07/2079]',-21.880,16.410,-7.424,-20.317,-40.635,8.596,-7.814,6.642,-42.198,-12.503,-1.954,5.079,-15.629,-28.523,1.563,-9.768,-4.298,-15.238,8.205,7.814,-3.126,-25.788,1.563,2.344
'[22:53:33.102 08/07/2079]',-15.238,13.284,2.344,-20.317,-46.496,19.536,0.391,5.861,-40.244,-7.033,0.781,7.033,-15.629,-15.238,3.126,-11.722,-1.563,-9.377,-1.563,-0.781,10.159,-21.099,3.126,9.768
'[22:53:33.105 08/07/2079]',-11.331,16.801,1.563,-12.894,-21.099,5.470,-1.563,11.331,-23.443,-0.391,-1.563,12.894,-0.781,-1.954,3.907,-13.675,0.000,-8.596,-0.781,4.689,15.629,-17.973,3.907,13.675
'[22:53:33.109 08/07/2079]',-3.126,17.192,-2.735,-15.238,-16.410,9.768,-8.205,10.549,-19.927,2.735,-1.563,16.020,3.516,5.079,0.000,-12.112,-0.781,-5.470,3.516,8.987,7.814,-14.847,0.000,16.410
'[22:53:33.113 08/07/2079]',1.954,16.020,-0.781,-11.331,-14.066,10.159,3.126,5.470,-11.722,2.344,6.642,8.205,0.781,15.238,0.000,-10.549,-0.781,0.000,1.563,0.391,7.814,-11.331,0.000,21.490
'[22:53:33.117 08/07/2079]',4.298,12.112,-4.689,-10.159,-17.973,11.331,7.814,-0.391,-3.516,-2.735,10.549,7.033,14.847,11.722,-6.252,-9.377,-5.079,-0.391,5.470,0.000,3.516,1.172,-6.252,26.960
'[22:53:33.121 08/07/2079]',3.126,11.722,2.735,-16.801,-27.741,14.457,4.689,8.205,-5.470,-7.814,4.298,10.159,16.801,4.298,-7.814,-12.894,-5.079,-1.563,-1.954,7.814,5.861,-10.940,-7.814,34.774
'[22:53:33.125 08/07/2079]',-5.079,5.079,0.781,-12.112,-42.589,12.503,2.344,15.629,-15.238,-9.768,-2.344,7.033,11.331,-5.861,-3.516,-22.662,-4.298,-3.516,0.000,2.344,20.708,-19.145,-3.516,28.523
'[22:53:33.129 08/07/2079]',1.172,5.079,1.172,-14.066,-30.867,8.205,1.563,12.894,-16.410,0.391,-6.252,8.596,27.350,-1.954,-6.642,-32.430,-3.516,-5.470,-0.391,3.126,37.900,-20.317,-6.642,17.582
'[22:53:33.133 08/07/2079]',-2.735,4.689,-0.391,-23.053,-37.900,13.675,-1.954,3.907,-29.695,5.470,-5.079,1.954,12.894,3.126,-12.503,-30.867,0.391,-10.549,1.172,9.377,21.880,-16.020,-12.503,4.298
'[22:53:33.137 08/07/2079]',-4.689,6.642,-6.252,-14.847,-36.728,18.364,-4.298,2.735,-20.708,-0.781,-1.563,-0.781,8.596,6.252,-13.675,-26.178,2.735,-8.205,7.033,3.907,24.225,-12.112,-13.675,-4.298
'[22:53:33.141 08/07/2079]',-4.689,9.377,-13.675,-7.033,-25.397,10.940,-5.470,1.954,-3.516,-3.907,-1.954,-0.781,19.927,13.284,-18.755,-26.569,4.689,-7.424,14.457,-3.126,24.615,3.516,-18.755,-5.861
'[22:53:33.145 08/07/2079]',-6.642,12.112,-5.079,-14.457,-22.662,9.377,-3.907,1.954,1.172,-10.549,-3.126,-4.689,24.615,12.503,-27.741,-28.132,6.252,-7.424,5.861,5.079,28.523,1.172,-27.741,-0.391
'[22:53:33.148 08/07/2079]',-1.563,4.298,-5.861,-2.344,-26.178,10.549,-7.424,15.629,0.781,-11.722,-1.954,0.391,23.443,2.344,-19.927,-18.755,6.642,-3.516,6.642,12.112,31.258,-14.066,-19.927,12.503
'[22:53:33.152 08/07/2079]',4.689,-5.861,-12.503,-5.470,-13.675,-5.470,-8.987,8.596,-15.238,-3.126,-1.563,-5.079,17.192,1.172,-26.178,-18.755,1.563,-3.516,13.284,10.159,32.039,-12.503,-26.178,21.880
'[22:53:33.156 08/07/2079]',2.344,-1.954,0.391,-19.536,-21.880,0.000,-2.344,4.298,-19.927,2.735,1.172,-9.377,17.973,4.689,-18.364,-30.085,0.000,-3.907,0.391,10.549,37.509,-21.099,-18.364,14.457
'[22:53:33.160 08/07/2079]',-10.159,4.298,-4.689,-22.271,-32.821,2.344,-9.377,6.642,-18.364,2.344,-8.987,-12.503,2.735,2.735,-16.020,-28.523,-1.172,-11.722,5.470,8.596,21.099,-19.927,-16.020,3.907
'[22:53:33.164 08/07/2079]',-5.861,5.861,-12.112,-9.768,-22.662,7.814,-7.033,0.391,-9.377,0.000,0.391,-2.735,4.689,11.722,-10.940,-18.364,-2.344,-7.814,12.894,3.126,21.099,-8.596,-10.940,-7.033
'[22:53:33.168 08/07/2079]',1.563,9.377,-7.424,-4.689,-5.861,7.424,-3.126,0.391,-1.563,-2.735,1.563,5.079,17.973,9.768,-10.940,-15.238,-0.391,-8.987,8.205,-4.689,38.681,-10.940,-10.940,-6.252
'[22:53:33.172 08/07/2079]',8.596,17.582,-7.033,1.172,0.391,12.894,-7.424,13.284,-5.470,-5.861,-3.516,14.066,15.629,12.503,-17.192,-13.675,1.172,-12.894,7.814,4.689,30.085,-7.033,-17.192,0.000
'[22:53:33.176 08/07/2079]',3.907,22.271,-8.596,-1.954,0.391,8.987,-9.377,14.457,-6.642,-3.126,-3.516,13.284,23.443,12.112,-19.927,-17.582,1.172,-11.331,9.377,7.814,29.304,-10.549,-19.927,5.861
'[22:53:33.180 08/07/2079]',-3.126,19.536,-8.987,-3.907,-10.159,7.814,-1.954,6.252,-6.252,1.563,-1.563,12.112,22.271,18.755,-22.271,-14.457,2.344,-9.377,9.768,-0.781,35.946,-10.940,-22.271,10.940
'[22:53:33.184 08/07/2079]',-0.781,16.801,-8.205,-12.894,-14.457,12.112,1.563,-6.252,-3.126,-0.781,0.391,1.954,24.615,8.205,-19.536,-17.192,1.172,-9.768,8.987,0.781,21.490,-8.205,-19.536,10.159
'[22:53:33.188 08/07/2079]',3.907,11.722,-12.503,-4.689,-4.298,9.377,-6.642,-1.563,-4.689,6.642,-9.377,4.689,23.834,1.172,-21.490,-7.814,1.563,-8.205,13.284,6.252,20.708,-16.020,-21.490,3.516
'[22:53:33.191 08/07/2079]',-4.689,13.284,-17.192,-10.549,-6.252,7.424,-12.112,-8.987,-10.549,1.563,-13.284,3.126,14.847,-3.907,-22.662,-7.814,0.781,-8.205,17.973,0.000,26.178,-14.457,-22.662,-4.689
'[22:53:33.195 08/07/2079]',3.516,15.629,-12.894,-14.066,-5.079,14.457,-8.596,-9.377,-11.722,-0.781,-10.940,-9.377,12.112,-13.284,-16.410,-17.192,-0.781,-8.987,13.675,3.907,17.192,-19.145,-16.410,-11.331
'[22:53:33.199 08/07/2079]',1.563,8.205,-7.424,-3.516,-7.424,12.894,-8.987,1.563,-19.536,5.079,-5.470,-3.907,8.205,-8.205,-13.284,-10.940,-1.172,-8.596,8.205,10.940,16.801,-17.973,-13.284,-11.722
'[22:53:33.203 08/07/2079]',-9.377,9.377,-10.549,0.391,-29.695,17.582,-8.987,10.159,-19.927,0.781,-0.781,8.205,10.549,-10.940,-12.894,1.954,-3.516,-3.907,11.331,0.391,11.331,-9.768,-12.894,-8.987
'[22:53:33.207 08/07/2079]',-3.126,14.457,-18.755,0.391,-7.424,6.252,-10.940,4.689,-10.159,-1.954,-2.344,6.252,12.112,-8.596,-7.814,-3.126,-4.689,-6.642,19.536,-5.861,10.940,-11.331,-7.814,-9.377
'[22:53:33.211 08/07/2079]',0.000,14.457,-14.457,-3.907,7.424,-1.563,-17.192,6.642,-1.563,-6.642,-10.159,8.987,9.768,-5.079,-7.424,-7.424,-5.079,-9.768,15.238,-1.954,11.331,-12.112,-7.424,-9.768
'[22:53:33.215 08/07/2079]',14.066,17.582,-19.927,-1.172,23.443,0.391,-25.006,10.940,3.907,-13.284,-10.549,22.271,8.596,-3.907,-10.549,8.596,-5.861,-7.033,20.708,0.000,2.344,-14.457,-10.549,-7.424
'[22:53:33.219 08/07/2079]',16.020,10.549,-15.238,-10.549,20.708,1.563,-18.364,-3.516,-0.391,-7.033,-5.079,17.192,19.536,-16.410,-2.735,3.126,-6.252,-3.907,16.020,-3.516,5.861,-18.755,-2.735,-3.907
'[22:53:33.223 08/07/2079]',-4.298,10.940,2.344,-6.252,-1.172,6.642,-13.284,9.768,-7.424,-12.894,-4.298,19.145,10.549,-15.238,-4.689,1.954,-6.252,-6.252,-1.563,-1.563,3.907,-12.112,-4.689,-0.781
'[22:53:33.227 08/07/2079]',-12.503,14.457,-0.781,-2.344,-13.675,10.159,-17.582,17.973,-15.238,-8.596,-5.861,17.192,13.675,-18.755,-6.252,-0.781,-3.907,-6.642,1.563,5.470,-0.781,-15.238,-6.252,2.735
'[22:53:33.230 08/07/2079]',-9.768,10.159,-1.172,-7.033,-15.238,12.503,-12.112,5.470,-28.132,6.642,2.735,8.987,58.217,-48.059,-14.457,-3.516,-1.954,-1.954,1.954,2.735,9.768,-13.284,-14.457,5.861
'[22:53:33.234 08/07/2079]',-5.470,1.563,2.344,-5.861,-5.861,7.814,-10.159,0.391,-3.126,-12.894,0.000,-0.391,-9.768,3.907,-7.033,-5.079,-1.172,-7.033,-1.563,-2.735,-1.954,-2.735,-7.033,4.689
'[22:53:33.238 08/07/2079]',11.722,5.861,-8.596,-4.298,13.675,4.298,-18.364,3.126,5.079,-7.814,-6.252,5.861,-3.126,2.344,1.172,-4.298,1.563,-7.814,9.377,-5.079,-4.298,-7.033,1.172,0.000
'[22:53:33.242 08/07/2079]',9.377,9.768,-13.284,-5.079,12.503,6.642,-21.490,1.563,4.689,-3.516,-5.861,5.861,-6.252,4.298,0.781,1.563,7.424,-5.079,14.066,-3.126,-14.847,-1.954,0.781,-8.205
'[22:53:33.246 08/07/2079]',5.470,7.424,-15.629,1.954,10.940,4.298,-16.410,-0.391,9.377,-8.987,1.954,3.907,-24.225,15.629,3.907,9.377,10.159,-5.861,16.410,-6.642,-24.225,2.344,3.907,-12.503
'[22:53:33.250 08/07/2079]',9.377,3.126,-21.880,10.549,14.847,1.563,-15.629,-0.781,-4.689,-8.987,5.861,5.079,-16.801,-10.940,2.735,21.880,9.377,-8.205,22.662,-4.689,-21.880,-6.252,2.735,-11.722
'[22:53:33.254 08/07/2079]',3.126,6.252,-19.536,2.735,-3.907,17.582,-16.410,-5.470,-11.722,1.954,2.344,-3.516,-2.344,-14.847,-1.172,8.596,12.112,-7.814,20.317,3.126,-15.629,-5.079,-1.172,-6.642
'[22:53:33.258 08/07/2079]',-16.020,1.954,-19.145,1.172,-17.973,8.596,-14.066,-9.768,-6.252,-4.298,3.516,-16.410,2.344,-11.331,-7.814,-7.033,11.722,-11.722,19.927,-1.563,3.907,-5.079,-7.814,-4.689
'[22:53:33.262 08/07/2079]',-19.536,5.861,-16.801,6.252,-10.549,4.689,-15.629,-3.516,2.344,-0.781,-6.252,-9.768,-4.689,0.391,-5.861,-3.907,13.675,-15.629,17.582,-3.126,5.079,2.344,-5.861,-3.516
'[22:53:33.266 08/07/2079]',-17.192,7.033,-14.457,-3.516,-3.126,1.563,-17.973,-9.768,5.079,2.344,-0.781,-17.192,3.907,7.424,-6.642,-15.629,17.192,-16.801,15.238,5.079,6.252,2.344,-6.642,-4.298
'[22:53:33.270 08/07/2079]',-10.940,-2.344,-20.317,4.298,-2.344,-1.172,-18.364,-7.814,14.066,-1.954,0.000,-14.457,8.987,4.689,-11.722,-6.252,16.801,-16.410,21.099,1.954,2.344,5.079,-11.722,-9.377
'[22:53:33.273 08/07/2079]',-6.642,-8.205,-8.205,10.549,12.112,-14.457,-12.894,0.781,11.722,-11.722,0.000,-6.642,-6.252,4.298,-12.894,8.205,13.284,-17.973,8.987,-2.735,-2.735,11.331,-12.894,-14.847
'[22:53:33.277 08/07/2079]',-9.377,-5.861,-7.424,1.563,-2.344,-4.689,-10.940,-3.516,6.642,-4.689,-2.735,-13.284,0.391,-7.424,-3.907,-3.126,12.112,-19.145,8.205,4.298,-3.907,0.391,-3.907,-24.615
'[22:53:33.281 08/07/2079]',-4.689,-12.112,-9.377,12.112,-11.722,4.298,-9.377,0.781,-7.814,-4.298,-1.954,-2.344,-3.907,-12.503,-7.424,6.252,12.503,-18.364,10.159,6.252,5.079,-3.516,-7.424,-27.741
'[22:53:33.285 08/07/2079]',-15.238,-11.722,-9.377,14.066,-5.470,-8.596,-6.252,-3.516,-5.861,-2.344,-5.470,-5.079,-23.443,4.298,-5.861,6.252,9.768,-19.927,10.159,0.391,0.391,4.689,-5.861,-33.211
'[22:53:33.289 08/07/2079]',-14.457,-1.954,-21.099,4.298,-9.377,-6.642,-12.503,-5.470,-5.079,-1.172,-17.973,-6.252,-23.443,9.768,0.391,-17.192,7.814,-26.178,21.880,2.344,-0.781,3.907,0.391,-43.761
'[22:53:33.293 08/07/2079]',-2.735,3.907,-14.457,-4.689,16.801,-17.192,-16.801,-3.516,-1.563,-6.252,-17.192,-11.722,-0.781,-8.987,-5.861,-21.490,4.689,-25.788,15.238,2.344,1.563,-1.172,-5.861,-54.701
'[22:53:33.297 08/07/2079]',-1.172,-0.391,-13.284,-0.781,16.410,-17.973,-9.377,-6.642,0.391,-8.596,-5.470,-10.549,0.391,-12.894,-2.735,-7.814,-1.172,-18.364,14.066,-2.344,2.344,-3.126,-2.735,-65.641
'[22:53:33.301 08/07/2079]',-3.907,-2.735,-7.424,-2.344,0.781,-8.205,-3.126,-7.424,-10.940,-11.722,1.172,-3.907,0.000,-21.490,-5.861,1.954,-3.907,-13.675,8.205,-10.159,5.861,-1.172,-5.861,-66.813
'[22:53:33.305 08/07/2079]',6.642,-3.907,-3.516,0.000,9.768,-6.642,-8.205,2.735,-41.416,1.563,5.861,3.126,32.430,-58.999,-9.377,5.861,-1.172,-11.331,4.298,-3.126,14.457,-12.503,-9.377,-61.734
'[22:53:33.309 08/07/2079]',-1.172,2.735,1.563,-1.172,10.549,-6.252,-9.377,7.033,-31.258,-8.596,1.954,4.298,-26.960,-10.940,-0.781,5.861,0.781,-12.503,-0.781,-4.689,5.470,-8.987,-0.781,-48.059
'[22:53:33.313 08/07/2079]',-10.549,2.735,-4.298,-3.907,-0.781,-7.424,-6.642,-1.563,-15.629,-10.549,5.079,-1.563,-25.788,8.596,-4.689,-1.172,0.781,-14.457,5.079,-5.470,-8.205,6.642,-4.689,-24.225
'[22:53:33.316 08/07/2079]',-2.735,3.516,-4.689,-6.642,9.377,-6.642,-6.642,-7.424,10.940,-13.284,7.424,-2.344,-6.642,5.861,1.563,0.391,5.079,-17.582,5.470,-1.954,-13.284,3.126,1.563,3.907
'[22:53:33.320 08/07/2079]',-11.722,2.344,2.344,-2.735,1.172,-2.344,-4.298,-4.298,27.741,-14.847,6.252,-4.689,-9.377,6.642,12.112,4.298,4.689,-12.894,-1.563,1.172,-19.536,-0.781,12.112,35.556
'[22:53:33.324 08/07/2079]',-34.774,5.861,-1.172,3.516,-31.258,5.861,-1.172,0.000,23.834,-7.424,6.252,-1.172,-10.940,16.020,7.033,8.596,5.079,-8.205,1.954,-9.377,-21.880,10.940,7.033,61.734
'[22:53:33.328 08/07/2079]',-25.788,5.470,3.516,0.391,-33.602,18.755,0.000,-0.781,18.755,-3.516,1.954,1.563,8.987,-4.689,5.861,7.424,5.861,-5.079,-2.735,-5.079,-8.205,1.563,5.861,77.363
'[22:53:33.332 08/07/2079]',0.391,-0.391,5.861,1.954,-3.907,11.331,-3.516,3.516,16.020,-2.344,3.907,-1.954,6.252,-3.516,10.159,1.954,5.861,-6.642,-5.079,2.735,-7.424,-6.252,10.159,87.521
'[22:53:33.336 08/07/2079]',23.834,-3.907,3.126,2.344,33.211,-3.516,-6.252,1.954,17.582,-4.298,3.126,-4.689,3.907,12.894,-3.516,-1.563,2.735,-8.205,-2.344,-1.563,-0.391,2.735,-3.516,77.753
'[22:53:33.340 08/07/2079]',22.662,3.516,-4.298,-5.079,35.165,-3.907,-5.470,-8.205,17.973,-7.033,6.642,-1.563,11.331,4.689,5.470,-6.642,3.516,-10.940,5.079,-4.689,6.252,0.000,5.470,57.827
'[22:53:33.344 08/07/2079]',25.397,8.987,4.689,-4.689,45.714,-9.377,-6.252,4.298,21.880,-13.284,2.735,-2.344,3.126,-1.954,15.629,-8.596,5.079,-13.675,-3.907,0.000,-3.516,-5.470,15.629,35.165
'[22:53:33.348 08/07/2079]',13.284,-1.563,-1.172,5.470,31.258,-12.503,-8.205,5.861,-0.781,0.781,3.126,4.689,-9.377,-2.344,16.020,2.735,2.735,-12.112,1.954,0.781,-14.066,2.735,16.020,27.741
'[22:53:33.352 08/07/2079]',0.781,-5.079,1.954,2.344,-0.391,2.344,-0.391,-0.781,0.391,-7.424,3.907,6.252,-12.894,-3.907,12.894,6.642,1.954,-10.549,-1.172,-5.079,-5.470,4.298,12.894,23.834
'[22:53:33.355 08/07/2079]',8.987,-7.033,1.172,1.954,2.344,0.000,-1.172,4.689,8.987,-1.954,-1.172,0.781,-10.940,9.768,15.238,-7.424,0.781,-13.675,-0.391,-1.172,-7.424,3.516,15.238,29.304
'[22:53:33.359 08/07/2079]',-8.987,-7.814,-4.298,-1.954,-8.987,-7.424,-10.549,3.126,3.907,-0.781,-9.768,1.563,-9.768,10.159,5.470,-12.112,0.391,-16.801,5.079,5.470,-5.861,2.344,5.470,23.834
'[22:53:33.363 08/07/2079]',1.563,3.516,1.563,-3.907,-1.172,5.861,1.954,-3.126,3.516,2.344,3.907,-5.079,6.642,4.689,4.689,-10.159,4.689,-9.377,-0.781,-2.735,0.391,2.735,4.689,19.536
'[22:53:33.367 08/07/2079]',14.457,-2.735,8.596,8.205,10.940,1.954,9.768,7.033,0.000,7.033,15.238,10.159,2.344,5.470,16.410,8.205,7.814,-3.126,-7.814,-4.298,0.391,1.954,16.410,13.675
'[22:53:33.371 08/07/2079]',0.391,5.470,7.033,-1.172,0.391,1.563,2.344,7.033,2.344,1.563,8.205,9.768,9.377,-3.516,12.894,3.516,8.596,-4.298,-6.252,2.735,-10.549,1.172,12.894,16.801
'[22:53:33.375 08/07/2079]',-8.987,6.252,1.954,9.377,-9.377,0.000,1.563,17.582,-6.252,4.689,7.814,8.596,35.946,-30.085,7.424,1.954,7.424,-2.735,-1.172,2.735,-6.642,0.781,7.424,24.615
'[22:53:33.379 08/07/2079]',-11.331,11.331,-0.781,10.549,-12.503,0.391,5.079,17.192,12.112,-6.252,3.516,8.205,-6.252,15.238,7.814,1.172,0.391,-1.954,1.563,-2.735,-5.079,7.424,7.814,33.211
'[22:53:33.383 08/07/2079]',-15.238,2.735,-6.252,5.861,-21.490,-4.689,0.781,11.722,12.112,-9.768,-1.954,-1.563,-4.689,16.020,0.391,-12.894,-4.298,-7.424,7.033,3.126,0.391,3.907,0.391,41.026
'[22:53:33.387 08/07/2079]',-9.768,-1.954,-7.033,8.205,-26.960,0.781,1.563,12.894,10.549,-7.814,-3.907,-5.470,1.172,11.722,-3.516,-16.020,-6.252,-5.470,7.814,3.516,5.861,4.298,-3.516,42.589
'[22:53:33.391 08/07/2079]',12.894,1.172,-1.954,9.377,-1.563,2.344,7.033,14.457,8.596,0.391,-4.298,2.735,-3.516,22.271,0.391,-10.940,-3.516,-1.954,2.735,-1.954,11.722,11.331,0.391,31.648
'[22:53:33.395 08/07/2079]',9.377,-7.033,1.172,4.298,8.205,-13.675,0.781,11.722,2.735,0.781,-8.987,4.689,3.126,15.238,-1.563,-18.755,-5.470,-6.642,-0.391,7.033,21.490,7.814,-1.563,14.457
'[22:53:33.398 08/07/2079]',12.112,-10.549,-7.033,2.344,-4.298,-2.344,-5.470,8.596,-7.424,1.954,-8.205,7.814,12.503,-3.516,-5.079,-10.940,-4.689,-8.596,7.814,14.066,7.033,8.596,-5.079,0.781
'[22:53:33.402 08/07/2079]',12.112,-10.549,1.954,7.033,10.549,-9.768,-1.172,12.112,-6.642,9.768,-7.033,6.642,5.079,14.066,-9.768,-6.642,-7.033,-6.642,-1.172,5.470,12.503,14.847,-9.768,-11.331
'[22:53:33.406 08/07/2079]',1.172,-5.470,0.391,8.987,2.735,-8.205,0.391,10.940,6.252,-5.470,-10.159,2.344,2.344,17.192,-15.629,-12.503,-12.503,-7.033,0.391,2.735,18.364,16.410,-15.629,-13.675
'[22:53:33.410 08/07/2079]',1.954,1.954,2.344,7.814,2.735,-7.033,2.735,16.410,10.549,-4.298,-12.503,0.781,5.861,8.987,-9.768,-11.331,-12.112,-3.126,-1.563,3.907,11.722,4.689,-9.768,-6.642
'[22:53:33.414 08/07/2079]',17.582,-0.391,5.079,7.424,6.642,3.907,9.768,9.768,10.159,-2.344,-8.987,-8.987,21.490,6.252,-24.615,-14.066,-10.940,5.861,-4.298,6.642,28.132,0.000,-24.615,-3.126
'[22:53:33.418 08/07/2079]',0.781,-5.470,6.642,9.377,-3.907,-3.907,16.410,3.516,-1.563,0.000,-4.298,3.126,8.596,5.861,-10.549,-8.596,-11.722,12.112,-5.861,0.000,38.291,0.781,-10.549,-20.708
'[22:53:33.422 08/07/2079]',-7.033,1.172,1.954,6.642,-8.987,-4.298,7.424,8.596,-19.536,6.252,-12.894,3.126,0.391,10.159,-15.238,-18.364,-7.033,7.814,-1.172,6.642,38.291,-0.391,-15.238,-89.866
'[22:53:33.426 08/07/2079]',-13.284,-8.596,7.033,-4.298,-26.178,1.172,0.391,5.079,-17.973,6.252,-18.755,-7.424,14.847,6.642,-23.053,-37.900,-6.252,3.516,-6.252,13.284,48.059,0.781,-23.053,-185.201
'[22:53:33.430 08/07/2079]',-23.443,-2.735,1.563,-0.781,-21.490,-7.424,2.344,1.172,4.298,-4.689,-12.112,-2.735,15.238,9.768,-15.238,-26.960,-5.079,1.172,-0.781,-1.563,45.714,4.298,-15.238,-254.750
'[22:53:33.434 08/07/2079]',-23.053,-12.112,-2.735,9.768,-35.165,1.563,1.563,3.126,26.178,-10.549,-15.629,-1.172,15.629,16.020,-16.801,-17.582,-7.033,-4.298,3.516,0.781,39.072,8.596,-16.801,-219.194
'[22:53:33.438 08/07/2079]',-8.205,-24.225,-3.516,1.954,-29.695,0.781,-7.424,1.954,32.039,-16.801,-22.662,-6.642,29.304,6.252,-26.569,-25.006,-10.940,-8.987,4.298,7.033,41.807,2.735,-26.569,-48.449
'[22:53:33.441 08/07/2079]',-3.126,-18.364,-12.503,8.596,-17.582,-1.563,-8.987,2.735,26.569,-17.192,-19.927,0.391,36.337,-3.126,-25.006,-18.755,-11.331,-7.814,13.284,5.079,50.403,-1.563,-25.006,212.943
'[22:53:33.445 08/07/2079]',-15.238,-14.847,-16.801,5.861,-12.894,-13.675,-8.596,-4.689,12.503,-15.238,-20.317,-0.781,21.099,8.596,-33.602,-21.880,-10.940,-9.377,17.582,10.940,52.357,1.563,-33.602,493.871
'[22:53:33.449 08/07/2079]',1.563,-21.490,-21.099,-2.344,1.172,-13.675,-14.457,-15.238,3.907,-8.596,-22.271,-14.066,26.178,15.238,-43.370,-39.463,-8.596,-13.675,21.880,25.006,58.608,0.000,-43.370,653.284
'[22:53:33.453 08/07/2079]',-3.907,-23.053,-23.834,-13.284,-8.987,-12.503,-12.503,-28.132,-2.344,-7.814,-17.582,-17.582,43.370,4.298,-50.794,-43.761,-11.331,-10.549,24.615,22.662,75.409,-6.642,-50.794,677.900
'[22:53:33.457 08/07/2079]',-7.814,-23.053,-26.178,-14.066,-12.112,-22.271,-9.768,-26.569,7.424,-18.755,-23.443,-22.271,-7.814,33.211,-40.244,-41.807,-12.112,-11.722,26.960,14.847,40.244,0.781,-40.244,576.313
'[22:53:33.461 08/07/2079]',-10.549,-23.053,-21.490,-19.927,-34.774,-6.252,-11.331,-21.880,-2.344,-8.205,-28.913,-18.755,1.954,20.317,-41.026,-40.635,-12.503,-11.331,22.271,21.099,30.476,-2.344,-41.026,451.673
'[22:53:33.465 08/07/2079]',-1.563,-14.457,-12.894,-26.960,-33.602,5.079,-7.424,-19.927,-7.424,-5.470,-20.708,-16.801,13.284,-3.126,-33.211,-29.304,-13.284,-4.689,13.675,18.755,21.099,-12.894,-33.211,336.801
'[22:53:33.469 08/07/2079]',-1.954,-14.457,-6.252,-3.516,-23.443,-1.954,0.391,-1.563,-11.722,-5.470,-8.205,8.596,-4.689,3.907,-19.145,2.344,-10.159,4.689,7.033,12.503,-0.391,0.781,-19.145,244.591
'[22:53:33.473 08/07/2079]',2.735,0.781,-3.907,-2.344,-5.079,0.391,2.344,0.391,-11.331,1.563,-7.033,7.424,0.781,7.033,-11.331,-6.642,-5.079,4.298,4.689,14.066,-4.689,8.987,-11.331,146.520
'[22:53:33.477 08/07/2079]',4.298,6.642,0.391,-8.596,5.079,-3.516,0.781,0.781,4.689,1.954,-4.689,1.563,20.317,7.814,-12.503,-12.503,-5.470,4.298,0.391,17.973,-1.563,8.596,-12.503,23.443
'[22:53:33.480 08/07/2079]',11.331,-0.781,1.563,0.781,8.596,-3.907,2.344,6.252,4.689,1.172,6.642,5.861,8.205,7.424,3.126,0.000,-7.424,9.377,-0.781,11.331,-12.894,5.079,3.126,-130.501
'[22:53:33.484 08/07/2079]',11.722,-6.642,2.735,11.331,1.954,-0.391,7.424,10.549,3.516,9.377,7.814,10.549,-3.126,19.145,10.940,4.689,-7.424,11.722,-1.954,6.642,-19.927,12.112,10.940,-272.723
'[22:53:33.488 08/07/2079]',-3.516,-2.344,3.907,8.205,-8.205,-1.954,0.391,17.192,4.298,1.563,0.000,17.973,4.298,6.252,5.079,7.424,-10.549,5.861,-3.126,10.940,-17.973,5.861,5.079,-374.310
'[22:53:33.492 08/07/2079]',-3.516,-1.172,7.033,5.079,-12.112,0.391,-4.298,24.225,-4.298,3.126,-3.907,23.053,3.907,-5.079,10.940,7.814,-9.377,4.298,-6.252,14.457,-20.708,-5.470,10.940,-422.369
'[22:53:33.496 08/07/2079]',-20.317,-5.861,10.940,5.470,-23.053,-4.689,1.172,17.582,-14.066,3.907,-5.470,20.708,-17.582,0.391,9.377,12.112,-11.722,1.172,-10.159,8.205,-29.304,5.079,9.377,-412.601
'[22:53:33.500 08/07/2079]',-14.066,4.298,1.563,1.563,-14.847,2.344,0.391,6.642,-3.126,-4.689,-9.377,16.020,-18.755,5.861,2.735,7.424,-10.549,-5.470,-0.781,7.424,-26.178,5.861,2.735,-362.198
'[22:53:33.504 08/07/2079]',0.391,1.563,-11.331,-3.516,-8.987,4.689,-9.377,1.172,-1.172,-7.033,-10.159,14.066,-18.755,3.907,5.079,3.907,-10.549,-7.424,12.112,9.768,-32.039,-6.642,5.079,-303.980
'[22:53:33.508 08/07/2079]',8.987,-1.172,-1.954,1.563,-5.861,13.284,-5.861,5.079,-5.079,2.735,-7.424,18.364,-5.861,-2.344,3.516,13.284,-8.596,-4.298,2.735,1.563,-26.178,-0.391,3.516,-248.889
'[22:53:33.512 08/07/2079]',6.252,2.735,-5.470,4.689,0.391,9.377,-5.861,3.907,-1.954,-6.252,-4.689,17.192,-8.596,3.907,-1.172,9.768,-8.205,-5.470,6.252,1.563,-30.085,7.033,-1.172,-209.035
'[22:53:33.516 08/07/2079]',12.894,1.172,0.781,1.954,14.066,4.298,-3.907,2.344,-3.907,0.000,3.126,12.112,1.563,-3.516,4.298,7.814,-5.079,-3.907,0.000,8.596,-22.662,-10.159,4.298,-172.308
'[22:53:33.520 08/07/2079]',10.159,-6.642,14.847,-1.954,7.424,4.689,4.298,-0.391,-26.178,19.536,5.079,15.238,14.847,-25.397,5.861,17.582,-3.516,-0.781,-14.066,5.861,-17.582,-9.768,5.861,-141.441
'[22:53:33.523 08/07/2079]',-20.317,2.735,15.238,1.563,-10.549,0.391,8.596,1.563,-16.410,0.781,-2.735,12.112,-44.151,6.252,12.503,16.410,-1.954,-0.391,-14.457,0.391,-34.774,-0.781,12.503,-119.951
'[22:53:33.527 08/07/2079]',-19.536,8.205,1.172,-6.252,-21.880,7.814,3.516,-5.079,-6.642,1.172,-9.377,7.033,-21.490,0.391,8.205,4.298,3.907,-5.079,-0.391,7.033,-29.304,-7.033,8.205,-95.726
'[22:53:33.531 08/07/2079]',-10.940,-1.172,9.768,-12.894,-19.536,12.112,1.563,-10.159,-14.847,2.735,-8.987,6.642,-26.178,-3.516,1.954,12.503,4.298,-5.079,-8.987,12.503,-27.741,-8.596,1.954,-75.409
'[22:53:33.535 08/07/2079]',-0.391,-5.470,14.457,5.470,-5.079,8.596,3.907,5.861,-6.642,-0.391,-7.424,3.516,-28.523,8.987,-5.079,13.675,10.159,-3.126,-13.675,3.907,-21.880,3.907,-5.079,-53.919
'[22:53:33.539 08/07/2079]',0.781,0.781,10.159,0.000,12.112,-1.172,-1.172,1.954,10.159,-5.861,-14.457,-6.252,-10.549,8.205,-13.284,-0.391,10.159,-11.331,-9.377,3.907,-11.722,8.596,-13.284,-42.979
'[22:53:33.543 08/07/2079]',-4.298,5.470,12.112,4.689,24.225,-7.814,-7.033,8.205,21.099,-3.126,-11.331,-7.033,-6.642,10.940,-4.689,0.000,11.722,-14.457,-11.331,8.205,-5.470,-0.391,-4.689,-39.463
'[22:53:33.547 08/07/2079]',-0.391,0.000,14.847,9.768,22.662,-7.033,0.000,8.987,24.615,0.391,-1.563,-3.907,-1.172,0.781,7.033,10.549,12.112,-7.424,-14.066,0.000,-14.066,2.344,7.033,-39.853
'[22:53:33.551 08/07/2079]',-9.377,-0.781,3.516,12.112,14.457,-6.642,-0.391,-1.172,28.523,-2.344,-3.516,-3.516,-1.954,0.391,8.205,10.940,9.768,-8.987,-2.735,-3.126,-11.722,6.252,8.205,-37.509
'[22:53:33.555 08/07/2079]',-7.424,-4.689,3.126,6.252,-3.516,4.689,-2.735,0.000,20.317,0.391,-3.907,1.954,2.735,-3.126,11.722,6.642,10.159,-5.079,-2.344,7.814,-8.596,-3.907,11.722,-33.993
'[22:53:33.559 08/07/2079]',-4.689,-8.987,10.159,9.768,-1.172,-1.563,-2.344,13.284,10.549,0.391,-3.126,7.424,1.563,-0.391,6.252,7.814,11.722,1.563,-9.377,9.377,-6.642,0.000,6.252,-23.834
'[22:53:33.563 08/07/2079]',13.284,-10.159,11.331,4.298,13.675,-0.781,2.735,3.907,10.159,-1.563,0.391,-1.172,-1.563,10.159,-1.954,1.954,10.159,5.079,-10.549,7.424,-2.735,4.298,-1.954,-17.192
'[22:53:33.566 08/07/2079]',15.238,-5.470,8.987,1.954,10.549,6.252,3.516,0.391,15.238,-10.940,8.596,0.000,-1.172,11.722,-3.516,6.252,6.252,5.079,-8.205,5.470,-7.424,8.987,-3.516,-12.112
'[22:53:33.570 08/07/2079]',13.284,-1.563,10.940,4.689,17.973,0.391,0.781,7.814,8.987,-2.344,10.549,3.907,-2.735,6.252,5.470,12.503,8.987,5.470,-10.159,6.252,-20.708,3.516,5.470,-17.582
'[22:53:33.574 08/07/2079]',14.457,-2.344,13.675,0.781,17.192,2.344,0.391,6.252,4.298,1.563,6.252,3.126,-3.907,3.126,4.298,12.112,6.252,2.735,-12.894,0.391,-17.582,5.861,4.298,-23.443
'[22:53:33.578 08/07/2079]',14.066,1.954,3.516,5.470,16.801,3.126,-1.172,7.033,-1.954,6.252,2.344,7.033,2.735,-0.781,-0.391,12.112,5.079,-2.735,-2.735,1.172,-11.722,3.907,-0.391,-30.476
'[22:53:33.582 08/07/2079]',1.954,-10.159,10.940,3.516,1.954,-1.954,-2.735,9.377,-1.172,7.424,0.391,5.861,5.079,-2.735,1.954,8.987,4.298,-5.861,-10.159,12.894,-7.424,-4.689,1.954,-28.523
'[22:53:33.586 08/07/2079]',3.516,-15.238,3.516,8.987,7.814,-13.284,-4.689,12.112,6.642,-3.126,-7.033,9.377,-3.126,0.781,-5.079,13.675,0.391,-8.987,-2.735,8.205,-5.470,-1.563,-5.079,-26.569
'[22:53:33.590 08/07/2079]',4.298,-14.457,-0.391,2.735,1.172,-7.424,-4.689,2.735,9.768,-9.377,-10.549,1.954,-2.344,0.391,-5.079,0.781,-2.735,-13.284,1.172,7.033,-6.252,2.344,-5.079,-24.615
'[22:53:33.594 08/07/2079]',-11.722,-15.629,-2.344,0.000,-16.020,-8.596,-10.549,5.470,9.377,-12.503,-16.020,1.954,11.722,-18.364,-1.954,-7.424,-4.689,-19.536,3.126,14.066,-13.284,-0.391,-1.954,-27.350
'[22:53:33.598 08/07/2079]',0.000,-19.927,-2.735,6.642,-4.298,-10.159,-12.503,11.722,6.252,-12.112,-17.192,8.987,10.549,-18.755,-8.596,3.126,-8.596,-17.582,3.516,14.457,-7.424,-1.954,-8.596,-25.397
'[22:53:33.602 08/07/2079]',2.735,-22.662,-8.596,8.205,-12.894,-2.735,-12.503,7.814,-5.079,-5.079,-19.145,4.298,8.987,-14.066,-17.973,-1.172,-12.112,-16.410,9.377,8.987,-0.391,4.689,-17.973,-24.615
'[22:53:33.605 08/07/2079]',-7.033,-15.238,-7.814,7.033,-12.503,-5.470,-13.284,9.768,-21.099,3.516,-17.192,5.079,48.059,-35.946,-33.993,-6.252,-11.722,-19.536,8.596,9.768,13.284,9.768,-33.993,-31.258
'[22:53:33.609 08/07/2079]',-12.894,-0.781,-7.424,8.596,-3.907,-6.252,-18.755,17.192,3.516,-17.582,-25.397,-2.735,-7.814,-1.172,-23.053,-8.987,-12.503,-23.443,8.205,10.549,0.781,1.954,-23.053,-48.059
'[22:53:33.613 08/07/2079]',-11.722,-0.781,-12.503,12.894,1.172,-8.205,-15.238,10.549,2.735,-9.768,-17.582,1.954,-7.424,-3.516,-16.801,5.861,-6.642,-17.973,13.284,5.861,-5.079,2.735,-16.801,-54.701
'[22:53:33.617 08/07/2079]',1.563,-11.331,-10.940,8.205,8.205,-7.814,-10.159,-3.126,1.954,-11.722,-7.033,1.563,-7.424,-4.689,-8.205,6.642,-4.298,-18.364,11.722,7.814,-9.768,1.563,-8.205,-46.105
'[22:53:33.621 08/07/2079]',-1.172,-14.457,-9.377,8.987,7.814,-14.457,-14.847,5.470,16.020,-14.847,-17.973,4.689,-8.596,-1.954,0.000,-0.391,-7.424,-19.145,10.159,10.549,-12.503,-1.563,0.000,-44.933
'[22:53:33.625 08/07/2079]',5.470,-18.364,-8.596,3.516,10.159,-19.145,-13.675,2.735,9.768,-5.861,-21.490,8.987,-1.563,3.516,-8.205,-1.172,-10.159,-13.675,9.377,10.159,-3.907,-2.735,-8.205,-31.648
'[22:53:33.629 08/07/2079]',-7.814,-13.284,-6.252,0.391,-3.126,-10.159,-4.298,-8.205,7.814,-6.252,-16.410,-1.172,17.973,-4.298,-17.973,-10.549,-15.238,-10.159,7.033,2.735,8.205,7.033,-17.973,-35.165
'[22:53:33.633 08/07/2079]',-10.549,-1.563,-0.391,4.298,-7.424,9.377,-1.563,-7.814,17.192,-8.205,-12.112,0.391,23.834,-1.954,-12.894,-10.940,-13.284,-9.768,1.172,0.391,16.410,7.814,-12.894,-14.847
'[22:53:33.637 08/07/2079]',-7.033,0.391,-3.516,7.814,5.079,4.298,-7.033,-5.861,21.880,-11.722,-16.020,1.172,19.145,-3.907,-13.284,-5.861,-11.331,-8.596,4.298,-0.781,22.662,1.563,-13.284,-7.424
'[22:53:33.641 08/07/2079]',-10.940,-3.126,-8.596,2.344,2.344,0.000,-10.940,-11.331,8.596,-8.987,-15.238,-3.516,13.284,-8.596,-11.722,-11.722,-9.377,-11.722,9.377,1.172,14.066,3.516,-11.722,23.834
'[22:53:33.645 08/07/2079]',-7.814,0.391,-17.973,1.563,7.814,-2.344,-17.582,-12.112,7.033,-8.205,-21.099,-3.516,11.331,-13.284,-8.596,-14.847,-6.642,-16.020,18.755,2.344,8.596,2.344,-8.596,39.853
'[22:53:33.648 08/07/2079]',-2.344,-5.470,-6.642,-4.298,10.549,-8.205,-17.192,-5.470,17.582,-3.907,-18.755,-1.563,19.927,-8.596,-10.159,-7.814,-4.689,-15.238,7.424,7.814,1.563,0.781,-10.159,48.059
'[22:53:33.652 08/07/2079]',0.391,-15.629,-3.907,-0.781,7.814,-12.503,-14.066,-1.172,9.377,4.298,-14.066,-6.642,19.145,-4.689,-11.331,-7.814,-4.689,-11.331,4.689,3.907,0.000,5.861,-11.331,38.291
'[22:53:33.656 08/07/2079]',3.516,-8.987,-1.563,-2.344,-3.126,5.861,-5.079,-7.033,10.159,14.457,-7.424,-3.907,17.192,5.470,-0.391,-8.205,0.391,-5.470,2.344,-1.954,0.781,16.801,-0.391,46.105
'[22:53:33.660 08/07/2079]',-3.126,-3.126,8.987,-2.344,-8.205,9.768,-7.424,5.470,20.708,12.894,-7.424,-5.079,16.801,14.066,0.781,-10.159,1.954,-1.563,-8.205,3.126,0.000,14.847,0.781,49.231
'[22:53:33.664 08/07/2079]',0.391,-9.377,1.563,-2.735,-3.516,5.861,-8.596,-3.516,4.689,16.410,3.126,-6.252,9.768,14.457,0.000,-4.689,-0.391,3.126,-0.781,7.424,0.391,10.940,0.000,37.900
'[22:53:33.668 08/07/2079]',7.814,-3.126,-0.391,3.516,5.079,12.503,-7.424,-1.954,-6.252,19.536,8.987,2.344,13.675,10.549,0.391,-0.781,0.391,8.987,1.172,0.391,4.689,17.192,0.391,19.145
'[22:53:33.672 08/07/2079]',-4.689,1.172,-6.252,3.907,5.079,1.172,-17.582,4.689,0.391,4.689,2.735,0.391,14.457,7.033,-0.781,-12.894,-3.516,0.391,7.033,2.735,5.861,15.238,-0.781,10.159
'[22:53:33.676 08/07/2079]',-1.563,5.079,0.391,-6.252,7.033,-0.781,-17.192,8.987,-2.735,10.940,3.126,-1.172,19.927,3.907,3.516,-18.364,-3.126,-3.516,0.391,5.861,-1.172,7.424,3.516,21.099
'[22:53:33.680 08/07/2079]',5.079,-7.033,-3.516,5.079,0.391,1.563,-10.159,6.642,-8.596,16.020,13.675,-4.298,33.993,-11.331,7.814,-13.675,-2.735,-1.172,4.298,-1.172,0.391,11.722,7.814,28.132
'[22:53:33.684 08/07/2079]',17.192,-6.252,0.391,7.424,11.331,3.516,-1.954,4.298,20.708,4.298,10.549,-7.424,-1.954,16.801,19.145,-5.470,-3.516,-0.391,0.391,-3.126,-6.642,12.112,19.145,42.979
'[22:53:33.688 08/07/2079]',12.894,-13.284,4.689,6.252,0.000,3.907,-4.689,11.722,16.020,10.549,3.907,-2.344,8.596,5.470,14.457,-0.391,-3.907,0.000,-3.907,8.205,-11.722,2.735,14.457,37.900
'[22:53:33.691 08/07/2079]',13.675,-17.582,6.642,4.298,0.000,7.033,-7.814,8.987,8.987,14.457,0.391,0.391,10.549,8.205,7.814,-1.954,-3.126,2.344,-5.861,7.424,3.126,4.298,7.814,36.728
'[22:53:33.695 08/07/2079]',14.847,-9.768,4.298,5.861,3.126,11.722,-8.205,8.987,12.894,11.722,-7.814,-0.391,8.205,19.536,0.000,-10.940,-5.079,2.344,-3.516,9.768,8.596,10.549,0.000,32.039
'[22:53:33.699 08/07/2079]',1.563,-11.331,7.814,-5.861,-3.516,4.689,-9.768,2.735,9.768,9.377,-8.987,-4.298,7.814,22.271,-5.079,-18.755,-5.861,-3.516,-7.033,13.675,5.861,6.642,-5.079,46.496
'[22:53:33.703 08/07/2079]',-5.079,-10.549,4.689,4.689,-13.284,6.642,-8.987,10.940,3.907,2.344,-6.642,5.861,20.317,0.781,-5.079,-9.768,-6.252,0.000,-3.907,8.205,10.549,6.252,-5.079,56.654
'[22:53:33.707 08/07/2079]',4.298,-8.987,-1.563,4.298,-1.954,3.126,-10.549,7.814,7.033,-3.516,-11.722,3.516,11.331,6.252,-7.424,-14.847,-7.033,0.781,2.344,5.079,7.814,11.331,-7.424,58.999
'[22:53:33.711 08/07/2079]',-10.549,-10.159,-0.781,-3.126,-5.470,-12.503,-9.377,2.735,5.470,-10.159,-12.894,4.689,7.033,-1.172,-2.735,-14.847,-12.112,-3.516,1.563,10.159,5.470,1.172,-2.735,53.919
'[22:53:33.715 08/07/2079]',-3.907,-22.662,-3.126,3.907,-20.708,0.391,-12.112,6.642,-11.331,-4.689,-8.596,12.112,8.987,-15.238,-3.516,-1.954,-12.894,-3.126,3.907,16.020,10.549,-11.722,-3.516,51.966
'[22:53:33.719 08/07/2079]',1.954,-28.523,-1.172,1.954,-12.503,1.172,-11.331,-2.344,-3.907,0.781,-14.066,11.722,3.516,-6.642,-5.079,4.298,-12.503,-2.735,1.954,15.238,6.252,-4.298,-5.079,46.496
'[22:53:33.723 08/07/2079]',-6.252,-16.020,3.126,1.172,-4.298,-3.126,-6.252,-2.735,1.172,-5.470,-14.457,4.298,7.033,-11.722,-3.516,-4.689,-13.675,-7.424,-2.344,8.596,5.470,-1.954,-3.516,38.681
'[22:53:33.727 08/07/2079]',-14.457,-2.735,17.582,-10.549,-1.954,1.563,-2.735,-5.861,-0.781,-8.987,-14.457,0.000,0.000,-13.284,-6.642,-2.735,-8.205,-7.814,-16.801,7.814,5.079,-6.642,-6.642,30.867
'[22:53:33.730 08/07/2079]',-13.284,-1.563,14.457,2.344,-0.391,4.689,-4.298,2.735,0.391,-16.410,-7.814,3.907,-12.112,-9.377,-4.298,7.033,-3.907,-2.735,-13.675,6.252,-2.344,-5.470,-4.298,22.271
'[22:53:33.734 08/07/2079]',-12.894,0.391,11.722,-0.781,3.907,0.781,1.563,-7.814,-1.172,-23.053,-4.298,-1.563,-14.847,-13.675,-1.172,0.391,-5.470,-1.954,-10.940,-4.689,1.563,0.000,-1.172,17.582
'[22:53:33.738 08/07/2079]',-24.615,-0.391,14.847,-7.814,-16.020,6.252,-3.126,-3.907,-17.192,-15.629,-8.987,-5.470,-7.814,-16.801,-9.768,-12.112,-3.907,-6.642,-14.066,3.516,10.159,-7.033,-9.768,8.987
'[22:53:33.742 08/07/2079]',-22.662,1.954,4.298,-0.391,-22.271,12.112,-9.768,4.298,-8.205,-13.675,-10.549,-1.172,-0.781,-15.238,-3.907,-12.894,-3.126,-7.424,-3.516,7.424,5.079,-11.331,-3.907,10.549
'[22:53:33.746 08/07/2079]',-8.987,-1.954,8.205,1.172,-7.033,7.424,-0.781,-0.781,7.424,-1.172,-3.126,3.516,14.847,-7.033,3.907,-5.079,-4.298,-1.172,-7.424,0.391,2.344,0.781,3.907,12.503
'[22:53:33.750 08/07/2079]',-4.689,-7.424,9.377,1.563,-1.563,3.516,0.391,-2.735,-1.954,6.252,-1.563,3.126,41.026,-17.582,-10.940,-6.642,-7.033,-2.344,-8.596,4.689,19.145,0.000,-10.940,17.973
'[22:53:33.754 08/07/2079]',5.079,3.126,0.391,0.391,10.159,3.126,-5.470,2.344,23.053,-7.033,-7.033,15.629,1.563,19.927,-1.563,3.516,-5.861,-0.781,0.391,4.689,-1.954,0.391,-1.563,21.490
'[22:53:33.758 08/07/2079]',1.563,-2.735,7.033,2.735,14.847,-11.722,-4.689,10.549,18.364,-5.079,-6.252,18.755,3.126,11.722,7.814,2.344,-2.735,1.563,-6.252,0.000,-4.298,7.033,7.814,15.629
'[22:53:33.762 08/07/2079]',-3.516,-3.516,-0.391,2.344,-10.940,2.344,0.000,3.126,5.470,-7.424,-14.066,10.549,-1.563,4.298,-3.907,-3.516,-4.298,-1.563,1.172,0.391,2.344,7.814,-3.907,8.987
'[22:53:33.766 08/07/2079]',3.126,-3.126,4.298,-3.126,-10.159,8.987,1.954,1.172,7.033,-4.689,-6.642,5.470,-8.205,12.503,4.298,-7.424,0.391,-1.954,-3.516,3.516,-0.781,5.470,4.298,7.814
'[22:53:33.770 08/07/2079]',-8.987,-5.861,13.284,3.126,-26.960,14.457,9.377,5.470,-2.735,2.735,0.391,9.377,-3.516,-1.563,16.801,-0.391,1.563,5.079,-12.503,3.126,3.126,0.781,16.801,7.814
'[22:53:33.773 08/07/2079]',-15.238,-0.781,15.629,3.907,-31.648,14.847,14.457,6.252,-6.252,10.940,2.344,7.424,-5.470,10.159,10.159,0.391,0.000,10.549,-14.847,-5.079,14.457,5.470,10.159,10.940
'[22:53:33.777 08/07/2079]',-13.675,8.987,15.629,0.000,-17.973,8.205,11.331,9.768,1.172,5.861,8.205,6.252,6.642,7.033,12.894,-4.298,-0.391,12.112,-14.847,0.781,6.642,4.689,12.894,9.768
'[22:53:33.781 08/07/2079]',-18.364,2.735,27.350,2.735,-24.225,9.768,12.503,16.410,8.596,0.781,12.112,16.801,7.424,13.284,9.377,8.205,0.000,16.020,-26.569,6.252,8.987,6.252,9.377,8.205
'[22:53:33.785 08/07/2079]',7.033,-9.377,20.317,3.126,-8.205,6.642,10.549,12.894,10.940,0.000,14.066,12.112,10.940,17.192,2.735,5.470,-1.954,14.457,-19.536,1.172,1.172,19.145,2.735,2.735
'[22:53:33.789 08/07/2079]',9.768,-4.689,16.410,0.391,-2.735,5.079,7.814,12.503,12.112,-3.516,8.596,7.033,16.801,15.629,-1.563,-6.252,-1.954,6.642,-15.629,2.735,5.470,17.192,-1.563,-7.033
'[22:53:33.793 08/07/2079]',2.344,2.735,14.847,4.298,-2.344,2.735,5.861,19.145,9.377,-3.907,12.503,17.582,7.033,16.801,9.768,1.172,-0.391,5.861,-14.066,5.079,0.000,9.377,9.768,-12.503
'[22:53:33.797 08/07/2079]',-0.391,0.000,11.331,6.642,-14.457,9.377,6.642,15.238,-7.033,3.126,20.708,19.536,3.516,2.735,16.410,13.284,-1.563,12.894,-10.549,4.298,1.954,-2.344,16.410,-9.377
'[22:53:33.801 08/07/2079]',-1.172,0.781,8.596,21.099,-10.549,5.861,11.722,23.443,-3.516,1.172,25.006,31.648,6.252,4.298,11.722,31.258,0.000,17.973,-7.814,1.563,1.172,0.000,11.722,-1.172
'[22:53:33.805 08/07/2079]',-5.861,0.781,5.861,19.145,-14.847,0.391,3.516,31.258,-6.642,0.391,16.410,32.039,-7.814,10.159,15.629,24.615,0.000,14.066,-5.079,8.205,-6.642,-4.298,15.629,0.391
'[22:53:33.809 08/07/2079]',-11.722,-2.735,14.847,8.596,-19.536,2.735,-1.172,26.960,-8.205,-2.735,8.205,25.788,-13.675,13.675,4.298,18.755,-1.954,9.768,-14.066,15.629,-8.205,1.563,4.298,0.000
'[22:53:33.813 08/07/2079]',-12.112,-1.954,12.503,5.079,-14.847,0.781,0.781,17.192,-15.238,1.954,7.424,11.722,-2.344,-2.344,5.079,6.252,0.000,4.298,-11.722,9.768,-5.861,1.954,5.079,-4.298
'[22:53:33.816 08/07/2079]',-8.596,-8.205,16.410,2.344,-5.079,-7.424,1.563,13.675,-11.331,0.391,9.768,8.987,-3.126,-5.470,8.596,8.987,-3.907,-1.563,-15.629,2.735,-5.079,2.735,8.596,-5.861
'[22:53:33.820 08/07/2079]',-2.344,-9.768,10.159,6.252,-4.298,-1.563,-4.689,15.629,-23.443,0.391,3.907,14.847,1.954,-24.225,4.298,13.675,-6.252,-3.516,-9.377,6.252,0.781,-3.126,4.298,-2.735
'[22:53:33.824 08/07/2079]',-1.954,-13.284,6.642,3.126,-17.192,4.689,-5.861,13.284,-35.946,10.549,2.344,14.066,48.449,-57.827,-8.987,10.159,-3.126,-1.172,-5.861,1.172,16.020,-3.126,-8.987,4.298
'[22:53:33.828 08/07/2079]',3.907,-20.317,5.470,2.735,-16.410,3.907,-4.689,9.377,6.252,-11.722,-8.987,7.424,1.172,-8.205,-8.596,8.987,-7.424,-6.252,-4.689,0.391,8.205,-1.954,-8.596,12.503
'[22:53:33.832 08/07/2079]',-1.172,-14.066,-1.954,0.781,-15.629,5.861,-5.861,-0.391,7.424,-8.596,-9.377,2.344,3.516,-7.814,-8.596,4.689,-4.298,-7.033,2.735,10.159,1.172,-7.033,-8.596,18.364
'[22:53:33.836 08/07/2079]',-7.424,-9.768,-3.907,-5.861,-14.457,3.907,-5.470,-11.722,12.112,-9.768,-10.159,-0.391,6.642,-8.987,-10.159,5.079,-1.172,-3.907,4.689,5.861,0.781,-7.424,-10.159,14.847
'[22:53:33.840 08/07/2079]',-5.861,-5.079,1.954,-7.033,5.079,-10.159,-0.391,-9.768,20.317,-16.410,-12.112,-8.596,-4.689,0.391,-11.331,0.391,1.172,-5.470,-1.172,-0.391,-5.079,-4.298,-11.331,9.768
'[22:53:33.844 08/07/2079]',3.516,0.000,0.391,-9.377,9.768,-4.298,-1.172,-9.768,2.735,-10.549,-10.549,-6.252,-1.954,-8.596,-7.814,-4.298,1.563,-4.298,0.391,6.252,-11.331,-1.563,-7.814,1.172
'[22:53:33.848 08/07/2079]',21.490,-4.689,3.907,-13.284,12.503,4.689,0.391,-10.549,-1.172,-10.159,-6.642,-2.735,11.331,-21.880,-12.894,3.126,2.344,0.391,-3.126,7.424,-7.424,-5.079,-12.894,7.814
'[22:53:33.852 08/07/2079]',20.317,-14.457,3.907,-7.033,7.814,1.172,-0.391,-5.861,-5.861,-18.364,-9.768,-5.079,-4.298,-19.145,-17.582,3.126,-1.172,-2.735,-3.126,1.954,-1.954,-2.735,-17.582,9.768
'[22:53:33.855 08/07/2079]',13.284,-7.424,8.205,-8.987,8.596,-2.344,5.079,-5.079,0.781,-10.159,-8.987,-6.642,-13.675,-5.079,-3.907,-2.344,-3.516,-3.907,-7.424,2.735,-6.252,-3.126,-3.907,16.801
'[22:53:33.859 08/07/2079]',-1.172,-1.954,2.735,-9.768,2.344,-10.549,-1.954,0.391,10.940,-13.675,-14.847,3.126,-3.126,-9.377,-4.298,3.516,-4.689,-7.424,-1.954,1.954,-0.391,-10.940,-4.298,14.066
'[22:53:33.863 08/07/2079]',0.391,-5.079,-3.126,-1.172,13.675,-18.755,-3.907,1.563,11.722,-16.410,-14.457,0.391,-4.689,-11.722,-2.735,1.172,-5.470,-8.596,3.907,0.391,-1.172,-8.987,-2.735,12.894
'[22:53:33.867 08/07/2079]',16.410,-16.410,-3.516,1.954,17.192,-15.629,0.000,-0.781,5.079,-14.847,-10.159,-1.954,-0.391,-10.549,-7.424,-1.563,-5.079,-10.940,4.298,-0.391,1.954,-0.781,-7.424,16.410
'[22:53:33.871 08/07/2079]',5.470,-14.847,-9.377,-5.470,-11.722,-5.079,-7.033,0.391,0.391,-17.192,-21.880,2.735,4.689,-15.238,-12.112,-11.331,-8.596,-15.629,10.159,7.424,-4.298,0.391,-12.112,14.066
'[22:53:33.875 08/07/2079]',2.735,-18.755,-7.424,-13.675,-19.536,-4.689,-11.331,-0.781,-0.781,-21.880,-25.397,-7.814,-12.894,-4.689,-14.457,-23.443,-12.112,-19.145,8.205,13.284,-11.331,0.391,-14.457,19.536
'[22:53:33.879 08/07/2079]',-8.205,-10.159,0.000,-14.457,-19.927,-4.689,-0.781,-5.861,-1.954,-17.973,-21.099,-6.252,-16.801,1.172,-12.112,-18.364,-14.847,-16.801,0.781,4.298,-5.079,6.252,-12.112,14.457
'[22:53:33.883 08/07/2079]',-8.987,-2.735,11.331,-19.927,-11.722,-5.470,4.689,-7.424,1.172,-8.205,-11.722,5.470,3.516,-8.987,-5.470,-0.781,-12.112,-13.675,-10.549,5.861,-7.033,0.391,-5.470,19.536
'[22:53:33.887 08/07/2079]',-10.549,-2.344,4.298,-1.172,1.954,-15.629,-1.172,5.861,0.391,-6.252,-12.894,15.238,-1.954,-13.675,-1.954,14.457,-8.596,-12.894,-3.516,1.954,-3.907,-5.079,-1.954,12.894
'[22:53:33.891 08/07/2079]',-6.642,6.252,10.940,12.894,11.331,-8.987,3.907,18.755,-0.781,1.172,-10.549,23.443,8.987,-19.927,0.391,24.615,-1.172,-6.252,-10.159,-7.814,10.940,-2.735,0.391,19.145
'[22:53:33.895 08/07/2079]',4.689,-2.344,7.033,15.238,6.252,-2.344,2.735,19.145,-6.252,10.549,-7.033,20.317,52.747,-47.668,-3.907,17.973,2.735,-4.689,-6.252,-1.954,13.284,-1.954,-3.907,13.675
'[22:53:33.898 08/07/2079]',-4.689,-8.596,6.642,14.066,-1.954,-3.907,-0.781,15.238,8.987,-9.768,-8.596,7.424,-11.331,3.516,-4.298,11.722,-1.172,-8.987,-5.861,7.424,0.391,1.172,-4.298,18.364
'[22:53:33.902 08/07/2079]',7.033,-15.238,12.503,12.503,0.781,3.126,3.126,10.159,7.033,-5.470,-1.172,1.172,-7.424,1.563,2.344,5.079,-0.781,-3.516,-11.722,2.735,3.516,5.079,2.344,10.159
'[22:53:33.906 08/07/2079]',-4.689,-13.675,7.424,8.205,-1.954,-1.172,1.563,-0.391,8.596,-7.814,-1.172,-9.768,-12.112,4.298,5.470,-7.424,-1.563,-3.126,-6.642,3.907,-0.391,10.159,5.470,12.112
'[22:53:33.910 08/07/2079]',-10.940,-1.954,8.596,0.781,5.079,-8.596,1.563,-0.391,7.424,-0.781,0.781,-12.894,-21.099,23.834,2.735,-10.159,-0.781,-2.344,-7.814,4.298,-0.781,10.159,2.735,1.954
'[22:53:33.914 08/07/2079]',2.735,-5.861,13.284,9.377,15.629,-2.735,7.033,0.391,10.159,12.112,7.814,-2.735,-3.907,10.159,12.112,10.159,4.298,4.298,-12.503,2.735,2.344,5.470,12.112,6.642
'[22:53:33.918 08/07/2079]',3.516,-1.954,8.987,12.894,11.722,2.344,5.861,4.298,10.159,12.894,6.252,1.172,7.033,4.298,2.735,17.973,4.298,6.642,-8.205,-3.516,3.126,12.112,2.735,4.298
'[22:53:33.922 08/07/2079]',1.172,10.940,4.298,7.033,17.973,-4.298,2.735,6.642,7.033,7.033,-0.781,3.516,0.391,8.596,-2.735,12.112,3.126,-0.391,-3.516,-5.079,0.391,10.159,-2.735,7.814
'[22:53:33.926 08/07/2079]',5.470,19.145,6.252,3.126,30.476,-3.126,-0.781,8.205,12.894,4.689,-2.735,-0.391,-6.252,14.066,3.516,4.689,8.596,-3.126,-5.470,-1.172,-7.033,8.205,3.516,9.377
'[22:53:33.930 08/07/2079]',-10.940,11.722,6.642,6.642,5.079,3.907,1.563,3.516,0.781,1.172,3.907,0.391,-10.940,1.172,9.377,7.424,4.298,0.391,-5.861,-4.298,-10.940,7.424,9.377,7.814
'[22:53:33.934 08/07/2079]',-3.907,1.172,6.642,5.861,13.675,-4.689,5.470,-4.298,-0.781,1.172,5.470,0.000,-6.642,1.954,4.689,5.861,5.079,-1.172,-5.861,-4.689,-1.172,3.907,4.689,16.801
'[22:53:33.938 08/07/2079]',-2.735,-2.344,10.159,0.391,4.298,0.391,4.298,-4.298,6.642,5.079,3.516,1.954,-1.172,8.987,11.722,-0.781,6.642,-1.563,-9.377,3.516,-8.596,0.000,11.722,12.112
'[22:53:33.941 08/07/2079]',-3.126,-2.344,9.768,3.516,-1.954,6.642,3.126,1.172,3.907,0.391,-1.172,12.112,1.563,0.391,6.252,6.252,3.907,0.391,-8.987,7.033,-2.344,-8.205,6.252,21.880
'[22:53:33.945 08/07/2079]',6.252,-1.172,5.861,0.000,11.331,-0.391,3.516,-3.516,-3.907,-5.079,-5.861,10.159,-8.987,5.470,-8.205,7.424,1.172,-3.516,-5.079,0.781,-4.298,-2.735,-8.205,10.549
'[22:53:33.949 08/07/2079]',10.159,5.470,7.424,-3.907,21.099,1.954,5.470,-8.987,-0.781,-3.516,-3.126,7.814,-18.364,18.755,-6.642,6.252,1.563,-7.033,-6.642,1.954,-12.112,-0.391,-6.642,20.317
'[22:53:33.953 08/07/2079]',5.861,11.722,5.861,-3.516,18.755,8.987,0.000,-7.033,0.781,-3.907,-6.252,6.252,-11.331,11.722,-4.689,2.344,1.172,-8.205,-5.079,0.781,-17.973,2.344,-4.689,12.503
'[22:53:33.957 08/07/2079]',-9.377,5.079,8.205,0.391,10.159,-0.391,-4.298,-0.391,-9.377,-5.079,-11.331,10.549,-14.847,-0.391,-0.781,1.954,-0.781,-8.205,-7.424,-4.689,-10.940,4.298,-0.781,27.350
'[22:53:33.961 08/07/2079]',1.954,2.344,8.205,-3.126,11.722,1.563,-4.298,0.781,-5.470,-3.126,-8.987,16.801,-6.252,5.470,0.391,0.391,-1.172,-7.814,-7.424,2.344,-10.159,1.954,0.391,22.271
'[22:53:33.965 08/07/2079]',0.000,1.563,10.940,-3.516,-1.563,11.331,-4.298,4.298,-2.735,-0.781,-6.642,22.271,-7.033,3.516,11.331,3.516,0.000,-3.126,-10.159,10.159,-11.331,-6.642,11.331,30.085
'[22:53:33.969 08/07/2079]',4.298,0.391,5.079,2.344,-2.735,14.847,-4.298,5.079,-9.377,1.954,-2.735,26.569,-18.364,7.033,14.847,12.894,1.954,2.735,-4.298,4.689,-15.238,-5.470,14.847,19.145
'[22:53:33.973 08/07/2079]',-1.954,3.516,5.079,-6.252,-8.596,12.112,-1.563,-1.172,-10.549,6.252,-6.252,16.020,-7.814,3.907,6.252,3.126,1.172,2.735,-4.298,2.735,-16.410,1.954,6.252,29.304
'[22:53:33.977 08/07/2079]',-7.424,8.205,13.284,-14.066,-16.410,19.145,3.126,-5.861,-3.126,11.722,-5.861,5.470,2.735,4.689,4.298,-2.735,7.033,2.735,-12.503,8.987,-17.973,3.126,4.298,30.476
'[22:53:33.980 08/07/2079]',-10.159,5.861,7.033,-4.689,-17.582,18.755,-1.172,-0.781,-5.470,6.642,-3.516,3.516,8.987,-4.298,-1.172,-1.172,6.642,-0.391,-6.252,10.940,-12.503,3.516,-1.172,36.728
'[22:53:33.984 08/07/2079]',-1.954,-6.642,14.066,-7.033,-12.503,12.112,3.907,-5.079,-19.145,10.159,1.172,-1.172,32.821,-27.350,-8.987,-4.689,4.298,-1.172,-13.284,5.470,6.252,3.516,-8.987,32.430
'[22:53:33.988 08/07/2079]',8.987,-9.768,11.331,-0.781,0.391,5.861,1.954,2.344,-6.642,1.563,-4.298,6.642,-6.642,12.894,-0.391,-8.205,6.252,-10.159,-10.549,12.112,2.735,6.252,-0.391,28.523
'[22:53:33.992 08/07/2079]',-1.954,2.344,-1.563,-3.907,-8.987,10.159,-6.642,0.781,-7.814,1.172,-7.424,4.689,-9.377,9.377,7.424,-17.973,7.033,-14.457,2.344,7.033,6.252,-1.563,7.424,28.913
'[22:53:33.996 08/07/2079]',-5.079,-2.344,-3.126,-1.954,-10.940,6.252,-2.735,-5.079,-17.192,10.159,-9.768,0.391,-20.317,14.847,5.079,-16.410,6.642,-13.284,3.907,1.954,8.987,-0.391,5.079,21.880
'[22:53:34.000 08/07/2079]',-3.126,-1.954,-1.172,-7.814,-7.814,6.642,1.563,-14.847,-13.284,10.549,-6.642,0.391,-22.271,17.973,8.596,-14.066,6.252,-14.457,1.954,-1.954,-0.781,10.159,8.596,22.271
'[22:53:34.004 08/07/2079]',-8.987,-7.424,2.344,-1.563,-4.689,-3.907,-3.126,-1.954,-10.940,3.907,-12.894,5.079,-6.642,7.814,-1.172,-14.066,-0.391,-15.238,-1.563,4.298,14.457,3.126,-1.172,19.536
'[22:53:34.008 08/07/2079]',-9.768,-5.470,13.284,-6.252,14.847,-20.708,-1.172,-0.391,-3.126,-1.954,-14.066,7.424,1.563,3.126,-3.516,-13.284,-8.205,-11.722,-12.503,6.642,8.205,11.722,-3.516,25.788
'[22:53:34.012 08/07/2079]',-0.781,-8.987,14.847,0.000,26.960,-25.006,4.689,-1.172,6.252,-5.861,-12.112,9.768,7.424,0.000,4.298,-12.894,-12.503,-8.205,-14.066,7.033,11.331,10.549,4.298,23.053
'[22:53:34.016 08/07/2079]',-3.907,-13.284,22.662,-6.642,26.960,-26.178,5.861,-7.424,10.159,-13.284,-10.159,4.689,6.252,6.642,-6.642,-15.238,-14.457,-8.987,-21.880,17.582,24.225,4.298,-6.642,19.536
'[22:53:34.020 08/07/2079]',-4.298,-12.112,13.284,-3.126,9.768,-11.331,2.735,-7.424,3.907,-9.377,-6.252,5.079,-3.516,6.252,3.126,-12.894,-11.722,-5.470,-12.503,14.457,10.159,3.126,3.126,9.768
'[22:53:34.023 08/07/2079]',7.424,-7.033,8.596,-8.987,0.391,8.987,1.563,-10.940,0.391,-6.252,-7.424,0.391,-5.079,7.814,-0.391,-16.020,-7.814,-3.126,-7.814,7.424,5.470,4.689,-0.391,8.596
'[22:53:34.027 08/07/2079]',-3.126,-13.284,2.344,-4.689,-2.735,-3.126,-6.252,-5.861,-12.894,-9.377,-12.112,1.172,-17.192,8.596,-7.814,-17.582,-13.284,-9.768,-1.563,7.033,20.317,-3.516,-7.814,7.424
'[22:53:34.031 08/07/2079]',-3.126,-11.331,4.689,2.735,5.079,-7.814,-7.814,5.470,-10.940,-12.503,-8.987,20.317,-9.377,-2.344,-5.861,5.470,-15.238,-7.814,-3.907,8.596,3.907,1.954,-5.861,4.689
'[22:53:34.035 08/07/2079]',3.516,-10.159,1.954,0.391,23.443,-14.847,-8.987,-1.172,-7.424,-10.940,-13.284,15.629,-7.814,-2.735,-7.814,3.126,-17.582,-7.033,-1.172,0.781,11.722,0.781,-7.814,4.689
'[22:53:34.039 08/07/2079]',-12.894,-2.344,0.000,-4.298,11.722,-17.582,-10.940,-3.126,-4.689,-16.410,-19.536,15.629,-20.708,6.642,-6.642,-4.298,-16.410,-11.722,0.781,0.391,6.642,6.252,-6.642,7.814
'[22:53:34.043 08/07/2079]',-4.689,0.000,5.470,-14.847,6.252,-4.298,-7.814,-8.205,-0.391,-16.801,-19.927,10.940,-10.159,-0.781,-9.768,-5.079,-14.066,-12.503,-4.689,2.735,5.861,0.391,-9.768,16.410
'[22:53:34.047 08/07/2079]',21.880,-3.516,7.814,-14.066,9.768,14.066,-0.781,-11.331,5.079,-1.563,-5.079,13.284,3.516,7.814,-0.781,1.172,-7.033,1.172,-7.033,-1.954,-3.516,4.689,-0.781,24.615
'[22:53:34.051 08/07/2079]',17.192,-6.642,2.735,-7.033,1.172,17.582,1.954,-14.847,11.722,-5.470,-4.689,18.364,5.861,3.907,-7.033,17.192,-4.689,4.689,-1.954,-8.987,0.391,1.172,-7.033,39.072
'[22:53:34.055 08/07/2079]',9.377,0.000,10.159,-2.344,8.205,12.112,1.954,-5.470,0.781,5.470,-10.159,21.490,12.503,0.781,-8.596,13.284,-4.689,4.298,-9.377,-7.814,7.033,1.172,-8.596,61.734
'[22:53:34.059 08/07/2079]',-3.907,8.596,5.470,-4.689,5.470,7.424,-4.298,-2.344,5.861,13.284,-14.066,19.145,34.383,-1.954,-13.284,5.470,-3.126,5.079,-4.689,-7.814,16.410,-1.954,-13.284,78.144
'[22:53:34.063 08/07/2079]',-19.536,7.814,-1.172,-0.781,-3.907,8.205,-5.079,-12.894,19.927,1.172,-19.145,7.424,-7.814,20.708,-4.689,1.954,-2.344,0.781,1.954,-12.112,3.907,7.033,-4.689,78.535
'[22:53:34.066 08/07/2079]',-3.907,2.344,1.172,-6.252,4.689,10.940,-3.516,-18.755,17.192,0.391,-15.238,0.000,4.689,19.145,-9.768,-11.331,-2.735,-6.252,-0.391,-9.768,17.192,7.814,-9.768,60.171
'[22:53:34.070 08/07/2079]',7.814,0.391,-2.344,-5.861,9.377,14.847,-10.940,-12.894,17.192,2.344,-15.238,2.735,13.284,16.801,-12.503,-10.159,2.735,-8.596,3.126,-3.126,13.675,7.814,-12.503,35.165
'[22:53:34.074 08/07/2079]',19.927,-3.516,-4.298,-3.516,19.536,10.940,-12.503,-10.159,10.940,3.516,-13.284,8.205,0.391,19.145,-5.861,-3.907,4.689,-5.470,5.079,-2.344,2.735,9.377,-5.861,16.801
'[22:53:34.078 08/07/2079]',19.927,0.781,-3.126,-5.470,30.476,1.954,-10.940,-8.987,0.391,4.689,-8.596,8.205,9.768,11.331,-13.284,-2.344,4.298,-5.470,3.907,0.000,10.159,3.516,-13.284,5.470
'[22:53:34.082 08/07/2079]',32.430,2.344,-1.563,-15.238,39.072,3.126,-9.377,-15.238,0.000,16.410,-6.642,-1.954,18.755,11.331,-13.675,-9.768,5.079,-5.861,2.344,4.689,9.377,-2.344,-13.675,-2.344
'[22:53:34.086 08/07/2079]',8.596,1.954,1.954,-2.735,13.675,1.954,-2.344,-3.126,3.126,12.503,-1.563,5.861,9.377,7.424,0.000,3.126,3.126,2.344,-1.172,0.781,6.642,-5.470,0.000,-5.079
'[22:53:34.090 08/07/2079]',-3.126,6.252,5.470,-6.252,5.470,-1.563,1.172,-3.126,3.907,0.391,-3.907,6.252,9.768,6.252,-9.377,0.391,0.000,3.907,-4.689,-1.563,13.675,-0.391,-9.377,-0.781
'[22:53:34.094 08/07/2079]',0.391,3.907,8.205,-7.814,-1.172,4.298,1.563,-0.781,6.642,1.954,-11.331,-3.126,21.490,3.126,-10.940,-19.145,-0.391,-0.391,-7.424,3.516,23.443,1.172,-10.940,1.563
'[22:53:34.098 08/07/2079]',-6.252,-7.033,9.768,-2.344,-17.192,3.126,-1.563,9.377,-1.954,2.735,-11.331,6.252,6.252,3.907,-7.814,-6.252,0.391,0.000,-8.987,10.940,15.238,-1.954,-7.814,-3.907
'[22:53:34.102 08/07/2079]',0.391,-21.099,11.722,3.516,-23.834,6.642,-0.391,12.503,-10.159,0.391,-13.284,17.192,3.516,3.907,-19.536,5.861,-0.391,0.000,-10.940,6.642,26.960,0.781,-19.536,-12.894
'[22:53:34.105 08/07/2079]',2.735,-17.973,-0.391,1.954,-21.880,7.424,-7.033,7.814,0.391,6.642,-20.317,1.954,9.377,7.424,-10.159,-17.582,-0.781,-9.377,1.172,5.861,19.536,1.954,-10.159,-17.192
'[22:53:34.109 08/07/2079]',-14.847,-9.768,5.470,-5.470,-28.913,-0.391,-8.205,14.457,2.735,10.549,-23.443,-0.391,9.768,10.159,-7.033,-22.662,0.391,-11.722,-4.689,8.596,14.066,-3.907,-7.033,-16.801
'[22:53:34.113 08/07/2079]',-20.317,-14.847,-3.516,3.907,-35.946,-0.781,-9.768,10.940,1.954,3.126,-19.145,2.344,8.205,-0.391,-7.424,-10.940,-4.298,-7.033,4.298,7.814,8.205,-3.516,-7.424,-19.927
'[22:53:34.117 08/07/2079]',-4.689,-17.192,-5.079,2.735,-0.391,-16.410,-9.377,1.954,0.000,0.391,-17.973,-1.954,6.252,-0.781,-8.205,-16.020,-9.377,-9.377,5.861,7.424,7.033,3.126,-8.205,-23.834
'[22:53:34.121 08/07/2079]',-3.516,-12.894,-0.391,-1.172,11.722,-28.132,-11.722,8.596,-7.033,1.172,-21.490,2.735,-1.954,3.516,-6.252,-19.536,-8.596,-10.549,1.172,13.284,3.907,-0.781,-6.252,-20.317
'[22:53:34.125 08/07/2079]',-5.861,-12.503,-4.298,9.768,-5.861,-14.457,-16.410,23.053,-11.722,-2.344,-22.271,23.053,0.000,-4.689,-6.252,-1.954,-10.940,-6.642,5.079,20.317,-7.424,-1.954,-6.252,-11.722
'[22:53:34.129 08/07/2079]',2.344,-7.814,-8.596,0.391,0.391,-8.987,-7.033,1.954,-9.377,-2.735,-16.020,10.159,-3.907,7.814,-13.675,-9.377,-10.940,-4.689,9.377,7.424,1.172,4.689,-13.675,-9.768
'[22:53:34.133 08/07/2079]',0.391,-2.344,-1.172,1.954,-0.781,-1.563,-0.391,1.954,-6.642,-5.079,-7.814,17.973,-12.894,8.987,-0.391,1.563,-6.252,-1.563,1.954,3.907,-3.126,0.781,-0.391,-12.894
'[22:53:34.137 08/07/2079]',21.880,1.172,-7.033,1.172,12.112,8.205,-3.126,0.391,4.689,-5.861,-10.549,17.973,-9.377,8.987,0.781,5.079,-3.907,2.344,7.814,4.689,-12.112,-0.781,0.781,-25.006
'[22:53:34.141 08/07/2079]',26.178,-6.252,-6.642,1.563,11.722,8.205,-1.563,-3.516,-9.377,-4.689,-3.907,20.317,-10.549,-0.781,4.298,8.987,-3.126,6.642,7.424,1.172,-10.940,1.563,4.298,-26.960
'[22:53:34.145 08/07/2079]',35.165,-6.252,-5.079,-1.172,23.443,3.907,-0.781,-4.689,-10.940,-7.033,-1.954,17.582,-9.768,-4.298,7.033,3.907,-0.391,5.861,5.861,1.563,-12.112,-3.126,7.033,-36.337
'[22:53:34.148 08/07/2079]',30.867,-3.516,-4.298,4.298,21.490,2.735,-2.344,4.298,0.391,-5.079,1.563,25.397,1.954,1.954,2.344,16.410,1.563,7.424,5.079,5.861,-20.317,0.000,2.344,-35.556
'[22:53:34.152 08/07/2079]',25.006,-11.331,-6.252,5.861,-2.735,13.675,0.000,2.344,-1.954,2.735,10.940,19.927,35.165,-25.788,6.252,17.582,3.126,10.940,7.033,2.735,-25.397,-2.735,6.252,-57.436
'[22:53:34.156 08/07/2079]',3.516,-1.563,0.391,-0.391,-5.079,4.689,5.079,-3.126,14.457,-6.252,5.470,14.847,-8.205,7.814,16.801,12.503,3.516,10.940,0.391,-7.814,-26.178,0.781,16.801,-58.217
'[22:53:34.160 08/07/2079]',0.781,10.549,2.735,4.689,3.126,4.689,5.079,6.642,8.987,8.205,3.516,23.053,-10.159,6.642,21.880,26.960,4.298,13.284,-1.954,-12.112,-33.993,1.954,21.880,-60.171
'[22:53:34.164 08/07/2079]',25.788,-0.781,4.689,3.126,8.987,19.927,9.377,-5.470,15.238,12.503,13.284,13.675,-6.252,7.814,27.741,25.788,1.172,17.582,-3.907,-3.126,-38.681,-1.172,27.741,-25.788
'[22:53:34.168 08/07/2079]',12.112,-2.735,11.331,6.252,14.066,5.470,7.814,0.000,8.205,3.516,11.331,16.801,-21.880,8.596,28.132,25.006,0.391,16.801,-10.549,-11.331,-26.178,0.391,28.132,50.794
'[22:53:34.172 08/07/2079]',17.192,7.424,-0.781,6.252,16.801,8.205,5.861,-1.172,7.814,4.298,5.470,8.596,-12.112,9.768,18.755,10.159,1.563,12.894,1.563,-14.847,-17.582,2.344,18.755,173.480
'[22:53:34.176 08/07/2079]',30.476,3.516,-1.954,-2.735,19.145,12.894,3.126,-7.814,13.284,9.768,8.205,0.000,2.735,10.549,20.708,-1.954,6.642,11.722,2.735,0.391,-21.099,-1.954,20.708,294.994
'[22:53:34.180 08/07/2079]',9.377,1.172,-16.020,5.470,3.126,3.907,0.391,-8.205,10.159,-4.689,11.331,4.689,1.563,-3.516,16.801,5.470,5.470,12.112,16.801,-2.735,-9.768,-8.987,16.801,400.488
'[22:53:34.184 08/07/2079]',14.066,-1.172,-22.662,7.424,7.814,3.907,6.252,-21.099,7.424,11.331,3.516,-3.907,0.781,10.940,2.344,3.516,5.079,10.549,23.443,-7.033,7.814,-0.781,2.344,423.932
'[22:53:34.188 08/07/2079]',25.788,-10.549,-23.053,-1.954,5.079,6.642,0.391,-23.053,4.689,10.549,1.172,-4.689,3.516,10.940,0.000,-1.954,4.689,3.516,23.834,7.424,6.642,-8.596,0.000,408.694
'[22:53:34.191 08/07/2079]',16.801,-5.861,-21.490,-5.470,6.252,-0.781,-5.861,-16.801,-1.172,3.126,-4.689,-7.814,8.205,-11.331,0.391,-7.814,1.172,-0.781,22.271,8.205,7.033,-17.582,0.391,336.020
'[22:53:34.195 08/07/2079]',10.159,-3.907,-11.722,-10.159,14.066,-8.987,1.172,-21.880,-4.689,5.079,-1.954,-24.225,3.126,-5.470,-6.642,-16.020,1.954,-1.954,12.503,-0.391,6.642,-4.298,-6.642,259.438
'[22:53:34.199 08/07/2079]',15.629,-8.596,-3.516,-11.722,11.331,-5.861,3.126,-17.582,-7.033,-0.781,4.298,-19.927,-17.973,4.689,-5.861,-3.516,1.172,-4.298,4.298,0.000,-11.722,-1.172,-5.861,186.374
'[22:53:34.203 08/07/2079]',5.079,-2.735,-6.252,-5.861,-5.861,2.344,0.391,-8.205,-13.675,-0.391,8.596,-16.801,-24.225,-1.954,5.861,-1.172,3.907,0.000,7.033,1.172,-26.960,-1.954,5.861,98.462
'[22:53:34.207 08/07/2079]',-3.907,3.516,-4.298,6.252,-5.861,4.689,1.954,1.563,-17.192,6.642,5.470,-3.126,-5.861,-6.252,-3.126,8.205,6.642,4.689,5.079,-3.907,-14.457,7.424,-3.126,-13.284
'[22:53:34.211 08/07/2079]',0.391,5.470,0.391,5.079,-15.629,16.410,5.470,4.298,-6.642,7.033,1.954,-0.781,7.033,-4.298,-1.954,1.563,7.424,5.470,0.391,-2.735,-4.689,4.689,-1.954,-122.295
'[22:53:34.215 08/07/2079]',17.973,17.582,-5.079,2.344,-3.907,30.867,4.689,1.954,-5.079,16.410,10.549,1.954,18.755,-14.847,19.145,1.172,12.894,6.252,5.861,2.735,-12.894,-9.377,19.145,-218.413
'[22:53:34.219 08/07/2079]',21.099,10.159,-0.391,14.066,20.708,8.205,3.907,11.722,-8.596,21.099,15.238,15.629,72.674,-53.529,8.987,14.457,12.503,8.205,1.172,-6.642,3.516,-4.689,8.987,-279.756
'[22:53:34.223 08/07/2079]',30.867,11.722,4.689,6.642,38.681,1.563,7.814,5.861,6.252,10.159,11.331,3.907,-0.781,7.424,20.317,5.470,8.205,3.907,-3.907,-13.284,-12.503,5.079,20.317,-313.358
'[22:53:34.227 08/07/2079]',23.443,9.768,5.861,1.563,28.132,1.563,5.470,5.470,-6.252,11.722,13.284,1.563,-8.596,-1.172,25.397,5.079,7.033,3.516,-5.079,-10.549,-19.145,0.781,25.397,-305.934
'[22:53:34.230 08/07/2079]',12.894,1.172,7.033,14.066,21.880,-4.298,1.563,16.020,-10.549,9.377,10.159,16.410,-6.252,1.172,13.675,17.973,7.033,6.252,-6.252,-5.079,-9.377,2.735,13.675,-266.081
'[22:53:34.234 08/07/2079]',11.722,-3.907,7.814,11.331,14.847,-0.781,5.861,7.033,-1.563,3.126,8.205,9.768,-12.112,16.020,5.470,8.987,4.689,6.252,-7.033,-6.252,-2.344,10.159,5.470,-195.751
'[22:53:34.238 08/07/2079]',0.000,3.516,10.940,3.516,5.079,-1.954,7.033,7.424,8.987,-0.391,3.516,1.563,6.642,6.252,3.907,-4.298,6.252,2.735,-10.159,-3.126,1.563,3.516,3.907,-117.216
'[22:53:34.242 08/07/2079]',-9.768,6.642,3.516,7.424,-10.940,0.391,2.735,15.629,-0.391,-1.172,6.252,7.814,11.722,0.000,-1.954,2.735,7.424,2.735,-2.735,3.907,-5.861,0.391,-1.954,-43.761
'[22:53:34.246 08/07/2079]',13.284,3.126,1.563,4.689,10.549,0.000,6.642,5.079,5.470,-4.298,14.066,5.861,14.066,1.954,-4.298,8.987,3.516,7.033,-0.781,-2.735,-3.907,0.391,-4.298,-2.735
'[22:53:34.250 08/07/2079]',30.085,-4.689,3.126,-1.172,21.490,0.391,8.596,-3.516,-4.298,0.391,15.238,-8.596,-6.252,5.079,4.298,-0.391,0.781,8.205,-2.344,-1.954,-7.814,-7.424,4.298,9.768
'[22:53:34.254 08/07/2079]',25.788,-5.079,-2.344,3.516,5.470,10.159,0.391,4.689,-16.020,1.954,5.470,6.642,-3.126,2.735,-8.205,7.033,0.391,8.596,3.126,1.563,-3.907,-4.689,-8.205,19.145
'[22:53:34.258 08/07/2079]',32.430,1.954,-3.907,7.033,22.271,8.596,-1.563,7.814,-1.172,2.344,-1.954,16.410,13.675,7.424,-9.377,3.907,3.516,10.159,4.689,1.563,-0.781,0.391,-9.377,34.774
'[22:53:34.262 08/07/2079]',22.271,3.907,0.000,0.391,13.284,10.159,5.470,-2.344,-0.391,0.391,-3.907,3.126,10.549,6.252,-7.814,-9.768,1.954,8.596,0.781,2.344,-0.781,1.563,-7.814,49.231
'[22:53:34.266 08/07/2079]',14.457,13.675,0.781,-1.954,8.596,13.284,7.814,-3.126,5.861,-1.563,-5.079,7.033,16.020,9.768,-15.629,-2.735,3.907,7.033,0.000,-3.516,1.954,2.344,-15.629,50.794
'[22:53:34.270 08/07/2079]',16.410,13.284,-1.172,-0.391,10.159,10.159,6.642,0.000,5.470,-1.954,2.735,14.457,22.662,10.940,-12.894,0.781,3.126,8.987,1.954,-1.954,3.126,-0.781,-12.894,49.621
'[22:53:34.273 08/07/2079]',3.907,9.377,-2.735,-9.768,0.391,1.954,5.079,-6.252,5.079,-7.033,-3.126,0.391,19.536,3.907,-15.629,-12.894,-5.079,8.205,3.516,-3.907,8.987,-1.172,-15.629,52.357
'[22:53:34.277 08/07/2079]',1.563,7.814,1.172,-11.722,-4.298,1.172,1.954,0.391,7.424,-7.424,-12.894,0.391,8.205,12.112,-16.801,-15.629,-6.642,5.079,-0.391,-2.344,9.768,-3.126,-16.801,59.780
'[22:53:34.281 08/07/2079]',-2.735,5.079,0.781,-0.391,-12.112,3.126,4.298,7.033,5.470,-7.033,-9.377,6.252,14.457,10.549,-24.225,-6.642,-6.252,7.033,0.000,6.252,16.020,-5.861,-24.225,64.078
'[22:53:34.285 08/07/2079]',8.987,-8.987,-0.781,3.907,-14.457,3.126,7.814,7.424,-1.172,1.954,-7.424,2.735,22.271,-3.126,-16.801,-6.252,-3.516,8.596,1.563,4.298,14.066,-6.252,-16.801,73.455
'[22:53:34.289 08/07/2079]',7.814,3.516,-1.563,3.126,1.954,-5.861,5.861,12.112,-9.377,8.205,-14.847,-5.861,8.987,8.205,-19.927,-19.145,0.391,4.298,2.344,0.391,17.973,-4.298,-19.927,83.223
'[22:53:34.293 08/07/2079]',4.298,6.642,-2.344,5.470,3.126,-6.252,7.814,10.159,-8.205,11.722,-6.642,-2.735,16.410,7.424,-13.675,-16.020,2.344,1.172,3.126,2.735,18.755,-1.954,-13.675,92.210
'[22:53:34.297 08/07/2079]',-2.735,-3.907,-6.252,8.596,-14.066,-7.424,4.298,13.284,-16.410,12.112,-2.735,1.954,34.774,-5.470,-23.053,-10.549,-0.391,2.735,7.033,3.907,36.728,-7.814,-23.053,91.819
'[22:53:34.301 08/07/2079]',-3.516,-10.159,-7.424,14.847,-0.391,-21.490,6.252,8.987,0.000,-2.735,-10.159,6.642,-20.317,28.913,-11.331,-1.954,-4.689,0.391,8.205,0.391,18.755,6.642,-11.331,88.303
'[22:53:34.305 08/07/2079]',-8.596,-14.847,-1.954,15.629,-19.536,-11.722,7.814,12.503,-3.907,-5.470,-17.192,12.894,-5.470,19.145,-20.317,-6.252,-9.768,-3.907,2.735,3.907,26.178,13.284,-20.317,86.740
'[22:53:34.309 08/07/2079]',-3.907,-16.410,-4.298,14.066,-3.126,-24.225,1.172,15.629,-8.596,-13.284,-25.788,13.675,1.563,-1.563,-24.225,-8.596,-11.722,-8.205,5.079,7.814,36.337,-2.735,-24.225,87.912
'[22:53:34.313 08/07/2079]',1.954,-13.675,2.344,8.596,17.192,-32.430,11.722,2.735,-21.880,-4.689,-15.629,6.642,-15.238,5.470,-14.066,-11.722,-11.722,-5.861,-1.563,4.298,26.178,4.689,-14.066,89.475
'[22:53:34.316 08/07/2079]',0.000,-12.112,2.735,8.205,16.801,-27.741,14.847,-3.907,-25.788,0.781,-4.298,1.954,-1.954,1.172,-12.894,-12.894,-11.331,-5.470,-1.954,5.470,28.913,1.954,-12.894,86.349
'[22:53:34.320 08/07/2079]',-0.781,-2.735,0.781,3.907,15.629,-22.662,6.642,1.563,-7.814,-4.689,-8.596,7.424,19.145,-4.298,-12.112,-16.801,-11.331,-8.205,0.000,7.033,34.774,-6.252,-12.112,81.661
'[22:53:34.324 08/07/2079]',-14.457,1.172,0.391,4.689,-10.940,-10.549,6.252,6.642,-3.907,-5.861,-7.033,12.894,8.205,6.252,-3.907,-15.238,-10.159,-3.907,0.391,7.814,26.178,-5.470,-3.907,78.535
'[22:53:34.328 08/07/2079]',-7.814,0.000,-0.781,8.596,-3.126,-9.377,6.642,4.689,3.907,-6.642,-12.112,9.768,13.284,8.987,-10.549,-16.801,-8.596,-3.907,1.563,6.252,27.350,6.252,-10.549,70.330
'[22:53:34.332 08/07/2079]',-0.391,-8.987,3.907,10.549,-8.205,-2.344,7.424,7.424,17.192,-13.675,-13.284,8.596,31.648,-4.298,-14.066,-14.457,-9.768,-5.861,-3.126,8.596,34.774,0.391,-14.066,72.674
'[22:53:34.336 08/07/2079]',1.172,-16.801,9.768,12.894,1.172,-12.503,5.470,12.503,13.675,-14.457,-8.987,13.675,32.430,-3.126,-16.020,-7.424,-7.033,-4.298,-8.987,10.549,38.291,0.391,-16.020,82.442
'[22:53:34.340 08/07/2079]',-7.814,-11.722,7.033,8.596,4.689,-24.225,6.252,10.159,6.252,-12.112,-10.940,6.642,24.615,1.954,-16.020,-20.317,-9.377,-3.516,-6.252,5.470,36.728,8.205,-16.020,110.183
'[22:53:34.344 08/07/2079]',0.391,-10.159,0.781,8.205,17.192,-28.913,2.344,8.987,14.457,-12.894,-14.066,6.642,31.648,4.298,-13.284,-28.523,-11.722,-7.424,0.000,7.033,37.118,8.596,-13.284,130.891
'[22:53:34.348 08/07/2079]',0.391,-3.126,2.344,5.079,16.801,-22.662,-1.172,12.894,17.582,-10.940,-17.582,12.503,26.960,11.722,-12.112,-24.615,-12.503,-5.861,-1.563,7.424,32.430,9.768,-12.112,134.799
'[22:53:34.352 08/07/2079]',-11.722,-3.126,-3.907,12.112,9.377,-23.443,-1.172,8.205,-6.642,-3.516,-16.410,8.596,8.987,6.252,-3.126,-30.476,-10.940,-3.907,4.689,3.907,30.085,13.675,-3.126,129.719
'[22:53:34.355 08/07/2079]',-17.973,-1.954,-7.424,11.331,-0.781,-14.066,2.344,-3.516,-7.033,0.391,-14.847,-5.079,17.973,6.642,-10.159,-41.026,-11.331,-1.563,8.205,0.000,33.211,25.397,-10.159,121.905
'[22:53:34.359 08/07/2079]',-19.927,-0.391,3.516,9.768,-11.331,-0.391,4.689,0.781,2.344,1.954,-9.768,-4.689,19.927,12.503,-7.424,-34.383,-7.033,2.735,-2.735,1.563,27.350,22.271,-7.424,116.044
'[22:53:34.363 08/07/2079]',-11.722,-1.172,3.126,11.331,-0.781,1.172,4.298,-2.735,8.205,1.172,-4.689,-1.172,16.020,19.145,-7.033,-24.225,-4.298,9.377,-2.344,-1.954,32.821,17.192,-7.033,107.057
'[22:53:34.367 08/07/2079]',-14.457,-10.940,4.689,9.377,-2.735,-1.954,9.768,-15.238,18.755,2.344,2.344,-12.112,30.476,19.536,-4.298,-33.211,-5.079,11.331,-3.907,-1.563,39.072,17.973,-4.298,97.680
'[22:53:34.371 08/07/2079]',0.000,0.391,5.861,14.847,10.549,7.033,4.689,-1.172,26.178,16.801,-7.814,3.907,42.198,19.145,1.563,-24.615,-0.391,11.331,-5.079,-5.470,32.039,26.960,1.563,86.740
'[22:53:34.375 08/07/2079]',-4.298,14.066,3.907,12.894,26.178,0.000,-1.954,2.344,19.536,17.192,-11.331,6.642,35.165,19.145,9.377,-30.085,0.391,11.722,-3.126,-4.298,32.821,22.271,9.377,78.926
'[22:53:34.379 08/07/2079]',-16.020,7.033,3.516,13.675,4.298,8.205,4.298,-8.205,11.722,23.053,-7.033,-4.298,40.635,17.973,1.172,-35.946,-0.391,12.894,-2.735,-9.768,42.589,37.118,1.172,64.469
'[22:53:34.383 08/07/2079]',-5.861,0.391,1.172,16.020,0.781,14.066,5.470,-8.205,-1.172,32.430,1.172,-5.861,66.032,7.814,-12.112,-34.383,-3.126,16.020,-0.391,-6.252,48.449,41.807,-12.112,49.231
'[22:53:34.387 08/07/2079]',5.861,-5.079,-2.344,11.722,17.582,-0.781,-2.344,-4.689,24.615,11.331,-10.549,-6.642,13.675,47.668,-4.298,-37.900,-5.079,11.331,3.126,4.298,33.211,34.383,-4.298,36.337
'[22:53:34.391 08/07/2079]',3.907,-17.973,-6.642,9.377,17.582,-18.755,-7.424,-2.344,21.099,9.377,-12.894,-13.675,24.615,39.463,-10.159,-49.231,-7.033,10.159,7.424,13.675,37.118,29.695,-10.159,33.602
'[22:53:34.395 08/07/2079]',-0.781,-20.317,-6.252,6.642,17.192,-29.304,-6.252,-2.735,19.145,7.814,-9.768,-18.755,27.741,33.993,-13.284,-48.449,-7.424,7.033,7.033,19.145,32.430,28.523,-13.284,33.602
'[22:53:34.398 08/07/2079]',1.563,-6.642,-2.735,10.549,22.662,-19.927,-1.563,1.172,27.350,9.377,-5.861,-12.503,16.801,37.509,2.344,-37.900,-0.781,6.642,3.516,16.020,16.410,33.993,2.344,28.132
'[22:53:34.402 08/07/2079]',-7.033,-5.079,-1.172,13.284,10.940,-11.722,-1.563,1.563,6.252,6.252,1.563,-9.768,11.722,12.503,-1.563,-17.192,1.954,4.689,1.954,4.298,22.271,24.225,-1.563,19.927
'[22:53:34.406 08/07/2079]',-21.490,-4.298,-2.344,14.457,-1.563,-10.159,-1.172,0.391,2.735,8.596,-5.079,-11.722,29.695,-11.331,-6.252,-17.192,0.781,2.735,3.126,-3.516,36.728,16.410,-6.252,8.205
'[22:53:34.410 08/07/2079]',-15.238,-4.689,0.781,8.987,-0.391,-6.642,0.391,-2.344,-1.954,5.470,-7.033,-10.940,3.126,-8.205,1.563,-11.331,1.563,0.391,0.000,-1.954,17.192,12.503,1.563,-4.298
'[22:53:34.414 08/07/2079]',-10.940,-7.424,0.391,9.377,4.689,-8.987,-0.391,-5.470,-1.954,7.424,-7.033,0.391,-3.516,-7.424,5.470,3.516,4.689,-2.344,0.391,-3.907,14.066,3.516,5.470,-22.662
'[22:53:34.418 08/07/2079]',-8.987,-19.145,2.344,7.814,7.033,-16.020,-2.735,-5.079,-2.344,3.907,-7.424,0.391,-1.172,-7.424,0.781,3.907,4.298,-5.470,-1.563,-6.252,6.642,10.159,0.781,-38.681
'[22:53:34.422 08/07/2079]',-7.814,-8.987,2.344,0.000,4.689,-11.331,0.000,-8.596,-0.781,-1.172,-11.722,-5.079,-8.596,-3.516,0.000,-5.079,3.907,-11.331,-1.563,-13.284,-0.781,18.755,0.000,-48.059
'[22:53:34.426 08/07/2079]',-14.847,-3.126,-5.861,1.172,-2.344,-5.861,-8.596,-6.252,-4.689,-4.298,-15.238,-3.516,-16.410,-11.331,0.391,0.000,4.689,-18.755,6.642,-8.596,-7.814,4.689,0.391,-53.138
'[22:53:34.430 08/07/2079]',-14.066,-16.410,-10.549,3.907,-16.410,-0.391,-13.675,-6.252,-5.079,-8.596,-14.847,-7.814,-21.490,-19.536,-1.954,6.642,1.563,-17.582,11.331,-5.861,-22.271,2.735,-1.954,-59.780
'[22:53:34.434 08/07/2079]',-23.053,-23.443,-10.159,5.079,-35.165,3.126,-6.642,-12.503,-13.675,-11.331,-8.596,-5.470,-25.788,-29.304,0.391,14.847,-1.172,-14.066,10.940,-9.377,-24.225,1.172,0.391,-62.906
'[22:53:34.438 08/07/2079]',-23.053,-18.755,-11.331,2.735,-21.099,-10.549,-8.205,-9.768,-26.178,-14.457,-13.284,-3.516,-29.304,-37.118,-1.172,9.768,-3.907,-16.020,12.112,-3.126,-21.099,-6.252,-1.172,-59.389
'[22:53:34.441 08/07/2079]',-27.741,-16.801,-1.563,0.391,-31.648,-6.252,-4.298,-2.344,-26.569,-15.238,-11.331,8.987,-27.741,-35.556,-0.391,19.536,-1.954,-9.377,2.344,-0.781,-21.099,-7.814,-0.391,-47.277
'[22:53:34.445 08/07/2079]',-30.867,-8.987,4.689,-4.689,-27.741,-6.642,7.033,-10.940,-28.132,-18.755,-1.954,-2.344,-32.821,-30.476,0.000,11.722,-3.126,-4.298,-3.907,-10.940,-12.894,-4.689,0.000,-36.728
'[22:53:34.449 08/07/2079]',-10.940,-14.066,-3.126,7.814,-8.596,-8.987,10.549,-12.894,-30.867,-14.457,0.781,-0.391,-36.337,-35.946,8.987,17.973,-3.126,-4.298,3.907,-6.252,-21.099,-7.033,8.987,-29.695
'[22:53:34.453 08/07/2079]',-16.410,-14.457,10.549,9.377,-17.192,0.781,5.079,1.172,-11.722,-21.490,-3.516,6.252,-50.794,-19.145,9.377,30.085,2.735,-3.126,-9.768,-1.172,-32.430,-5.470,9.377,-23.834
'[22:53:34.457 08/07/2079]',-35.556,-4.689,3.126,17.973,-5.079,-20.317,-1.563,9.768,-4.689,-18.364,-3.516,11.722,-41.026,-15.238,8.987,32.039,0.000,-3.516,-2.344,-10.159,-41.026,7.814,8.987,-11.722
'[22:53:34.461 08/07/2079]',-25.397,-1.172,6.252,12.112,10.940,-19.145,-2.344,3.126,-8.205,-19.927,-5.470,8.205,-33.211,-24.225,5.470,26.569,-0.781,-6.252,-5.470,-12.112,-32.821,9.768,5.470,1.563
'[22:53:34.465 08/07/2079]',-18.755,2.735,6.642,7.033,15.238,-12.894,-3.126,0.391,-7.814,-23.053,-3.516,7.814,-28.523,-21.490,-3.907,28.523,-3.126,-7.814,-5.861,-12.503,-20.708,5.470,-3.907,12.112
'[22:53:34.469 08/07/2079]',-14.066,4.689,3.907,6.252,17.192,-5.861,-2.344,-5.861,-2.344,-16.410,2.735,11.722,-14.066,-18.755,-6.642,35.556,0.781,-4.689,-3.126,-14.847,-23.053,11.722,-6.642,22.662
'[22:53:34.473 08/07/2079]',-11.331,0.781,11.722,-3.516,-0.781,9.377,2.344,-12.503,-20.708,-14.457,3.907,3.516,-35.946,-32.821,13.675,27.350,-1.172,-2.344,-10.940,-20.708,-31.648,5.861,13.675,34.383
'[22:53:34.477 08/07/2079]',-18.364,5.861,5.470,-3.126,-18.364,20.708,-0.781,-11.331,-20.708,-10.549,3.907,1.172,-33.602,-30.476,8.987,28.523,0.000,-3.907,-4.689,-16.801,-33.993,0.391,8.987,42.198
'[22:53:34.480 08/07/2079]',-13.675,6.252,9.768,-8.596,-5.079,13.675,-4.689,-9.768,-3.126,-12.894,6.642,1.172,-22.662,-25.397,12.112,27.350,1.172,-1.954,-8.987,-11.331,-44.933,0.391,12.112,41.026
'[22:53:34.484 08/07/2079]',-5.470,7.033,11.331,-7.424,17.192,2.344,-3.516,-10.159,-7.424,-5.470,10.549,3.126,-23.053,-22.271,11.722,34.774,1.563,0.000,-10.549,-22.271,-45.324,7.814,11.722,38.681
'[22:53:34.488 08/07/2079]',-7.424,19.145,5.079,-3.126,17.582,6.252,-1.563,-8.596,-0.391,-6.642,2.735,-0.391,-18.755,-19.536,9.377,24.225,3.126,-1.563,-4.298,-26.960,-30.476,0.781,9.377,41.416
'[22:53:34.492 08/07/2079]',7.814,27.350,9.377,-8.987,41.416,4.298,-1.563,-8.596,14.066,1.954,0.391,-0.391,-7.814,-7.424,5.861,26.178,8.596,1.563,-8.596,-19.536,-36.337,5.861,5.861,48.059
'[22:53:34.496 08/07/2079]',5.861,16.410,13.284,0.000,41.026,1.954,3.126,-10.940,10.940,5.079,5.470,-1.172,-7.424,-13.284,9.377,32.430,12.112,7.424,-12.503,-23.834,-24.225,10.549,9.377,49.621
'[22:53:34.500 08/07/2079]',6.642,5.079,6.252,3.516,15.629,19.145,8.205,-20.317,0.781,10.549,12.112,-8.205,-17.192,-12.894,10.940,34.774,14.066,8.596,-5.470,-21.880,-30.867,16.801,10.940,49.231
'[22:53:34.504 08/07/2079]',-1.954,5.079,10.940,-0.781,10.159,13.675,2.735,-12.894,7.424,7.814,6.642,-12.112,-10.159,-12.894,7.033,27.350,13.675,4.298,-10.159,-13.675,-25.397,13.675,7.033,48.840
'[22:53:34.508 08/07/2079]',-2.344,3.126,11.722,3.516,16.410,3.907,-2.735,-0.391,7.033,4.689,0.781,-12.894,-5.861,-26.960,7.033,26.569,12.894,0.000,-10.940,-10.159,-35.556,16.410,7.033,50.794
'[22:53:34.512 08/07/2079]',-5.861,6.252,4.298,4.689,5.861,8.596,1.954,-7.033,-1.563,12.503,3.126,-22.662,-23.053,-14.847,11.331,18.364,14.457,-0.391,-3.516,-20.317,-35.946,21.490,11.331,51.184
'[22:53:34.516 08/07/2079]',-12.503,4.298,4.298,7.033,8.205,0.781,3.126,-8.987,2.344,9.377,-1.172,-26.178,-21.099,-14.847,7.814,13.284,12.112,-5.079,-3.516,-15.629,-21.490,14.066,7.814,48.059
'[22:53:34.520 08/07/2079]',-10.940,2.735,7.033,0.391,17.582,-6.252,-2.735,-8.205,4.689,3.516,-3.126,-23.053,-20.317,-16.410,8.987,10.549,12.894,-7.814,-6.252,-12.894,-19.145,9.377,8.987,43.761
'[22:53:34.523 08/07/2079]',-12.894,-3.126,-1.563,2.344,12.112,-9.377,-2.735,-14.847,-10.159,7.033,-3.126,-17.192,-30.867,-12.503,7.033,13.675,10.549,-7.424,2.344,-17.973,-10.940,12.503,7.033,44.542
'[22:53:34.527 08/07/2079]',-27.350,0.391,1.954,5.079,2.735,-10.549,-0.781,-9.768,-5.079,3.907,-7.033,-6.252,-25.788,-13.675,0.391,25.006,7.814,-7.424,-1.172,-15.629,-1.954,8.205,0.391,42.198
'[22:53:34.531 08/07/2079]',-25.397,2.344,8.987,5.861,12.112,-19.145,-1.172,1.172,1.563,-0.781,-7.814,3.516,-19.536,-13.284,-3.907,34.774,3.907,-7.814,-8.205,-11.331,-11.722,10.159,-3.907,34.774
'[22:53:34.535 08/07/2079]',-16.801,-2.735,6.252,11.331,13.675,-19.145,0.391,4.298,2.735,0.391,-5.470,8.596,-18.755,-12.112,1.563,37.509,3.516,-5.861,-5.470,-18.755,-11.331,13.284,1.563,30.085
'[22:53:34.539 08/07/2079]',-37.118,-0.781,3.516,14.457,-10.549,-13.284,0.391,4.298,9.377,-5.470,-15.238,4.689,-25.006,-3.126,0.781,21.880,1.954,-5.861,-2.735,-12.894,-10.159,18.755,0.781,26.960
'[22:53:34.543 08/07/2079]',-34.383,8.205,9.377,1.172,-22.271,3.516,3.907,0.391,18.364,-13.284,-8.987,-5.079,-18.755,-1.954,8.596,3.126,3.126,-8.987,-8.596,-5.470,-15.238,13.675,8.596,29.304
'[22:53:34.547 08/07/2079]',-4.298,-12.112,-0.391,12.894,2.344,-5.079,-5.470,5.079,2.735,-16.410,0.000,8.987,-20.708,-8.987,9.768,16.410,0.391,-6.642,1.172,-0.391,-5.079,2.344,9.768,23.443
'[22:53:34.551 08/07/2079]',7.424,-8.596,-4.689,17.973,8.205,4.298,0.391,-1.172,-1.563,-8.596,0.391,4.298,-23.443,-4.689,2.735,20.317,0.391,-5.470,5.470,-6.252,-7.033,13.675,2.735,21.099
'[22:53:34.555 08/07/2079]',8.205,3.126,1.563,15.629,22.271,-2.735,2.735,7.033,0.000,-8.205,-2.735,4.689,-12.894,-4.298,-1.563,12.894,-0.781,-5.470,-0.781,-10.159,3.516,10.159,-1.563,21.880
'[22:53:34.559 08/07/2079]',5.861,8.205,-10.159,8.987,30.476,-17.192,-7.814,7.424,-1.954,-6.252,-10.549,0.391,-4.298,-5.079,-11.331,2.735,-3.126,-8.987,10.940,-10.940,9.377,3.907,-11.331,26.178
'[22:53:34.563 08/07/2079]',-1.954,6.642,-4.689,2.735,27.741,-18.755,-1.954,-3.907,7.424,-6.642,-5.861,-12.894,1.172,-1.563,-10.159,-6.642,-3.516,-2.735,5.470,-11.722,9.768,8.987,-10.159,26.960
'[22:53:34.566 08/07/2079]',-15.629,6.642,0.391,-3.907,-1.954,-3.516,3.516,-10.549,4.689,-6.642,-1.172,-21.099,1.563,0.391,-12.112,-14.457,-3.516,-2.344,0.391,-12.503,12.112,7.424,-12.112,24.225
'[22:53:34.570 08/07/2079]',-23.834,1.563,-2.344,-1.172,-18.755,0.000,-6.642,0.391,-1.563,-7.424,-5.079,-0.781,5.079,-7.033,-13.675,0.391,-0.781,-4.298,3.126,-5.861,10.940,3.516,-13.675,25.006
'[22:53:34.574 08/07/2079]',-33.211,-1.172,-9.768,10.159,-26.569,-0.781,-11.331,5.470,-12.503,-8.987,-3.516,5.470,-7.033,-3.126,-10.159,1.954,-0.391,-3.516,10.549,-2.344,5.470,12.112,-10.159,30.085
'[22:53:34.578 08/07/2079]',-25.006,0.000,4.298,12.503,-18.364,3.516,-0.391,8.596,-9.768,-10.940,4.689,10.940,-8.987,5.079,-15.238,14.457,0.391,0.391,-3.516,-8.205,4.689,21.880,-15.238,35.165
'[22:53:34.582 08/07/2079]',-5.470,14.457,-3.126,10.940,8.596,5.470,0.391,2.735,-3.516,-7.814,8.205,12.112,5.079,-6.642,-9.377,20.317,-1.172,0.391,3.907,-17.192,1.172,18.755,-9.377,33.602
'[22:53:34.586 08/07/2079]',2.735,7.033,1.563,7.424,26.178,-2.735,0.391,-2.344,0.000,-6.642,13.284,3.516,0.391,11.722,-7.814,5.079,-0.781,4.298,-0.781,-13.675,2.344,25.788,-7.814,29.304
'[22:53:34.590 08/07/2079]',8.596,15.629,3.516,5.470,39.853,-4.298,0.781,-1.172,7.033,-11.331,11.331,2.735,-0.781,12.894,-5.470,5.079,-0.781,10.940,-2.735,-20.708,3.907,24.615,-5.470,26.960
'[22:53:34.594 08/07/2079]',3.907,26.960,0.391,-8.596,19.536,13.675,4.298,-14.847,7.033,1.563,7.814,-5.861,-1.172,21.490,0.781,-10.549,1.954,11.722,0.391,-19.536,6.252,19.145,0.781,22.662
'[22:53:34.598 08/07/2079]',-0.781,17.582,-2.344,-0.391,-8.596,24.615,3.516,-5.470,2.735,-0.391,11.331,-0.781,0.000,25.397,0.781,-12.894,4.298,15.238,3.126,-8.205,6.252,16.020,0.781,12.894
'[22:53:34.602 08/07/2079]',-7.033,11.331,3.126,6.252,-11.722,19.145,5.861,0.391,7.424,-4.298,13.675,0.000,6.252,21.490,-0.391,-10.940,7.033,17.582,-2.344,-10.159,10.549,23.834,-0.391,7.424
'[22:53:34.605 08/07/2079]',-15.629,20.317,8.987,-2.344,-16.020,16.801,14.066,-3.516,3.907,14.847,11.722,-9.768,15.238,28.132,3.126,-26.178,6.642,18.755,-8.205,-15.238,16.020,26.178,3.126,9.377
'[22:53:34.609 08/07/2079]',-17.192,12.503,13.675,2.735,-16.020,7.033,11.722,9.768,-4.689,14.847,7.424,-7.424,19.927,14.847,0.391,-26.569,5.079,15.238,-12.894,-4.689,10.159,27.350,0.391,15.629
'[22:53:34.613 08/07/2079]',-10.159,2.735,16.410,14.066,-3.907,-0.781,8.205,20.708,-8.987,10.159,7.424,5.470,-3.126,20.317,5.079,-7.033,7.424,16.801,-15.629,-2.735,10.159,21.880,5.079,14.847
'[22:53:34.617 08/07/2079]',-2.735,1.563,4.298,6.252,6.642,-10.159,7.033,6.642,-10.159,9.768,10.549,0.781,-15.629,26.178,7.033,-5.470,1.954,14.457,-3.516,-9.768,3.516,22.271,7.033,11.722
'[22:53:34.621 08/07/2079]',-6.642,0.781,5.079,5.079,-28.132,8.987,8.596,14.847,-6.252,3.126,6.252,7.424,-23.443,31.258,15.238,-12.112,3.126,11.331,-4.298,-3.907,-1.563,21.880,15.238,10.549
'[22:53:34.625 08/07/2079]',-5.470,-3.516,3.516,3.907,-42.979,17.582,3.516,19.927,-0.391,-9.377,3.907,12.894,-16.410,25.788,10.549,-12.894,4.298,10.940,-2.735,2.344,3.516,15.629,10.549,14.066
'[22:53:34.629 08/07/2079]',-13.284,-4.689,8.987,-5.079,-28.132,4.689,7.814,1.172,-10.549,8.987,5.079,-7.814,-16.410,25.397,8.987,-21.490,1.954,12.112,-8.205,0.781,2.735,21.490,8.987,17.582
'[22:53:34.633 08/07/2079]',-7.424,-1.954,17.192,0.391,-28.913,18.364,16.410,1.563,-10.940,19.927,12.503,-2.344,-7.814,25.006,11.331,-10.159,5.470,17.973,-16.410,-0.781,-6.642,26.569,11.331,17.582
'[22:53:34.637 08/07/2079]',7.033,1.954,14.066,5.079,9.768,3.126,3.516,11.331,-5.470,10.940,7.033,3.126,-7.033,19.145,4.298,-1.172,8.987,12.503,-13.284,6.642,-17.192,17.582,4.298,17.582
'[22:53:34.641 08/07/2079]',12.112,12.503,10.159,1.954,37.509,-11.331,3.126,9.377,4.298,6.642,5.861,0.781,-3.907,20.708,8.987,-6.252,8.205,11.722,-9.377,4.298,-20.708,14.066,8.987,17.192
'[22:53:34.645 08/07/2079]',16.020,14.457,2.344,8.205,42.589,-15.629,3.907,10.940,17.973,-6.252,6.642,8.596,4.298,17.973,-0.391,5.079,3.126,9.377,-1.563,3.516,-21.099,12.503,-0.391,16.410
'[22:53:34.648 08/07/2079]',5.861,0.000,0.391,8.205,20.708,-20.317,3.907,10.940,3.126,-3.126,4.298,5.079,1.954,10.940,-2.735,0.391,0.391,4.689,0.391,6.642,-8.596,1.172,-2.735,11.722
'[22:53:34.652 08/07/2079]',-16.801,-6.642,-1.172,6.642,-16.801,-7.033,-0.781,7.424,-10.549,-5.470,0.391,1.954,-8.596,-4.689,-6.252,5.470,1.172,1.954,1.954,5.861,0.391,-9.768,-6.252,8.205
'[22:53:34.656 08/07/2079]',-12.894,-7.033,-14.066,1.172,-14.457,-7.033,-6.252,-3.907,-19.145,-7.033,-0.391,-7.814,-24.225,-8.205,-3.516,0.781,2.344,1.172,14.847,0.391,-25.397,0.781,-3.516,8.205
'[22:53:34.660 08/07/2079]',3.516,8.596,-1.172,-8.205,-7.424,16.020,0.000,-5.470,-12.503,3.126,7.424,-1.172,-31.648,-1.563,11.331,17.582,13.675,3.907,1.954,-6.642,-58.999,12.112,11.331,4.298
'[22:53:34.664 08/07/2079]',28.523,19.536,-0.781,-7.033,24.225,16.801,0.391,-2.344,10.940,-8.596,12.503,1.954,-43.370,17.973,23.443,19.145,20.317,3.126,1.563,-4.689,-80.098,13.284,23.443,-1.954
'[22:53:34.668 08/07/2079]',49.231,6.252,-6.252,-8.596,38.681,11.331,-1.563,-8.205,25.397,-28.132,14.066,7.033,-45.324,27.741,24.225,11.722,16.801,3.126,7.033,2.344,-86.740,18.755,24.225,-7.424
'[22:53:34.672 08/07/2079]',48.840,20.708,10.549,-2.344,50.794,10.549,9.377,6.252,22.271,0.391,16.020,17.582,-12.894,21.099,28.132,20.317,19.536,9.768,-9.768,-2.344,-84.005,17.973,28.132,-2.735
'[22:53:34.676 08/07/2079]',42.589,7.814,7.814,-5.470,39.072,3.907,3.126,5.861,6.642,15.238,13.284,9.768,-7.424,22.662,21.880,9.377,21.099,6.642,-7.033,10.159,-77.753,6.642,21.880,1.172
'[22:53:34.680 08/07/2079]',42.589,-9.377,3.516,-1.563,16.801,14.847,-0.781,3.516,7.033,7.814,15.629,11.722,6.642,6.642,19.145,10.159,16.801,11.331,-2.735,15.238,-66.422,-1.954,19.145,-0.391
'[22:53:34.684 08/07/2079]',58.217,-10.159,4.689,0.000,18.755,29.695,5.861,-1.954,1.954,22.271,31.648,19.536,55.873,-21.880,11.331,32.430,23.443,20.317,-3.907,7.033,-74.237,8.205,11.331,-2.735
'[22:53:34.688 08/07/2079]',53.919,-11.331,20.317,-11.722,8.987,31.648,6.642,1.954,22.271,3.126,16.801,16.020,-12.112,33.602,8.596,28.132,18.755,13.675,-19.536,14.457,-85.568,9.768,8.596,-2.735
'[22:53:34.691 08/07/2079]',61.734,-3.907,5.079,-5.470,11.331,37.900,-3.126,11.331,27.350,-4.689,9.377,9.377,-10.940,37.118,3.516,11.722,14.066,14.847,-4.298,12.503,-84.396,11.722,3.516,4.689
'[22:53:34.695 08/07/2079]',75.018,2.735,7.424,-20.317,40.635,28.132,7.033,-10.940,38.681,-0.781,17.192,-0.781,7.814,40.635,-3.126,8.596,12.503,19.145,-6.642,6.252,-76.190,12.894,-3.126,12.112
'[22:53:34.699 08/07/2079]',79.316,12.503,5.470,-12.112,59.389,24.225,14.847,-12.894,36.337,12.503,21.880,-3.126,-4.298,40.244,16.020,16.020,10.159,23.443,-4.689,1.563,-78.926,5.861,16.020,15.629
'[22:53:34.703 08/07/2079]',70.330,6.642,-3.516,-10.940,34.774,31.648,5.079,-10.159,7.814,20.708,21.880,-8.205,-1.563,19.536,24.225,0.391,16.410,21.490,4.298,6.642,-74.628,-0.391,24.225,17.192
'[22:53:34.707 08/07/2079]',59.389,-0.391,0.391,-5.470,19.145,30.867,9.377,-5.861,-8.596,22.662,26.178,2.735,1.954,6.642,26.569,7.033,20.708,25.788,0.391,3.516,-52.357,-2.735,26.569,19.927
'[22:53:34.711 08/07/2079]',38.681,-8.205,8.987,2.344,-8.205,35.946,13.675,0.391,2.735,16.020,21.880,7.424,-25.788,21.099,33.602,19.927,21.880,25.397,-8.205,5.470,-55.092,0.391,33.602,22.662
'[22:53:34.715 08/07/2079]',38.681,-11.331,5.861,12.112,10.940,17.192,8.205,8.205,-2.735,8.596,17.973,1.954,-41.807,30.476,19.536,18.364,22.662,21.490,-5.079,9.377,-50.012,6.252,19.536,18.364
'[22:53:34.719 08/07/2079]',35.556,-23.834,5.079,10.159,0.391,19.145,4.689,2.735,3.907,17.192,19.145,-3.907,-17.192,29.304,9.768,14.066,22.271,21.099,-4.298,16.410,-35.165,3.126,9.768,14.066
'[22:53:34.723 08/07/2079]',29.304,-8.987,9.768,12.894,12.112,15.629,10.940,3.126,23.443,15.238,20.317,-3.907,-7.814,37.118,13.675,13.284,16.410,23.834,-8.987,11.722,-38.291,17.582,13.675,13.284
'[22:53:34.727 08/07/2079]',28.523,-3.907,3.907,7.424,21.099,4.689,6.252,3.126,-0.781,28.132,19.927,-11.722,2.735,24.615,10.549,-2.344,11.331,19.927,-3.126,14.066,-34.774,16.801,10.549,11.331
'[22:53:34.730 08/07/2079]',36.728,-14.847,4.689,7.424,6.642,12.112,4.689,9.768,-17.973,30.085,22.662,-7.814,0.000,19.536,10.940,-4.298,10.159,20.317,-3.907,24.225,-33.211,11.722,10.940,3.516
'[22:53:34.734 08/07/2079]',27.741,-26.178,18.364,7.033,1.954,1.563,8.987,14.457,1.172,-6.252,22.271,0.781,-25.006,26.960,5.861,9.377,4.689,17.192,-17.582,15.238,-29.695,18.364,5.861,-4.298
'[22:53:34.738 08/07/2079]',21.490,-26.178,11.722,13.284,-0.391,-9.768,8.205,22.271,17.192,-13.284,15.238,3.907,-17.582,27.741,1.954,11.331,-0.391,11.722,-10.940,10.940,-29.304,19.145,1.954,-5.861
'[22:53:34.742 08/07/2079]',24.615,-21.880,7.033,3.907,2.735,-8.205,1.954,17.973,-12.112,6.252,12.112,-1.563,0.391,1.172,-7.033,8.596,0.391,6.642,-6.252,19.536,-21.880,0.391,-7.033,-5.861
'[22:53:34.746 08/07/2079]',29.304,-19.536,3.907,8.987,10.940,-6.642,3.126,14.847,-23.834,3.516,17.192,2.344,-10.940,-5.861,-1.172,18.755,1.563,8.596,-3.126,12.894,-22.271,-3.516,-1.172,-9.377
'[22:53:34.750 08/07/2079]',18.364,-13.675,-7.033,3.907,3.516,-5.470,2.735,0.391,-37.509,14.847,14.847,-5.470,-9.377,-5.861,-10.159,12.503,-1.954,7.033,7.814,6.252,-18.755,0.000,-10.159,-12.503
'[22:53:34.754 08/07/2079]',24.615,-13.284,-14.457,-5.470,10.159,-11.722,-5.079,-2.735,-64.469,24.225,7.033,-7.033,15.238,-36.728,-19.536,1.172,-0.781,2.344,15.238,13.675,-19.145,-3.907,-19.536,-5.079
'[22:53:34.758 08/07/2079]',17.582,-8.987,-11.722,-8.596,1.172,-7.814,-8.205,1.954,-6.642,-20.708,-7.814,1.954,-42.198,16.410,-14.066,6.642,-6.252,0.781,12.503,13.284,-35.946,1.954,-14.066,13.284
'[22:53:34.762 08/07/2079]',-5.079,-11.331,-16.801,-10.549,-11.331,-13.284,-9.768,-8.987,27.350,-39.072,-11.722,-4.298,-30.867,20.317,-23.834,7.424,-11.331,0.391,17.582,15.629,-34.774,2.735,-23.834,38.291
'[22:53:34.766 08/07/2079]',7.033,-16.410,-18.755,-13.284,-12.503,-5.861,-6.642,-16.801,33.211,-40.244,-8.987,-7.814,-15.629,1.954,-8.205,-0.781,-17.192,0.391,19.536,12.112,-36.337,0.781,-8.205,55.873
'[22:53:34.770 08/07/2079]',27.741,-25.397,-16.020,-13.675,5.470,-9.768,-10.159,-11.722,7.033,-41.416,-2.735,-3.516,-42.198,4.689,-3.516,1.563,-14.066,-1.172,16.801,16.410,-37.509,-6.252,-3.516,58.608
'[22:53:34.773 08/07/2079]',7.424,-14.457,-11.722,-16.020,-5.470,-8.596,-12.894,-7.033,-17.192,-25.788,-7.033,-5.079,-39.463,-6.252,-6.252,-1.954,-8.205,-0.391,12.503,7.814,-28.523,-7.814,-6.252,51.184
'[22:53:34.777 08/07/2079]',7.814,-25.397,-11.331,-18.364,-14.847,-11.331,-12.503,-8.596,-52.747,1.563,-7.814,-7.424,-31.258,-16.410,-13.675,-3.516,-5.861,-3.516,12.112,5.861,-27.741,-4.298,-13.675,33.211
'[22:53:34.781 08/07/2079]',7.424,-16.410,-3.516,-15.629,0.000,-12.503,-10.940,-4.689,-52.357,1.954,-8.205,-2.344,-43.761,-5.079,-16.801,5.470,-3.907,-1.954,4.298,13.284,-25.788,-7.814,-16.801,12.503
'[22:53:34.785 08/07/2079]',2.344,-14.066,-6.642,-8.205,2.735,-11.331,-14.066,-3.907,-14.847,-9.377,-12.112,7.424,-32.821,6.642,-21.490,18.364,-2.344,0.000,7.424,12.112,-23.834,-4.298,-21.490,-0.391
'[22:53:34.789 08/07/2079]',-0.781,-6.642,-13.284,-1.563,3.126,-9.377,-15.238,-1.172,3.907,-12.503,-19.536,1.172,-7.033,-5.470,-17.192,4.298,-3.126,2.344,14.066,9.768,-20.708,-3.516,-17.192,-7.033
'[22:53:34.793 08/07/2079]',8.987,-3.126,-14.457,-3.126,16.020,-2.344,-15.629,-9.768,3.907,-16.410,-14.066,-1.172,-10.940,-5.079,-7.814,-2.344,-5.079,0.000,15.238,13.675,-21.099,-4.689,-7.814,-10.549
'[22:53:34.797 08/07/2079]',7.814,-3.126,-14.847,-2.735,6.252,6.642,-17.582,-7.814,5.079,-16.020,-10.940,5.470,-20.317,5.079,-3.516,2.344,-0.391,0.781,15.629,12.112,-30.085,-2.344,-3.516,-19.536
'[22:53:34.801 08/07/2079]',14.066,-10.159,-11.331,0.391,14.457,3.907,-14.847,-10.940,4.298,-25.788,-6.252,2.735,-28.132,8.596,-8.987,4.689,0.781,3.516,12.112,7.033,-31.258,6.252,-8.987,-29.695
'[22:53:34.805 08/07/2079]',-8.205,-8.596,-7.814,-3.907,0.781,0.000,-12.894,-16.410,-20.708,-22.662,0.391,2.735,-29.695,-0.391,-11.331,0.781,-0.391,1.563,8.596,9.768,-15.629,-1.563,-11.331,-38.681
'[22:53:34.809 08/07/2079]',-21.099,3.126,2.344,-7.424,-15.629,11.331,-9.768,-8.596,-26.960,-12.503,-1.172,7.814,-40.244,7.814,-4.689,4.298,4.689,5.861,-1.563,9.768,-21.880,-0.781,-4.689,-49.231
'[22:53:34.813 08/07/2079]',-0.391,-8.987,1.563,-0.391,-5.470,14.066,-7.424,-10.159,-8.987,-31.258,5.079,0.391,-32.039,-0.781,-7.424,7.033,4.298,10.549,-0.781,8.205,-19.927,-3.126,-7.424,-65.641
'[22:53:34.816 08/07/2079]',12.894,-5.470,2.344,0.000,9.768,16.410,1.563,-17.973,-36.728,16.020,11.331,-3.126,5.470,-19.927,-3.126,5.861,7.033,15.238,-1.563,2.735,-3.907,-6.642,-3.126,-80.098
'[22:53:34.820 08/07/2079]',22.271,5.861,4.689,-3.126,18.755,20.317,0.391,-8.987,-14.066,10.940,1.172,-1.563,-35.165,22.271,7.033,2.344,7.424,11.722,-3.907,-1.563,-25.788,3.907,7.033,-86.740
'[22:53:34.824 08/07/2079]',25.788,11.722,2.344,1.563,22.271,21.880,0.391,-2.344,-7.424,10.159,4.689,-0.781,-24.225,22.271,6.252,1.954,10.940,15.629,-1.563,3.516,-37.900,11.331,6.252,-85.958
'[22:53:34.828 08/07/2079]',25.006,16.410,8.205,-1.563,39.853,11.722,10.159,-13.675,-10.940,19.536,16.020,-13.675,-18.755,33.211,-0.391,-2.344,11.331,20.708,-7.424,-2.735,-20.708,16.410,-0.391,-82.833
'[22:53:34.832 08/07/2079]',21.490,12.503,9.377,5.470,25.788,17.192,14.457,-8.596,-3.126,17.973,26.178,-1.954,-20.708,35.946,11.722,10.940,10.159,25.788,-8.596,-1.172,-23.834,10.549,11.722,-83.223
'[22:53:34.836 08/07/2079]',16.410,1.563,12.894,7.033,0.391,30.476,10.549,-2.735,-1.954,19.927,27.350,0.781,-11.331,32.430,12.894,12.112,15.629,30.867,-12.112,10.940,-32.821,15.238,12.894,-87.131
'[22:53:34.840 08/07/2079]',5.470,-5.079,16.020,4.689,-12.503,17.192,12.894,3.907,-23.443,25.006,23.053,3.126,-29.695,39.072,14.457,3.126,11.331,33.211,-15.238,4.689,-13.284,8.987,14.457,-92.991
'[22:53:34.844 08/07/2079]',-7.033,-3.516,7.814,-5.079,-21.490,6.252,9.768,-1.954,-27.350,20.708,15.629,-1.954,-33.993,28.523,27.741,-15.629,8.987,27.741,-7.033,11.331,-22.271,5.861,27.741,-110.965
'[22:53:34.848 08/07/2079]',-14.847,-7.033,14.066,3.907,-65.250,35.165,13.284,13.675,-34.383,17.192,16.801,6.252,-43.761,35.946,26.960,-12.894,7.814,27.350,-13.284,16.020,-25.397,12.894,26.960,-150.818
'[22:53:34.852 08/07/2079]',0.391,3.907,20.317,0.781,-27.741,22.662,14.847,15.629,-41.416,16.020,14.847,11.331,-30.867,23.443,12.503,-3.516,7.424,22.662,-19.536,5.079,-9.768,12.894,12.503,-192.234
'[22:53:34.855 08/07/2079]',22.662,20.708,14.457,4.298,26.569,5.079,15.238,15.629,-8.596,12.894,14.457,4.689,-6.252,29.304,13.284,-12.112,3.516,20.708,-13.675,-6.642,-7.033,20.708,13.284,-227.009
'[22:53:34.859 08/07/2079]',18.755,23.834,17.582,4.689,27.741,5.079,14.066,18.364,8.596,12.112,10.940,17.582,-0.781,41.026,16.410,-6.252,4.689,19.536,-16.801,-0.781,-11.722,28.132,16.410,-243.419
'[22:53:34.863 08/07/2079]',13.675,21.099,18.755,10.940,24.225,1.954,7.033,31.648,5.470,5.861,9.377,30.085,-16.801,32.821,17.192,18.364,4.689,17.973,-17.973,1.954,-18.755,8.987,17.192,-255.922
'[22:53:34.867 08/07/2079]',5.079,12.503,10.940,12.112,6.642,1.563,6.642,25.006,1.172,7.033,4.689,24.225,-10.549,18.364,15.238,15.238,3.126,16.410,-10.159,0.391,-13.675,6.252,15.238,-246.545
'[22:53:34.871 08/07/2079]',-13.284,5.079,8.987,8.987,-18.755,1.563,0.000,26.960,-11.722,3.516,-5.470,19.927,-16.410,17.192,6.252,0.000,1.172,7.033,-8.205,8.596,-10.940,9.377,6.252,-193.407
'[22:53:34.875 08/07/2079]',-11.331,1.563,7.814,-1.954,-25.397,1.563,-4.689,25.006,-16.020,0.781,-14.066,14.457,-5.861,8.596,-13.284,-4.298,1.172,-0.391,-7.033,15.629,-11.331,6.642,-13.284,-92.991
'[22:53:34.879 08/07/2079]',16.020,0.391,3.516,-5.079,7.424,0.781,-2.344,8.596,-20.317,14.457,-4.298,11.722,47.277,-19.145,-33.602,7.424,2.735,0.781,-2.735,7.814,-2.344,12.503,-33.602,18.364
'[22:53:34.883 08/07/2079]',13.675,-4.689,6.642,-6.252,22.662,-14.066,3.907,-2.735,1.954,-2.344,1.954,0.391,-0.391,44.151,-25.397,-14.847,-3.907,0.391,-5.861,2.344,-3.516,34.774,-25.397,109.792
'[22:53:34.887 08/07/2079]',0.000,-8.596,-9.768,10.159,-5.079,-1.954,-6.252,5.861,-7.424,-3.907,-0.781,12.503,-3.126,19.145,-2.735,-14.066,0.391,-1.954,10.549,11.331,6.252,3.907,-2.735,161.758
'[22:53:34.891 08/07/2079]',-21.490,-7.424,-30.867,18.364,-37.509,14.847,-20.317,1.172,-14.847,-11.722,-12.503,8.596,-18.364,-1.172,-9.377,0.391,1.954,-4.689,31.648,19.927,3.126,-12.894,-9.377,155.897
'[22:53:34.895 08/07/2079]',-17.192,-10.549,-25.788,20.708,-28.913,12.112,-14.457,-1.172,-14.066,-14.066,-16.410,0.000,-26.960,13.284,-13.675,-17.582,-4.689,-7.033,26.569,18.364,14.066,-3.907,-13.675,126.203
'[22:53:34.898 08/07/2079]',13.284,-10.549,-15.238,-11.331,13.675,2.344,-12.112,-27.741,1.954,-12.894,-22.662,-19.927,-1.954,-2.735,-10.549,-37.900,-5.861,-11.722,16.020,20.317,25.397,-14.847,-10.549,84.005
'[22:53:34.902 08/07/2079]',37.509,-20.317,-27.350,-6.642,38.681,-2.735,-18.364,-34.383,7.033,-7.814,-24.225,-15.629,6.642,-2.344,-41.026,-5.470,-4.298,-13.675,28.132,26.569,9.768,-4.298,-41.026,65.641
'[22:53:34.906 08/07/2079]',48.059,-13.284,2.344,-16.801,64.860,-19.536,-2.735,-20.708,24.225,-7.424,-21.490,-20.708,12.112,13.284,-38.681,-13.675,-7.033,-10.549,-1.563,12.894,-3.126,9.377,-38.681,57.045
'[22:53:34.910 08/07/2079]',22.662,3.907,6.642,-20.317,47.668,-11.331,-2.344,-20.708,35.946,-5.079,-12.894,-18.364,21.099,5.079,-0.391,-27.741,0.391,-5.861,-5.861,5.861,5.079,0.391,-0.391,45.324
'[22:53:34.914 08/07/2079]',10.159,-12.894,-23.053,16.801,27.741,-18.755,-6.642,-9.768,24.225,-9.377,-7.424,-8.987,8.205,-16.801,1.563,4.298,3.516,-4.689,23.834,19.145,-10.940,-13.284,1.563,7.424
'[22:53:34.918 08/07/2079]',-6.642,7.424,13.284,-1.172,7.424,-1.954,1.954,5.079,6.642,3.907,0.000,0.000,7.814,-19.927,14.847,8.205,10.159,2.735,-12.503,0.391,-16.801,-3.516,14.847,-80.098
'[22:53:34.922 08/07/2079]',-3.907,17.192,33.993,-24.225,8.596,10.159,18.364,-14.847,6.642,7.033,-1.172,-5.861,7.033,-27.350,29.695,-1.954,14.847,9.377,-33.211,-14.457,0.000,-6.642,29.695,-210.598
'[22:53:34.926 08/07/2079]',16.410,7.424,25.788,-16.801,41.807,-0.781,9.377,-17.192,-1.172,6.252,-5.470,-12.894,-29.304,-3.907,18.364,0.781,9.377,4.298,-25.006,2.735,-16.410,-1.563,18.364,-311.795
'[22:53:34.930 08/07/2079]',39.853,2.344,33.993,-3.907,62.515,6.642,6.252,-2.735,21.880,12.894,-8.987,-7.033,-15.238,9.377,5.861,16.801,12.894,8.205,-33.211,2.735,-16.410,7.424,5.861,-328.205
'[22:53:34.934 08/07/2079]',33.211,2.735,28.523,0.000,58.999,6.642,8.205,-8.987,17.582,17.582,-3.907,-11.331,-5.470,6.642,6.252,11.722,11.331,9.377,-27.741,-5.079,-9.377,10.940,6.252,-250.061
'[22:53:34.938 08/07/2079]',7.424,11.331,17.973,11.722,39.072,4.298,4.689,0.781,22.271,13.284,-7.424,-17.973,0.391,17.582,-1.172,-6.252,14.457,4.689,-17.192,0.391,-2.344,19.927,-1.172,-129.719
'[22:53:34.941 08/07/2079]',-14.066,2.735,17.582,8.205,3.907,5.079,0.000,6.252,23.443,18.364,-7.033,-8.596,14.457,10.159,8.205,-7.814,14.457,5.861,-16.801,3.126,5.861,16.410,8.205,-25.788
'[22:53:34.945 08/07/2079]',-32.821,10.549,19.145,-5.861,-28.132,13.675,11.722,-5.470,-5.861,26.178,7.814,-12.894,45.324,-16.801,0.000,-11.331,19.927,13.675,-18.364,-12.894,21.880,23.443,0.000,25.006
'[22:53:34.949 08/07/2079]',-15.238,2.344,17.973,-8.205,-10.940,10.940,15.238,-16.801,-2.344,27.350,6.642,-23.053,-14.457,14.457,21.880,-13.284,15.238,8.987,-17.192,-8.596,0.781,16.801,21.880,27.350
'[22:53:34.953 08/07/2079]',17.973,-2.735,8.987,1.563,14.457,13.675,3.907,-5.861,2.735,33.211,3.126,-13.675,-1.954,9.377,25.397,-7.424,14.066,6.252,-8.205,1.172,-1.954,10.159,25.397,19.927
'[22:53:34.957 08/07/2079]',13.675,5.861,7.814,4.689,17.192,8.596,0.391,5.470,4.689,33.993,-3.907,-13.675,5.079,13.284,9.377,-8.205,14.847,5.079,-7.033,-1.954,2.344,9.377,9.377,26.960
'[22:53:34.961 08/07/2079]',1.954,15.238,12.894,7.424,16.020,5.861,7.424,7.033,1.954,31.258,-1.172,-10.159,-9.377,22.662,15.238,-7.814,15.629,4.298,-12.112,-5.079,0.000,10.940,15.238,41.416
'[22:53:34.965 08/07/2079]',1.172,4.298,10.159,6.642,2.735,10.159,5.470,4.298,-0.781,20.317,1.172,-1.172,-0.391,8.987,7.814,1.954,10.549,3.516,-9.377,1.954,2.735,2.344,7.814,48.840
'[22:53:34.969 08/07/2079]',1.954,-7.424,15.238,-3.126,-8.987,12.112,3.907,0.000,4.298,15.238,1.563,-2.344,5.861,3.126,3.516,4.689,10.940,1.954,-14.457,1.954,2.735,0.000,3.516,53.529
'[22:53:34.973 08/07/2079]',-1.954,-9.768,10.549,5.470,-17.582,13.675,2.344,5.861,8.205,5.470,-0.391,4.298,-4.298,4.689,4.689,12.503,6.642,2.344,-9.768,1.172,-11.722,2.735,4.689,63.687
'[22:53:34.977 08/07/2079]',12.503,-10.940,5.079,-2.344,-7.033,14.847,1.563,-5.079,27.741,-5.079,-3.126,2.735,-1.563,5.079,10.159,7.814,-1.954,-0.781,-4.298,1.172,-15.238,-1.954,10.159,67.985
'[22:53:34.980 08/07/2079]',8.987,-5.470,7.033,5.079,-1.563,12.894,-5.470,10.940,33.211,-7.033,-8.596,9.768,7.814,7.814,2.344,8.205,-3.516,-3.907,-6.252,3.516,-8.205,-2.344,2.344,62.906
'[22:53:34.984 08/07/2079]',-12.503,-3.907,-1.172,8.987,-8.596,-0.391,-8.987,8.205,14.847,-11.722,-10.940,12.503,-0.781,0.391,-5.861,11.331,-3.126,-4.689,1.954,0.781,-8.205,0.391,-5.861,57.045
'[22:53:34.988 08/07/2079]',-8.596,6.642,-1.954,5.079,11.331,-4.689,-7.033,2.344,-1.563,-18.755,-5.470,12.503,-13.284,-5.470,0.391,5.079,-3.516,-5.861,2.735,-7.033,1.172,-1.563,0.391,59.389
'[22:53:34.992 08/07/2079]',-9.768,6.252,-3.516,1.172,7.814,-0.391,-14.457,1.954,1.172,-19.927,-19.536,5.861,-7.033,-11.331,-7.814,-5.861,0.391,-10.940,4.298,1.563,5.470,-0.781,-7.814,68.376
'[22:53:34.996 08/07/2079]',-12.112,-11.331,-7.814,-5.470,-0.781,-3.516,-19.145,-12.894,-16.020,-13.675,-16.801,-2.344,-28.132,-14.066,1.172,-9.377,2.344,-12.503,8.596,7.424,0.781,-9.377,1.172,76.190
'[22:53:35.000 08/07/2079]',-7.814,-13.675,-2.735,12.894,-0.391,5.861,-8.987,-7.033,13.284,-19.927,-1.563,9.768,-12.112,1.172,1.954,10.159,5.470,-5.079,3.516,-1.172,3.907,7.033,1.954,85.177
'[22:53:35.004 08/07/2079]',-3.516,-7.814,-1.172,8.596,-4.689,14.066,-11.331,-1.172,20.708,-3.516,-8.205,5.861,11.331,3.126,3.907,-5.470,4.689,-9.377,1.954,0.391,11.722,0.781,3.907,92.991
'[22:53:35.008 08/07/2079]',0.781,1.954,1.172,10.940,3.126,15.238,-14.066,10.549,5.861,7.033,-7.814,12.503,10.940,0.391,0.391,5.861,5.470,-7.033,-0.391,3.516,4.689,-5.079,0.391,97.680
'[22:53:35.012 08/07/2079]',8.205,8.596,6.642,5.470,23.834,8.987,-3.126,0.391,3.516,-3.516,5.470,2.344,4.689,-2.344,-2.735,8.987,5.470,0.781,-5.861,-3.126,4.689,0.000,-2.735,92.210
'[22:53:35.016 08/07/2079]',16.020,8.205,10.159,3.126,24.225,16.410,3.126,-5.861,-7.814,11.722,8.596,0.391,6.252,-2.344,3.907,5.079,8.205,5.079,-9.377,-7.424,11.331,0.000,3.907,83.223
'[22:53:35.020 08/07/2079]',7.033,0.391,8.596,5.470,21.099,10.940,-3.516,-7.033,-10.159,3.516,1.954,3.126,-1.954,-3.516,0.391,4.298,10.159,5.861,-7.814,1.954,12.112,0.391,0.391,79.707
'[22:53:35.023 08/07/2079]',5.470,-8.205,11.331,0.391,23.834,3.907,-1.954,-16.410,-7.814,-9.768,3.907,-4.298,-23.443,10.159,3.907,-9.377,9.768,9.377,-10.549,-2.344,21.490,5.079,3.907,87.521
'[22:53:35.027 08/07/2079]',-5.470,-0.781,16.801,7.814,0.391,23.834,7.033,-12.894,1.563,6.252,10.940,0.391,0.391,15.629,11.331,-8.205,14.066,14.457,-16.020,-7.424,21.880,12.503,11.331,103.932
'[22:53:35.031 08/07/2079]',12.894,0.781,14.457,17.192,6.642,33.602,10.940,-6.252,11.722,14.847,8.987,-0.781,20.708,11.722,6.642,-5.079,17.582,15.629,-13.675,-5.079,16.801,13.675,6.642,111.746
'[22:53:35.035 08/07/2079]',28.523,-2.735,30.085,8.205,12.503,40.244,14.847,-4.298,14.847,19.927,19.145,-6.642,28.132,17.192,-1.172,2.344,21.880,18.364,-29.304,-7.814,14.457,16.410,-1.172,112.137
'[22:53:35.039 08/07/2079]',9.768,3.516,18.364,22.271,-3.907,35.556,13.284,9.768,28.132,21.099,12.112,-5.861,29.304,14.457,3.907,7.033,24.225,17.973,-17.582,-8.596,2.344,20.317,3.907,105.495
'[22:53:35.043 08/07/2079]',5.861,10.549,14.066,10.549,6.252,22.271,11.331,1.563,39.853,21.490,9.768,-12.112,32.039,22.271,3.126,0.391,22.271,13.675,-13.284,-6.252,2.344,27.350,3.126,98.071
'[22:53:35.047 08/07/2079]',0.391,3.126,7.424,24.225,8.205,10.940,2.735,12.112,22.271,16.020,12.503,-3.516,10.940,27.741,1.563,6.642,17.582,11.722,-6.642,2.344,16.410,15.629,1.563,87.131
'[22:53:35.051 08/07/2079]',-21.490,-4.689,3.907,15.629,-4.298,-5.079,0.391,2.344,5.470,0.391,8.596,-5.470,-7.424,18.755,0.000,-2.344,7.814,5.470,-3.126,0.781,19.927,19.536,0.000,80.879
'[22:53:35.055 08/07/2079]',-17.582,2.344,3.126,10.549,5.470,-10.159,1.954,0.391,16.410,-4.689,4.689,-4.298,3.907,20.317,3.126,-17.192,2.735,0.781,-2.344,-0.781,22.662,23.443,3.126,84.005
'[22:53:35.059 08/07/2079]',-13.284,2.735,6.252,12.503,5.861,-8.987,0.000,11.722,-7.424,9.768,-0.781,-0.781,12.112,1.563,3.907,-18.364,1.172,-4.298,-5.470,3.516,19.145,12.894,3.907,94.945
'[22:53:35.063 08/07/2079]',-8.987,-11.722,9.768,13.675,-5.079,-4.298,-1.563,14.457,2.735,-1.954,1.563,6.642,21.880,-8.205,-0.781,-3.516,-1.954,-3.907,-8.987,3.516,9.377,10.549,-0.781,96.899
'[22:53:35.066 08/07/2079]',5.079,-15.238,3.126,20.317,5.861,-2.735,-0.781,11.722,7.424,9.768,3.126,7.814,26.960,-9.768,8.205,3.516,-3.516,-6.642,-2.344,-1.172,-3.907,13.675,8.205,102.369
'[22:53:35.070 08/07/2079]',15.238,-4.298,0.391,14.847,26.569,-5.861,-7.424,12.894,3.907,17.973,-4.298,11.722,11.722,7.424,10.940,-1.563,-4.298,-12.503,0.391,0.391,-7.424,10.159,10.940,113.700
'[22:53:35.074 08/07/2079]',3.907,-0.781,-11.722,11.722,18.364,-10.159,-18.364,13.284,4.689,8.596,-13.675,7.424,2.735,19.145,0.391,-15.238,-6.642,-16.410,12.503,4.689,0.000,5.861,0.391,120.733
'[22:53:35.078 08/07/2079]',6.642,1.172,-11.331,5.079,32.430,-18.364,-12.112,0.391,-13.284,11.722,-7.033,-0.391,7.033,8.596,-3.907,-21.099,-7.814,-12.894,12.112,-0.391,8.596,9.768,-3.907,117.998
'[22:53:35.082 08/07/2079]',12.503,6.252,-10.549,12.503,40.244,-14.457,-4.689,-0.391,-2.344,13.675,-3.907,1.563,15.238,7.033,-2.344,-12.112,-8.987,-8.596,11.331,-4.298,10.549,15.238,-2.344,92.210
'[22:53:35.086 08/07/2079]',3.907,5.861,-9.377,15.238,26.178,-6.252,-11.722,8.205,8.987,6.642,-9.377,6.252,33.993,-3.907,-8.987,-7.814,-6.642,-8.987,10.159,-1.563,21.099,7.814,-8.987,75.018
'[22:53:35.090 08/07/2079]',-10.159,-8.205,-0.391,18.364,-12.503,7.033,-13.675,18.755,-9.377,5.079,-4.689,10.940,64.860,-45.324,-17.582,-0.781,-6.642,-5.861,1.172,-0.391,17.973,10.159,-17.582,48.449
'[22:53:35.094 08/07/2079]',-21.099,-2.344,-2.344,12.894,-17.973,6.252,-12.503,10.940,16.410,-15.629,-7.424,6.642,7.033,0.781,-3.126,-4.689,-11.331,-8.987,3.126,-5.861,2.735,12.894,-3.126,51.184
'[22:53:35.098 08/07/2079]',-25.788,-3.126,-8.987,11.722,-36.728,19.536,-21.099,12.112,21.490,-22.662,-10.940,8.205,5.470,-1.172,-3.516,-4.689,-9.377,-12.503,9.768,-1.563,0.000,3.907,-3.516,42.198
'[22:53:35.102 08/07/2079]',-31.648,-6.252,-0.391,5.470,-32.821,8.596,-19.536,10.159,14.847,-35.165,-6.252,-0.391,-3.126,-2.735,3.907,-25.397,-6.252,-10.159,1.172,0.000,6.252,0.781,3.907,51.575
'[22:53:35.105 08/07/2079]',-19.145,7.814,-8.205,10.549,4.689,-3.516,-17.973,7.424,26.569,-31.648,-10.159,0.391,-8.205,5.079,-2.735,-8.987,-10.159,-9.377,8.987,-9.377,1.954,1.954,-2.735,33.211
'[22:53:35.109 08/07/2079]',-6.252,19.927,-5.079,12.894,34.774,-7.424,-12.894,6.252,20.317,-5.470,-11.331,1.954,4.689,-2.344,8.205,-5.470,-7.424,-8.205,5.861,-6.252,-3.126,0.000,8.205,30.085
'[22:53:35.113 08/07/2079]',12.503,13.675,3.516,7.424,43.370,-0.781,-10.940,7.424,-1.172,16.801,-4.689,3.516,19.145,-16.020,0.391,9.768,-4.298,-4.298,-2.735,-1.563,-6.642,-5.470,0.391,10.159
'[22:53:35.117 08/07/2079]',16.801,5.470,5.861,8.596,37.509,2.344,-3.126,0.781,-0.391,19.927,-0.391,-1.172,16.020,0.000,-12.503,13.284,-3.907,0.781,-5.079,-10.549,-0.781,8.596,-12.503,0.391
'[22:53:35.121 08/07/2079]',10.940,3.126,14.847,4.689,40.635,-10.159,7.033,-2.344,-12.894,19.927,1.563,3.126,5.079,3.126,1.563,0.781,-1.954,4.689,-14.066,-9.768,8.987,7.814,1.563,-14.457
'[22:53:35.125 08/07/2079]',3.126,12.112,7.424,0.391,12.894,8.596,2.344,-0.781,-6.252,7.424,-1.172,-11.331,5.470,8.596,0.391,-27.741,0.391,6.252,-6.642,-7.033,19.145,1.563,0.391,-28.523
'[22:53:35.129 08/07/2079]',-7.814,8.205,4.298,14.847,2.735,6.642,7.814,1.954,9.768,-8.596,4.689,-2.735,5.079,14.847,0.000,-17.582,1.563,14.457,-3.516,-5.861,24.615,8.205,0.000,-48.059
'[22:53:35.133 08/07/2079]',-37.509,12.503,10.549,14.457,-24.225,10.159,15.238,-1.172,-3.907,0.391,14.457,-3.907,-5.079,17.582,5.470,-11.331,0.391,17.973,-9.768,-7.424,20.708,5.470,5.470,-73.455
'[22:53:35.137 08/07/2079]',-38.291,21.099,11.722,5.079,-37.900,20.708,12.112,4.689,0.000,10.940,11.331,-5.470,15.629,-0.391,10.159,-9.768,1.172,14.066,-10.940,-7.424,2.735,0.391,10.159,-89.866
'[22:53:35.141 08/07/2079]',-44.151,14.066,6.642,5.079,-58.608,23.053,9.768,7.424,3.516,11.722,12.503,3.126,16.801,11.722,1.172,1.954,2.344,16.020,-5.861,-3.126,3.126,7.033,1.172,-95.336
'[22:53:35.145 08/07/2079]',-10.159,6.252,34.774,-10.940,-16.410,12.894,21.880,1.172,-3.907,16.801,20.708,-4.298,15.238,7.814,9.377,-3.516,1.172,21.099,-33.993,-8.987,8.596,10.159,9.377,-98.071
'[22:53:35.148 08/07/2079]',10.549,10.940,8.987,7.424,14.457,0.391,20.317,3.126,-3.516,14.457,17.582,-6.252,19.927,7.814,1.954,-9.377,-0.781,17.582,-8.205,-5.079,19.536,7.814,1.954,-100.024
'[22:53:35.152 08/07/2079]',41.026,2.344,8.205,19.145,43.761,4.689,9.768,11.722,1.563,9.768,15.238,6.642,-10.159,31.648,8.596,4.298,-0.781,13.675,-7.424,2.735,14.847,6.252,8.596,-100.024
'[22:53:35.156 08/07/2079]',20.708,7.033,7.424,17.582,60.562,-21.880,2.344,13.284,-0.391,9.768,6.642,6.252,-1.172,27.350,0.781,-4.298,-3.907,7.814,-6.642,0.000,25.397,15.629,0.781,-93.382
'[22:53:35.160 08/07/2079]',1.954,14.847,0.391,14.457,37.900,-21.099,2.344,12.894,1.563,9.768,1.563,2.344,10.549,15.238,1.172,-11.722,-8.205,0.781,0.391,-0.781,21.490,7.033,1.172,-92.991
'[22:53:35.164 08/07/2079]',-1.954,1.954,2.735,5.861,7.033,-5.861,1.172,7.424,-0.781,7.814,2.735,1.563,14.847,9.768,-0.781,-12.112,-8.987,-5.079,-1.954,4.298,19.927,3.126,-0.781,-92.991
'[22:53:35.168 08/07/2079]',-12.894,1.563,2.344,0.391,0.000,-12.894,-3.126,8.987,-1.172,1.172,2.344,4.298,20.708,9.768,-11.722,-12.894,-8.205,-5.470,-1.563,1.563,24.615,7.814,-11.722,-89.866
'[22:53:35.172 08/07/2079]',-21.880,1.172,-4.298,1.954,-19.927,-5.470,-3.907,7.033,-5.079,-0.781,-5.079,-3.907,23.053,-10.940,-3.126,-25.006,-10.940,-10.549,5.079,3.516,23.834,-4.298,-3.126,-73.455
'[22:53:35.176 08/07/2079]',-9.377,10.940,0.391,-4.298,-4.689,1.172,-4.689,7.033,-5.079,2.344,-8.987,-3.126,17.192,-11.331,-3.907,-17.973,-10.159,-11.331,0.391,8.987,15.629,-12.503,-3.907,-56.264
'[22:53:35.180 08/07/2079]',-4.298,0.391,1.563,3.907,17.973,-19.927,-7.814,12.503,-3.516,-4.298,-7.033,10.159,7.814,3.126,-14.457,-2.735,-14.847,-10.159,-0.781,13.284,11.331,3.907,-14.457,-49.231
'[22:53:35.184 08/07/2079]',-11.722,-10.549,-1.172,11.722,3.907,-23.053,-4.689,11.331,-6.642,-7.814,-3.516,8.596,7.814,-8.596,-3.907,-5.079,-17.973,-10.159,1.954,8.596,16.801,-5.861,-3.907,-48.059
'[22:53:35.188 08/07/2079]',-3.907,-10.159,4.689,5.861,15.629,-32.430,-3.907,17.582,-11.722,-8.596,-9.377,5.470,-1.954,-9.768,-5.470,-6.642,-17.192,-14.847,-3.907,6.642,3.516,-8.205,-5.470,-48.840
'[22:53:35.191 08/07/2079]',-30.476,-12.112,-10.549,3.907,-25.788,-22.662,-14.457,13.675,-12.112,-16.801,-17.973,0.391,-4.689,-1.563,-14.457,-25.397,-17.973,-19.536,11.331,11.331,14.066,-8.987,-14.457,-44.933
'[22:53:35.195 08/07/2079]',-28.913,-11.722,-4.689,5.470,-32.039,-2.735,-12.112,8.205,-14.847,-12.894,-6.252,0.000,0.781,-14.457,-12.112,-9.768,-13.284,-14.066,5.470,3.516,24.615,-20.317,-12.112,-40.244
'[22:53:35.199 08/07/2079]',-11.722,-8.596,-12.112,17.973,-9.377,-5.470,-13.284,13.284,-14.066,-13.284,-5.470,9.377,7.814,-21.880,-30.085,20.708,-14.847,-11.722,12.894,-1.954,9.377,-11.331,-30.085,-34.383
'[22:53:35.203 08/07/2079]',-11.331,2.344,-5.470,-3.907,-14.457,14.457,-11.722,-5.470,-4.689,-14.457,-7.424,-8.596,22.662,-10.940,-58.999,9.768,-9.768,-13.284,6.252,2.735,20.317,-12.112,-58.999,-20.708
'[22:53:35.207 08/07/2079]',3.516,1.954,-7.424,0.391,31.648,-17.192,-14.066,-1.954,-2.735,-21.099,-3.516,-6.642,16.020,-11.722,-36.728,-2.344,-9.377,-8.987,8.205,4.298,8.596,-2.344,-36.728,-0.391
'[22:53:35.211 08/07/2079]',25.006,-3.516,-13.675,0.391,57.827,-30.476,-10.940,-8.205,-5.861,-17.192,2.735,-9.377,14.066,-30.476,-17.192,2.735,-10.940,-4.689,14.457,0.781,-14.847,-7.033,-17.192,22.662
'[22:53:35.215 08/07/2079]',31.258,14.847,-11.331,-5.079,64.860,-12.503,-5.470,-16.410,0.391,-14.847,-1.563,-18.755,-25.788,1.172,-14.457,2.735,-9.377,-4.298,12.112,-2.735,-17.192,-7.424,-14.457,38.291
'[22:53:35.219 08/07/2079]',36.728,8.987,5.079,-14.457,59.780,-1.172,-2.344,-19.536,-3.516,-5.470,14.457,-7.033,-17.192,-11.722,25.006,1.172,-6.642,5.861,-4.298,0.391,-14.847,-12.503,25.006,61.734
'[22:53:35.223 08/07/2079]',5.470,13.284,4.298,11.722,32.039,-7.424,2.344,8.596,-12.503,-0.781,18.364,4.298,-24.615,-21.880,26.960,27.741,-5.079,15.238,-3.516,-6.252,-29.695,-15.629,26.960,91.429
'[22:53:35.227 08/07/2079]',-17.973,28.132,8.596,15.629,-10.549,21.099,16.020,8.205,-12.894,1.172,26.178,7.814,-17.582,-14.457,5.079,49.621,-1.172,19.536,-7.814,-11.331,-27.741,-9.768,5.079,131.673
'[22:53:35.230 08/07/2079]',-16.801,22.662,12.894,3.516,17.192,-13.675,19.145,0.391,-12.894,3.516,30.867,-3.516,2.344,-7.033,12.894,8.205,2.735,18.755,-12.112,0.391,-22.271,-4.689,12.894,170.354
'[22:53:35.234 08/07/2079]',-1.954,6.642,-1.563,19.145,10.940,-7.814,14.457,3.907,-10.940,0.000,33.211,-2.344,9.768,-12.894,14.066,7.424,3.516,19.927,2.344,-3.907,-14.066,-3.516,14.066,198.486
'[22:53:35.238 08/07/2079]',5.861,24.615,10.159,16.020,23.053,3.907,22.271,8.205,-8.205,-2.735,30.867,8.596,-1.172,-14.066,13.284,29.695,4.298,20.708,-9.377,-13.675,-19.536,-2.344,13.284,209.035
'[22:53:35.242 08/07/2079]',10.159,33.993,20.708,-8.205,42.198,0.391,18.755,-4.298,0.391,7.814,21.880,-11.331,7.814,0.391,-1.563,10.940,8.205,19.536,-19.927,-5.470,-5.079,-2.735,-1.563,183.248
'[22:53:35.246 08/07/2079]',6.642,18.364,21.880,9.768,14.457,21.490,14.066,6.642,-4.298,11.722,30.085,-4.689,2.344,1.172,16.020,11.331,13.675,27.350,-21.099,0.781,-3.907,3.516,16.020,129.719
'[22:53:35.250 08/07/2079]',-8.205,19.145,7.814,22.271,0.391,16.801,17.192,7.033,-12.112,22.271,39.463,-5.079,-1.172,-1.954,23.834,22.271,14.457,32.430,-7.033,-7.814,-5.079,-0.781,23.834,72.674
'[22:53:35.254 08/07/2079]',-6.252,23.443,2.735,12.112,22.662,-3.126,14.457,-1.172,-9.768,34.774,28.523,-16.801,-1.563,8.205,25.788,3.907,20.317,23.443,-1.954,-5.861,2.735,-3.907,25.788,33.602
'[22:53:35.258 08/07/2079]',-9.377,18.755,0.781,1.563,6.252,-2.344,6.252,2.344,-11.722,21.490,15.238,-14.847,-5.861,16.020,7.033,-7.814,15.238,12.894,0.000,-5.079,10.940,5.470,7.033,9.377
'[22:53:35.262 08/07/2079]',-8.987,20.317,-6.252,9.768,-6.252,4.689,9.377,6.642,-1.954,18.364,17.973,-15.238,-4.298,5.861,23.834,-5.861,9.768,10.159,7.033,-16.020,9.377,-7.424,23.834,-7.814
'[22:53:35.266 08/07/2079]',-22.271,13.675,3.907,-3.126,-18.364,1.954,12.503,-3.516,5.470,8.205,2.344,-17.582,12.112,-16.410,0.391,3.126,0.781,0.000,-3.126,-13.284,28.913,-19.927,0.391,-41.807
'[22:53:35.270 08/07/2079]',-21.880,8.987,-6.252,6.252,-21.099,1.563,-1.954,7.814,14.457,-3.907,-10.159,-9.377,30.085,-31.258,-7.033,0.000,-1.954,-13.284,7.033,-3.126,23.053,-22.662,-7.033,-77.753
'[22:53:35.273 08/07/2079]',-4.689,12.112,-14.066,10.159,13.675,-9.768,-11.331,12.112,14.066,-1.954,-13.284,-5.861,23.443,-25.397,12.112,-18.364,-3.907,-16.410,14.847,-1.172,24.615,-27.350,12.112,-107.448
'[22:53:35.277 08/07/2079]',-24.615,8.987,-16.801,4.689,7.033,-27.741,-12.112,5.079,-4.298,-0.391,-15.629,-11.722,24.615,-36.728,0.391,-21.880,-8.596,-23.053,17.582,-1.954,24.225,-24.225,0.391,-114.090
'[22:53:35.281 08/07/2079]',-14.066,4.298,-19.145,1.954,21.099,-35.946,-17.582,6.252,1.954,-12.894,-19.145,-4.689,-4.298,-8.987,-4.689,-16.410,-11.722,-30.867,19.927,2.735,14.847,-18.364,-4.689,-101.197
'[22:53:35.285 08/07/2079]',-17.582,0.391,-11.331,-8.205,10.549,-32.821,-18.364,3.516,-11.722,-17.582,-12.503,-1.954,-14.066,0.391,-16.020,-16.020,-15.238,-33.602,12.112,5.079,18.364,-11.722,-16.020,-74.237
'[22:53:35.289 08/07/2079]',-34.774,-0.781,-12.112,-2.344,-27.350,-21.880,-18.364,17.192,-10.549,-21.099,-21.880,1.954,-3.907,-10.549,-23.053,-12.894,-18.755,-31.648,12.894,4.298,22.271,-20.317,-23.053,-57.045
'[22:53:35.293 08/07/2079]',-41.416,-5.861,-14.847,-4.689,-37.509,-21.880,-15.238,8.205,1.563,-23.834,-28.913,-2.344,6.252,-10.940,-26.178,-23.053,-23.834,-32.430,15.629,6.642,33.602,-22.662,-26.178,-58.217
'[22:53:35.297 08/07/2079]',-30.476,-0.391,-21.880,8.987,-15.238,-23.053,-17.582,13.284,17.192,-25.397,-30.867,-4.298,23.443,-16.410,-26.569,-23.443,-25.788,-30.867,22.662,7.424,45.714,-31.648,-26.569,-80.488
'[22:53:35.301 08/07/2079]',-22.271,-0.781,-16.410,8.205,-14.457,-12.894,-14.847,11.722,7.814,-18.364,-25.788,-8.205,25.788,-19.927,-28.913,-22.271,-25.006,-25.788,17.192,-0.391,48.059,-30.476,-28.913,-91.429
'[22:53:35.305 08/07/2079]',-16.801,7.424,-10.159,-9.377,0.000,-12.894,-12.112,-3.126,4.689,-11.331,-25.788,-15.238,11.722,-10.940,-18.755,-31.258,-20.317,-28.132,10.940,-7.424,35.165,-20.708,-18.755,-76.581
'[22:53:35.309 08/07/2079]',-17.582,14.066,-16.410,-3.907,10.549,-14.457,-19.145,-0.391,3.126,-8.596,-25.006,-14.066,14.457,-8.987,-24.615,-25.788,-18.755,-27.741,17.192,-3.516,38.291,-22.662,-24.615,-43.761
'[22:53:35.313 08/07/2079]',-18.755,11.331,-17.973,4.689,-11.331,5.079,-17.973,4.298,-11.331,-5.861,-9.768,0.391,20.708,-21.099,-25.006,-1.954,-14.066,-16.801,18.755,-2.735,31.648,-25.006,-25.006,-16.020
'[22:53:35.316 08/07/2079]',-8.987,-1.172,-12.894,1.172,-17.192,10.159,-4.298,-10.940,-10.940,1.563,-12.503,-2.735,12.503,-17.192,-21.490,1.563,-9.768,-7.814,13.675,-6.642,27.350,-14.457,-21.490,-5.079
'[22:53:35.320 08/07/2079]',-20.708,0.391,-32.821,38.291,-14.457,1.954,-7.424,5.470,7.033,-2.735,-20.708,3.907,14.066,-8.205,-17.973,0.391,-11.331,-2.344,33.602,-3.516,36.728,-14.066,-17.973,1.954
'[22:53:35.324 08/07/2079]',-28.913,9.768,-42.979,45.714,-27.350,8.205,-8.205,11.722,18.755,-8.596,-23.834,2.344,19.927,-14.457,-23.053,6.252,-10.549,0.000,43.761,0.781,35.556,-22.662,-23.053,29.695
'[22:53:35.328 08/07/2079]',-13.675,19.145,-14.066,5.861,-8.987,8.596,12.503,-14.457,7.033,10.549,-13.284,-11.331,29.695,-13.675,-12.503,-10.549,-3.516,7.424,14.847,-10.159,34.383,-17.582,-12.503,74.237
'[22:53:35.332 08/07/2079]',-15.238,25.397,-3.907,5.470,7.814,4.298,9.768,-9.768,-8.987,14.847,-2.735,-5.861,17.973,-28.913,0.391,6.642,-4.298,7.814,4.689,-17.582,22.271,-22.271,0.391,136.752
'[22:53:35.336 08/07/2079]',-33.602,48.840,0.391,-11.331,-12.503,14.847,10.549,-8.596,-12.503,18.755,1.172,-1.172,23.443,-28.132,-12.112,23.053,0.000,9.768,0.391,-15.629,18.364,-32.039,-12.112,167.228
'[22:53:35.340 08/07/2079]',-26.178,51.575,33.993,-29.695,-7.814,13.675,17.582,5.861,-41.416,33.602,8.596,0.391,56.264,-56.654,-3.126,4.298,7.814,14.847,-33.211,-28.132,26.569,-25.397,-3.126,173.089
'[22:53:35.344 08/07/2079]',-16.410,31.258,30.867,-28.132,-5.079,17.192,12.112,-5.861,-14.847,8.596,6.642,-6.252,-10.549,-7.814,7.033,5.470,5.079,11.722,-30.085,-16.410,11.722,-13.675,7.033,134.408
'[22:53:35.348 08/07/2079]',-17.192,25.006,19.145,-17.973,0.391,4.689,7.424,-3.516,9.377,6.642,5.079,-3.907,4.689,1.172,1.954,8.596,5.079,6.252,-18.364,-7.424,9.377,-9.768,1.954,76.190
'[22:53:35.352 08/07/2079]',-14.847,20.317,5.861,-12.894,10.159,-9.768,3.907,-4.689,21.490,2.344,1.563,-15.238,19.927,7.424,10.940,-29.304,4.689,3.907,-5.079,-3.907,21.490,4.298,10.940,25.788
'[22:53:35.355 08/07/2079]',-21.880,18.755,8.205,-16.801,3.126,-11.722,6.642,-8.987,22.271,-1.954,6.642,-20.317,6.642,8.596,10.940,-19.927,1.563,3.516,-7.424,-7.033,13.675,4.298,10.940,-19.536
'[22:53:35.359 08/07/2079]',-35.946,19.927,3.516,1.563,-17.973,-7.033,9.377,6.642,19.145,0.781,7.814,-20.317,10.940,-2.735,17.582,-17.582,0.391,0.391,-2.735,-0.781,7.424,-5.470,17.582,-58.608
'[22:53:35.363 08/07/2079]',-33.993,27.350,9.377,1.172,-16.410,-4.689,11.722,14.457,19.145,-1.172,10.940,-8.987,26.569,-13.284,15.238,-8.596,1.954,1.172,-8.596,-3.126,12.894,-9.377,15.238,-110.183
'[22:53:35.367 08/07/2079]',-33.602,13.675,12.112,12.894,-27.741,2.735,12.503,17.192,14.847,-1.954,14.847,0.391,12.894,-1.954,17.192,-0.781,1.563,1.172,-11.331,-9.768,23.834,-5.861,17.192,-157.460
'[22:53:35.371 08/07/2079]',-29.695,3.907,2.344,12.894,-17.973,-7.814,7.424,8.596,8.987,1.954,2.735,-1.563,-3.516,2.735,26.569,-13.675,-3.126,-5.861,-1.563,-0.781,20.317,-10.940,26.569,-186.764
'[22:53:35.375 08/07/2079]',-17.192,16.801,-0.391,0.391,17.192,-20.317,-1.563,4.298,10.940,-3.126,-6.642,0.391,-0.391,5.079,12.894,-17.192,-5.470,-15.238,1.172,-1.954,20.317,-6.252,12.894,-187.546
'[22:53:35.379 08/07/2079]',-25.788,6.252,-16.801,20.317,3.126,-23.053,-6.642,10.940,5.470,-7.814,-7.814,5.470,1.563,7.814,-5.470,-8.596,-7.814,-13.284,17.582,-1.563,19.536,5.861,-5.470,-167.228
'[22:53:35.383 08/07/2079]',-29.695,1.954,-6.642,7.814,-19.536,-7.814,0.000,2.344,-14.066,-7.033,-6.252,-2.735,-12.112,-9.377,-3.516,-4.298,-10.940,-12.503,7.424,-4.298,12.112,-2.735,-3.516,-135.971
'[22:53:35.387 08/07/2079]',-41.807,9.377,-7.424,2.344,-18.755,-20.708,-5.861,8.987,-0.391,-21.099,-17.582,4.298,-14.066,-12.112,-12.112,4.298,-15.629,-17.973,8.205,-9.768,2.344,-6.252,-12.112,-102.759
'[22:53:35.391 08/07/2079]',-49.621,11.331,-12.894,4.298,-43.370,-4.689,-8.205,10.549,-2.344,-16.020,-15.629,4.689,-14.066,-22.662,4.298,3.126,-12.894,-12.894,13.675,-7.424,1.172,-20.317,4.298,-77.753
'[22:53:35.395 08/07/2079]',-30.476,7.033,-6.642,5.861,-28.913,1.172,0.000,3.516,-20.317,-8.987,-3.907,-3.516,-19.536,-38.681,16.801,3.516,-10.549,-6.252,7.424,-7.814,-7.424,-22.271,16.801,-68.376
'[22:53:35.398 08/07/2079]',-5.861,8.205,-9.768,10.940,8.596,-5.470,1.172,0.000,-8.205,-10.549,-4.689,-1.563,-16.410,-21.880,13.675,-0.781,-10.940,-5.861,10.549,-10.159,8.596,-20.708,13.675,-77.363
'[22:53:35.402 08/07/2079]',-1.954,7.814,-15.629,18.364,10.940,-0.391,-7.814,6.252,-3.516,-8.596,-8.596,3.126,-9.768,-24.225,20.708,-5.079,-6.252,-5.079,16.410,-5.470,-5.079,-10.549,20.708,-89.475
'[22:53:35.406 08/07/2079]',-32.039,8.596,-5.079,10.549,-30.085,8.987,-2.735,6.252,-18.755,-7.424,-13.284,-0.391,7.033,-31.258,-9.768,-7.424,-3.516,-3.126,5.861,-7.033,-0.781,3.907,-9.768,-94.554
'[22:53:35.410 08/07/2079]',-40.635,21.099,-7.424,2.344,-19.927,3.907,0.391,-8.205,5.079,-17.973,-15.629,-0.391,-13.284,-14.066,-2.735,1.563,-7.814,-6.642,8.205,-14.066,-1.954,-4.689,-2.735,-95.336
'[22:53:35.414 08/07/2079]',-41.026,16.020,-16.410,14.847,-24.225,5.470,-1.954,-5.079,4.689,-5.861,-10.159,4.298,-1.954,-30.476,4.298,21.490,-7.033,-7.424,17.192,-14.066,-21.099,-14.066,4.298,-92.991
'[22:53:35.418 08/07/2079]',-33.602,18.755,-18.364,14.066,-18.364,12.112,-4.689,-8.596,5.470,-8.987,-7.814,3.126,-3.907,-23.834,-7.033,27.741,-5.470,-5.470,19.145,-12.894,-14.066,-18.364,-7.033,-89.866
